Unit:(mV)
                     CH1         CH2
Frequency              ?  97.878 kHz
00001               9.00    -2200.00
00002             -11.80    -2400.00
00003              -5.20    -2200.00
00004              11.60    -2400.00
00005              -3.80    -2400.00
00006             -11.60    -2400.00
00007               7.00    -2400.00
00008               3.80    -2400.00
00009             -11.80    -2400.00
00010              -1.00    -2400.00
00011               7.80    -2400.00
00012              -5.40    -2600.00
00013              -7.40    -2400.00
00014               5.20    -2600.00
00015               0.60    -2400.00
00016              -9.00    -2600.00
00017               0.40    -2600.00
00018               4.20    -2600.00
00019              -5.80    -2800.00
00020              -4.20    -2800.00
00021               3.40    -2800.00
00022              -1.40    -2600.00
00023              -6.00    -2800.00
00024               0.20    -2800.00
00025               1.20    -2800.00
00026              -4.40    -2800.00
00027              -2.80    -2800.00
00028               1.20    -3000.00
00029              -2.00    -2800.00
00030              -4.20    -3000.00
00031              -1.00    -2800.00
00032              -0.60    -3000.00
00033              -3.80    -3200.00
00034              -2.20    -3000.00
00035               0.20    -3200.00
00036              -2.20    -3200.00
00037              -3.00    -3200.00
00038              -1.40    -3200.00
00039              -1.40    -3200.00
00040              -2.80    -3200.00
00041              -2.60    -3200.00
00042              -1.20    -3400.00
00043              -1.40    -3200.00
00044              -2.80    -3200.00
00045              -2.80    -3400.00
00046              -1.60    -3400.00
00047              -2.20    -3400.00
00048              -2.80    -3600.00
00049              -2.20    -3400.00
00050              -1.80    -3400.00
00051              -2.20    -3600.00
00052              -2.60    -3400.00
00053              -2.20    -3600.00
00054              -2.20    -3600.00
00055              -2.60    -3600.00
00056              -2.20    -3600.00
00057              -2.00    -3600.00
00058              -2.80    -3600.00
00059              -2.60    -3600.00
00060              -1.80    -3600.00
00061              -2.40    -3600.00
00062              -3.00    -3600.00
00063              -2.80    -3600.00
00064              -2.40    -3600.00
00065              -2.80    -3800.00
00066              -2.80    -3800.00
00067              -2.20    -3800.00
00068              -2.20    -3600.00
00069              -3.00    -3800.00
00070              -2.40    -4000.00
00071              -2.20    -3800.00
00072              -3.00    -4000.00
00073              -3.00    -4000.00
00074              -2.60    -4000.00
00075              -2.80    -4000.00
00076              -2.80    -4000.00
00077              -3.00    -4000.00
00078              -3.00    -4000.00
00079              -2.80    -4200.00
00080              -3.00    -4000.00
00081              -2.60    -4200.00
00082              -2.60    -4000.00
00083              -3.80    -4000.00
00084              -2.80    -4200.00
00085              -2.60    -4000.00
00086              -3.80    -4200.00
00087              -3.00    -4200.00
00088              -3.20    -4200.00
00089              -3.00    -4200.00
00090              -3.00    -4200.00
00091              -3.60    -4200.00
00092              -2.60    -4200.00
00093              -1.40    -4200.00
00094              -9.20    -4400.00
00095               0.20    -4400.00
00096              -6.20    -4200.00
00097              -9.00    -4400.00
00098               1.40    -4400.00
00099              -3.80    -4400.00
00100               1.20    -4400.00
00101              -0.20    -4200.00
00102              -9.00    -4600.00
00103              -3.80    -4400.00
00104              -6.20    -4600.00
00105              -8.20    -4400.00
00106              -2.00    -4400.00
00107              -7.20    -4400.00
00108               3.60    -4200.00
00109              -4.20    -4400.00
00110              -3.00    -4400.00
00111              -1.00    -4600.00
00112             -12.40    -4600.00
00113              -3.00    -4800.00
00114              -9.40    -4400.00
00115              -3.40    -4400.00
00116              -0.40    -4600.00
00117              -3.80    -4600.00
00118              -3.80    -4600.00
00119              -2.60    -4600.00
00120              -5.40    -4800.00
00121              -9.40    -4600.00
00122              -3.40    -4800.00
00123              -7.60    -4600.00
00124              -3.80    -4800.00
00125              -4.40    -4600.00
00126              -3.80    -4600.00
00127              -2.80    -4800.00
00128              -7.20    -4800.00
00129              -3.80    -4600.00
00130              -7.00    -4800.00
00131              -5.40    -4600.00
00132              -5.80    -4800.00
00133              -5.80    -4600.00
00134              -4.60    -4800.00
00135              -5.60    -4800.00
00136              -3.40    -4800.00
00137              -6.00    -4800.00
00138              -6.80    -4600.00
00139              -6.20    -4800.00
00140              -6.00    -4800.00
00141              -6.00    -4800.00
00142              -6.80    -4800.00
00143              -5.80    -4800.00
00144              -6.00    -4800.00
00145              -5.20    -4800.00
00146              -6.80    -4800.00
00147              -5.40    -4800.00
00148              -6.60    -4800.00
00149              -7.60    -5000.00
00150              -6.00    -4800.00
00151              -7.00    -4600.00
00152              -6.60    -4800.00
00153              -7.00    -5000.00
00154              -6.20    -5000.00
00155              -7.00    -5000.00
00156              -7.60    -5000.00
00157              -6.60    -5000.00
00158              -7.80    -5000.00
00159              -7.60    -4800.00
00160              -7.60    -5000.00
00161              -7.40    -5000.00
00162              -7.80    -5000.00
00163              -7.60    -5000.00
00164              -7.20    -5000.00
00165              -8.20    -4600.00
00166              -8.20    -5000.00
00167              -8.40    -5000.00
00168              -7.80    -5200.00
00169              -8.80    -5000.00
00170              -8.40    -5000.00
00171              -8.40    -5000.00
00172              -8.60    -5000.00
00173              -7.80    -5200.00
00174              -9.00    -5000.00
00175              -8.80    -5000.00
00176              -8.40    -5000.00
00177              -8.80    -5000.00
00178              -9.40    -5000.00
00179              -8.60    -5000.00
00180              -9.00    -5000.00
00181              -9.20    -5000.00
00182              -9.20    -5000.00
00183              -9.20    -5000.00
00184              -9.20    -5200.00
00185              -9.20    -5000.00
00186              -9.20    -5000.00
00187              -9.20    -5000.00
00188              -8.60    -5000.00
00189              -9.20    -5000.00
00190              -9.20    -5000.00
00191              -8.60    -5000.00
00192              -9.20    -5000.00
00193              -9.00    -5000.00
00194              -8.40    -5200.00
00195              -8.40    -5000.00
00196              -9.00    -5000.00
00197              -8.20    -5000.00
00198              -7.60    -5000.00
00199              -8.60    -5000.00
00200              -8.40    -5000.00
00201              -7.60    -5000.00
00202              -7.80    -5000.00
00203              -7.80    -5000.00
00204              -7.00    -5000.00
00205              -7.00    -5000.00
00206              -7.60    -5000.00
00207              -7.00    -5000.00
00208              -7.00    -5200.00
00209              -7.00    -5000.00
00210              -7.00    -4800.00
00211              -6.60    -5000.00
00212              -6.40    -4600.00
00213              -7.00    -4800.00
00214              -6.60    -5000.00
00215              -6.20    -5000.00
00216              -6.80    -5000.00
00217              -6.20    -4800.00
00218              -5.80    -5000.00
00219              -6.20    -5000.00
00220              -6.20    -4600.00
00221              -5.80    -5000.00
00222              -6.00    -4600.00
00223              -6.00    -4800.00
00224              -5.80    -4800.00
00225              -5.80    -4600.00
00226              -6.00    -4600.00
00227              -5.80    -5000.00
00228              -5.40    -4800.00
00229              -5.80    -4800.00
00230              -5.40    -4800.00
00231              -5.40    -4600.00
00232              -5.40    -4800.00
00233              -5.80    -4600.00
00234              -5.20    -4600.00
00235              -5.20    -4600.00
00236              -5.80    -4600.00
00237              -5.00    -4800.00
00238              -5.20    -4600.00
00239              -5.00    -4600.00
00240              -4.60    -4800.00
00241              -5.00    -4600.00
00242              -5.20    -4800.00
00243              -4.60    -4600.00
00244              -4.60    -4600.00
00245              -5.40    -4600.00
00246              -4.60    -4600.00
00247              -4.40    -4600.00
00248              -4.60    -4600.00
00249              -4.80    -4600.00
00250              -4.20    -4600.00
00251              -4.20    -4600.00
00252              -4.80    -4600.00
00253              -4.20    -4400.00
00254              -3.80    -4600.00
00255              -4.40    -4600.00
00256              -4.20    -4600.00
00257              -3.80    -4400.00
00258              -4.40    -4400.00
00259              -4.20    -4400.00
00260              -3.60    -4400.00
00261              -4.40    -4400.00
00262              -4.20    -4400.00
00263              -3.60    -4400.00
00264              -3.40    -4400.00
00265              -3.60    -4400.00
00266              -4.20    -4400.00
00267              -3.40    -4400.00
00268              -3.40    -4200.00
00269              -4.20    -4400.00
00270              -3.40    -4400.00
00271              -3.00    -4400.00
00272              -3.60    -4400.00
00273              -3.40    -4200.00
00274              -3.00    -4400.00
00275              -3.40    -4200.00
00276              -3.60    -4200.00
00277              -3.40    -4000.00
00278              -3.00    -4200.00
00279              -3.40    -4200.00
00280              -3.00    -4200.00
00281              -2.80    -4200.00
00282              -3.40    -4000.00
00283              -3.60    -4200.00
00284              -1.80    -4200.00
00285              -3.40    -4200.00
00286              -3.80    -4000.00
00287              -2.00    -4200.00
00288              -2.20    -4000.00
00289              -4.40    -4200.00
00290              -2.80    -4000.00
00291              -1.40    -4000.00
00292              -4.60    -4000.00
00293              -3.40    -4000.00
00294              -1.40    -4000.00
00295              -3.00    -4000.00
00296              -4.20    -4000.00
00297              -2.20    -4000.00
00298              -2.00    -4000.00
00299              -3.40    -4000.00
00300              -3.00    -4000.00
00301              -1.80    -3800.00
00302              -3.80    -3800.00
00303              -2.60    -3800.00
00304              -1.80    -3600.00
00305              -3.80    -3800.00
00306              -3.00    -3400.00
00307              -1.80    -3800.00
00308              -2.40    -3600.00
00309              -3.60    -3600.00
00310              -2.20    -3600.00
00311              -2.00    -3400.00
00312              -3.00    -3600.00
00313              -3.00    -3400.00
00314              -2.00    -3600.00
00315              -2.00    -3600.00
00316              -2.80    -3400.00
00317              -2.00    -3400.00
00318              -1.40    -3600.00
00319              -2.20    -3400.00
00320              -2.80    -3400.00
00321              -2.20    -3400.00
00322              -2.00    -3400.00
00323              -2.00    -3400.00
00324              -2.20    -3200.00
00325              -2.80    -3200.00
00326              -1.40    -3200.00
00327              -1.20    -3200.00
00328              -2.80    -3200.00
00329              -2.00    -3200.00
00330              -0.60    -3000.00
00331              -2.00    -3000.00
00332              -2.80    -3200.00
00333              -1.40    -3200.00
00334              -1.20    -3200.00
00335              -2.60    -3000.00
00336              -2.00    -3000.00
00337              -0.60    -2800.00
00338              -2.20    -3000.00
00339              -2.60    -2800.00
00340              -1.00    -2800.00
00341              -1.80    -2800.00
00342              -2.40    -2800.00
00343              -1.00    -2800.00
00344              -1.20    -2600.00
00345              -2.20    -2600.00
00346              -1.60    -2800.00
00347              -1.20    -2800.00
00348              -2.00    -2800.00
00349              -2.00    -2800.00
00350              -1.00    -2600.00
00351              -1.00    -2600.00
00352              -2.20    -2400.00
00353              -1.80    -2600.00
00354              -1.20    -2600.00
00355              -1.80    -2600.00
00356              -2.00    -2600.00
00357              -1.20    -2400.00
00358              -1.60    -2400.00
00359              -2.00    -2400.00
00360              -1.20    -2400.00
00361              -1.20    -2400.00
00362              -1.80    -2400.00
00363              -1.80    -2400.00
00364              -1.00    -2000.00
00365              -1.60    -2200.00
00366              -2.00    -2000.00
00367              -1.20    -2200.00
00368              -1.00    -2200.00
00369              -1.40    -2200.00
00370              -1.80    -2000.00
00371              -1.20    -2000.00
00372              -1.20    -2000.00
00373              -2.00    -2000.00
00374              -1.20    -2000.00
00375              -0.60    -2000.00
00376              -1.80    -2000.00
00377              -1.40    -2000.00
00378              -0.40    -1800.00
00379              -2.00    -1800.00
00380              -2.00    -1800.00
00381              -0.20    -1800.00
00382              -1.20    -1800.00
00383              -2.20    -1800.00
00384              -0.40    -1800.00
00385              -0.60    -1600.00
00386              -2.20    -1600.00
00387              -1.00    -1600.00
00388              -0.40    -1600.00
00389              -1.60    -1600.00
00390              -1.20    -1400.00
00391              -0.40    -1600.00
00392              -1.20    -1600.00
00393              -1.20    -1400.00
00394              -0.60    -1200.00
00395              -1.20    -1400.00
00396              -1.00    -1200.00
00397              -0.60    -1200.00
00398              -0.40    -1200.00
00399              -1.20    -1200.00
00400              -1.00    -1200.00
00401              -0.60    -1200.00
00402              -1.00    -1200.00
00403              -1.20    -1000.00
00404              -0.20    -1200.00
00405              -0.60    -1000.00
00406              -1.20    -1000.00
00407              -0.20    -1000.00
00408              -1.00    -1000.00
00409              -1.20     -800.00
00410               0.20    -1000.00
00411              -1.00     -800.00
00412              -1.00     -800.00
00413              -0.20    -1000.00
00414              -0.20    -1000.00
00415              -1.20     -600.00
00416              -0.60     -800.00
00417               0.00     -800.00
00418              -1.00     -600.00
00419              -1.20     -800.00
00420              -0.20     -600.00
00421               0.20     -600.00
00422              -1.40     -600.00
00423              -1.20     -400.00
00424               0.40     -400.00
00425              -1.00     -600.00
00426              -1.20     -400.00
00427               0.20     -400.00
00428              -0.40     -400.00
00429              -1.40     -200.00
00430              -0.60     -200.00
00431               0.20     -200.00
00432              -1.80     -200.00
00433              -0.80     -200.00
00434               1.00     -200.00
00435              -1.20     -200.00
00436              -1.80        0.00
00437               1.00     -200.00
00438              -0.60        0.00
00439              -1.80        0.00
00440               1.00        0.00
00441               0.20        0.00
00442              -1.80        0.00
00443               0.40        0.00
00444               0.60      200.00
00445              -1.40        0.00
00446              -0.60        0.00
00447               0.60      400.00
00448               0.40      200.00
00449               3.20      400.00
00450              12.60      400.00
00451              -9.80      400.00
00452             -25.00      200.00
00453              14.80      400.00
00454              25.00      400.00
00455             -25.00      400.00
00456             -25.00      600.00
00457              25.00      400.00
00458              25.00      600.00
00459             -25.00      600.00
00460             -15.00      400.00
00461              25.00      600.00
00462             -13.40      600.00
00463             -25.00      800.00
00464              25.00      600.00
00465              25.00      800.00
00466             -25.00      800.00
00467              -9.60      800.00
00468              25.00      800.00
00469             -25.00      800.00
00470             -25.00     1000.00
00471              25.00      800.00
00472              25.00      800.00
00473             -25.00     1200.00
00474              15.40     1000.00
00475              25.00      800.00
00476             -25.00     1400.00
00477             -25.00     1200.00
00478              25.00     1000.00
00479              17.80     1200.00
00480             -25.00     1200.00
00481              21.80     1200.00
00482              25.00     1200.00
00483             -25.00     1600.00
00484             -25.00     1400.00
00485              25.00     1400.00
00486              -3.40     1800.00
00487             -25.00     1400.00
00488              25.00     1400.00
00489              25.00     1600.00
00490             -25.00     1400.00
00491              -3.60     1600.00
00492              25.00     1800.00
00493             -21.60     1800.00
00494             -25.00     1800.00
00495              25.00     1600.00
00496               7.40     1800.00
00497             -25.00     1800.00
00498              13.40     1800.00
00499              22.80     1800.00
00500             -23.00     2000.00
00501              -6.00     2000.00
00502              24.20     1800.00
00503              -5.40     2000.00
00504             -17.00     2000.00
00505              14.60     1800.00
00506               8.60     2000.00
00507             -16.40     2000.00
00508               2.00     2000.00
00509              14.60     2000.00
00510              -7.60     2000.00
00511              -7.00     2200.00
00512              11.80     2200.00
00513               1.00     2200.00
00514              -9.00     2200.00
00515               6.20     2200.00
00516               6.20     2400.00
00517              -6.80     2400.00
00518               0.40     2200.00
00519               7.40     2400.00
00520              -2.20     2400.00
00521              -3.20     2400.00
00522               5.40     2400.00
00523               2.80     2400.00
00524              -3.40     2600.00
00525               2.00     2400.00
00526               5.00     2600.00
00527              -1.80     2600.00
00528              -1.40     2600.00
00529               5.00     2800.00
00530               1.40     2800.00
00531              -1.60     2800.00
00532               3.00     2800.00
00533               3.60     2800.00
00534              -1.80     2800.00
00535               0.40     2800.00
00536               4.00     2800.00
00537               0.40     2800.00
00538              -0.60     2800.00
00539               3.40     3000.00
00540               2.40     3000.00
00541              -0.60     3000.00
00542               2.00     3000.00
00543               3.00     3000.00
00544               0.20     3000.00
00545               1.40     3200.00
00546               3.00     3200.00
00547               1.20     3000.00
00548               0.60     3200.00
00549               2.60     3000.00
00550               1.40     3200.00
00551               0.60     3200.00
00552               2.20     3200.00
00553               2.00     3200.00
00554               1.00     3200.00
00555               1.40     3200.00
00556               2.20     3200.00
00557               1.20     3400.00
00558               1.20     3200.00
00559               2.20     3600.00
00560               1.80     3600.00
00561               1.20     3600.00
00562               2.00     3400.00
00563               1.80     3400.00
00564               1.80     3400.00
00565               1.60     3600.00
00566               2.00     3600.00
00567               2.00     3600.00
00568               1.80     3600.00
00569               2.00     3600.00
00570               2.20     3600.00
00571               2.00     3600.00
00572               1.80     3600.00
00573               2.20     3600.00
00574               2.00     3600.00
00575               2.00     3800.00
00576               2.60     3800.00
00577               2.60     3800.00
00578               2.20     3800.00
00579               2.20     3800.00
00580               2.20     3800.00
00581               2.40     3800.00
00582               2.60     3800.00
00583               2.00     3800.00
00584               2.40     3800.00
00585               2.60     4000.00
00586               2.40     3800.00
00587               2.60     4000.00
00588               2.80     4000.00
00589               2.80     4000.00
00590               2.80     4000.00
00591               3.00     4000.00
00592               2.60     4200.00
00593               2.80     4000.00
00594               3.00     4000.00
00595               2.80     4000.00
00596               2.80     4000.00
00597               3.00     4200.00
00598               3.20     4200.00
00599               3.00     4000.00
00600               2.80     4200.00
00601               3.40     4400.00
00602               3.00     4200.00
00603               2.80     4400.00
00604               3.60     4400.00
00605               3.40     4200.00
00606               3.40     4200.00
00607               3.60     4400.00
00608               3.40     4400.00
00609               3.40     4400.00
00610               3.60     4400.00
00611               3.60     4400.00
00612               3.60     4400.00
00613               3.60     4400.00
00614               3.60     4400.00
00615               3.40     4600.00
00616               3.40     4400.00
00617               3.80     4400.00
00618               3.60     4400.00
00619               3.60     4600.00
00620               4.00     4400.00
00621               4.40     4600.00
00622               4.00     4400.00
00623               3.60     4600.00
00624               4.20     4600.00
00625               4.40     4600.00
00626               3.60     4600.00
00627               4.20     4600.00
00628               4.20     4600.00
00629               4.20     4600.00
00630               4.20     4600.00
00631               4.40     4600.00
00632               4.20     4600.00
00633               4.40     4600.00
00634               5.20     4600.00
00635               4.60     4800.00
00636               4.40     4600.00
00637               4.60     4600.00
00638               5.00     4800.00
00639               5.00     4600.00
00640               5.20     4600.00
00641               5.20     4800.00
00642               5.20     4800.00
00643               5.40     4800.00
00644               5.20     4800.00
00645               5.40     4800.00
00646               5.40     4800.00
00647               5.40     4800.00
00648               5.40     5000.00
00649               5.40     4800.00
00650               5.60     4800.00
00651               5.80     4800.00
00652               5.80     4800.00
00653               5.80     4800.00
00654               6.60     4800.00
00655               6.00     4800.00
00656               6.20     4800.00
00657               6.40     5000.00
00658               6.00     4800.00
00659               6.80     4800.00
00660               6.60     4800.00
00661               6.20     4800.00
00662               6.80     4800.00
00663               6.80     4800.00
00664               6.60     5000.00
00665               7.20     5000.00
00666               6.80     5000.00
00667               7.00     4800.00
00668               7.40     4800.00
00669               7.00     4800.00
00670               7.00     5000.00
00671               7.60     5000.00
00672               7.40     5200.00
00673               7.60     5200.00
00674               7.60     5000.00
00675               8.20     4800.00
00676               8.20     4800.00
00677               7.80     4800.00
00678               7.80     5000.00
00679               8.40     4800.00
00680               8.00     5200.00
00681               8.20     5000.00
00682               8.20     5000.00
00683               8.60     4800.00
00684               8.20     4800.00
00685               8.20     5000.00
00686               9.00     5000.00
00687               8.40     5200.00
00688               8.60     5000.00
00689               8.60     4800.00
00690               9.20     5000.00
00691               8.60     5000.00
00692               8.60     4800.00
00693               9.80     5000.00
00694               8.60     4800.00
00695               8.40     5000.00
00696               9.20     4800.00
00697               9.20     5000.00
00698               9.00     5000.00
00699               8.60     5000.00
00700               9.40     5000.00
00701               9.00     4800.00
00702               8.40     5000.00
00703               9.00     4800.00
00704               9.00     5200.00
00705               8.40     5000.00
00706               8.20     5000.00
00707               8.20     5200.00
00708               8.40     4800.00
00709               7.80     4800.00
00710               7.80     4800.00
00711               8.00     5000.00
00712               7.80     5000.00
00713               7.40     4800.00
00714               8.00     4800.00
00715               7.60     5000.00
00716               7.00     5200.00
00717               7.60     5000.00
00718               7.40     4800.00
00719               6.60     5000.00
00720               6.80     5000.00
00721               7.20     5000.00
00722               6.80     5000.00
00723               6.60     5000.00
00724               6.80     4800.00
00725               6.60     5000.00
00726               6.60     4800.00
00727               6.00     4800.00
00728               6.00     4800.00
00729               6.60     5000.00
00730               6.00     5000.00
00731               5.80     4800.00
00732               6.20     5200.00
00733               6.00     4800.00
00734               5.80     4800.00
00735               5.80     4800.00
00736               5.80     4800.00
00737               5.60     4800.00
00738               5.40     4800.00
00739               5.20     4800.00
00740               5.40     4800.00
00741               5.20     4800.00
00742               5.20     4800.00
00743               5.60     4800.00
00744               5.20     4600.00
00745               4.60     4800.00
00746               5.00     4800.00
00747               4.40     4800.00
00748               4.80     4600.00
00749               4.60     4800.00
00750               4.40     4800.00
00751               5.00     4600.00
00752               4.40     4800.00
00753               4.20     4800.00
00754               4.40     4800.00
00755               4.20     4600.00
00756               3.80     4400.00
00757               4.20     4600.00
00758               4.40     4600.00
00759               3.80     4800.00
00760               4.20     4600.00
00761               4.20     4600.00
00762               3.60     4400.00
00763               4.00     4600.00
00764               4.20     4600.00
00765               3.40     4600.00
00766               3.40     4600.00
00767               4.20     4400.00
00768               3.40     4600.00
00769               3.00     4400.00
00770               4.00     4400.00
00771               3.60     4400.00
00772               3.00     4600.00
00773               3.80     4400.00
00774               3.40     4400.00
00775               3.40     4400.00
00776               3.40     4400.00
00777               3.40     4400.00
00778               3.40     4400.00
00779               3.20     4400.00
00780               3.40     4400.00
00781               3.60     4400.00
00782               2.80     4200.00
00783               3.00     4400.00
00784               3.40     4400.00
00785               3.20     4000.00
00786               2.80     4200.00
00787               2.60     4000.00
00788               2.80     4200.00
00789               3.40     4200.00
00790               2.80     4200.00
00791               2.60     4200.00
00792               3.40     4200.00
00793               3.40     4000.00
00794               1.80     4000.00
00795               2.40     4000.00
00796               3.40     4000.00
00797               2.60     4000.00
00798               2.20     4000.00
00799               2.80     4000.00
00800               2.80     4000.00
00801               2.00     4000.00
00802               2.20     3800.00
00803               2.60     4000.00
00804               2.60     3800.00
00805               2.00     3800.00
00806               2.60     3800.00
00807               2.60     3800.00
00808               2.20     3800.00
00809               2.00     3800.00
00810               2.20     3600.00
00811               1.80     3800.00
00812               2.00     3800.00
00813               2.20     3600.00
00814               2.00     3800.00
00815               2.00     3600.00
00816               1.80     3600.00
00817               2.00     3800.00
00818               1.80     3600.00
00819               1.20     3600.00
00820               2.00     3600.00
00821               2.00     3600.00
00822               1.60     3600.00
00823               2.00     3400.00
00824               1.80     3600.00
00825               1.20     3400.00
00826               1.40     3400.00
00827               1.80     3400.00
00828               1.40     3600.00
00829               1.80     3400.00
00830               1.40     3200.00
00831               1.40     3400.00
00832               1.00     3200.00
00833               1.40     3200.00
00834               1.80     3200.00
00835               1.20     3200.00
00836               1.20     3200.00
00837               2.00     3200.00
00838               1.20     3200.00
00839               1.40     3200.00
00840               1.80     3200.00
00841               1.20     3200.00
00842               1.20     3200.00
00843               1.80     3000.00
00844               0.80     3000.00
00845               1.20     3000.00
00846               1.40     3000.00
00847               1.20     3000.00
00848               1.20     3000.00
00849               1.20     3000.00
00850               1.20     3000.00
00851               1.40     2800.00
00852               1.20     3000.00
00853               1.20     3000.00
00854               1.40     2800.00
00855               1.20     2800.00
00856               1.40     2800.00
00857               1.20     2800.00
00858               1.00     2800.00
00859               1.20     2600.00
00860               1.20     2600.00
00861               0.60     2600.00
00862               0.80     2800.00
00863               1.20     2800.00
00864               1.00     2600.00
00865               0.40     2400.00
00866               1.20     2400.00
00867               1.00     2400.00
00868               0.60     2400.00
00869               0.60     2400.00
00870               1.20     2400.00
00871               1.00     2400.00
00872               0.60     2400.00
00873               1.00     2400.00
00874               0.60     2200.00
00875               0.40     2000.00
00876               0.60     2200.00
00877               0.60     2200.00
00878               0.20     2200.00
00879               0.60     2200.00
00880               0.60     2200.00
00881               0.40     2000.00
00882               0.40     2000.00
00883               0.60     2000.00
00884               1.00     2000.00
00885               0.20     2000.00
00886               0.00     2000.00
00887               1.00     1800.00
00888               0.20     1800.00
00889               0.60     1800.00
00890               0.60     1800.00
00891               0.20     1600.00
00892               0.40     1800.00
00893               0.60     1800.00
00894              -0.20     1600.00
00895               0.20     1600.00
00896               0.40     1600.00
00897               0.20     1800.00
00898               0.20     1600.00
00899               0.40     1600.00
00900               0.20     1400.00
00901               0.40     1400.00
00902               0.20     1800.00
00903               0.40     1400.00
00904               0.40     1400.00
00905              -0.20     1400.00
00906               0.40     1400.00
00907               0.20     1400.00
00908               0.00     1400.00
00909               0.20     1200.00
00910               0.40     1200.00
00911               0.20     1200.00
00912               0.20     1200.00
00913               0.20     1200.00
00914               0.20     1200.00
00915               0.00     1200.00
00916               0.20     1000.00
00917               0.40     1000.00
00918               0.40     1000.00
00919              -0.40     1000.00
00920               0.20      800.00
00921               0.20      800.00
00922              -0.40      800.00
00923              -0.20      800.00
00924               0.40      800.00
00925              -0.20      600.00
00926               0.20      600.00
00927               0.20      600.00
00928              -0.40      600.00
00929              -0.20      600.00
00930               0.20      600.00
00931               0.00      600.00
00932               0.20      400.00
00933              -0.40      600.00
00934               0.20      400.00
00935              -0.20      400.00
00936              -0.40      400.00
00937               0.20      400.00
00938              -0.60      400.00
00939              -0.40      400.00
00940               0.20      400.00
00941              -1.20      200.00
00942              -0.60      400.00
00943               0.40      400.00
00944              -1.20      200.00
00945              -0.60      200.00
00946               0.60        0.00
00947              -0.80        0.00
00948              -1.20        0.00
00949              -0.20        0.00
00950              -0.40        0.00
00951              -0.60        0.00
00952              -0.20        0.00
00953              -0.20     -200.00
00954              -1.00        0.00
00955              -0.60     -200.00
00956               0.20     -200.00
00957              -0.60     -200.00
00958              -1.00     -200.00
00959               3.40     -200.00
00960              16.40     -200.00
00961              -8.00     -400.00
00962             -25.00     -400.00
00963              17.00     -400.00
00964              25.00     -400.00
00965             -25.00     -400.00
00966             -25.00     -400.00
00967              25.00     -400.00
00968              25.00     -400.00
00969             -25.00     -800.00
00970             -25.00     -400.00
00971              25.00     -800.00
00972              -2.20     -600.00
00973             -25.00     -800.00
00974              25.00     -800.00
00975              25.00     -800.00
00976             -25.00     -800.00
00977             -25.00     -800.00
00978              25.00     -800.00
00979               3.60     -800.00
00980             -25.00     -800.00
00981              25.00    -1000.00
00982              25.00    -1000.00
00983             -25.00     -800.00
00984             -14.60    -1200.00
00985              25.00    -1200.00
00986             -25.00    -1000.00
00987             -25.00    -1000.00
00988              25.00    -1200.00
00989              25.00    -1200.00
00990             -25.00    -1200.00
00991               2.00    -1200.00
00992              25.00    -1200.00
00993             -25.00    -1200.00
00994             -25.00    -1400.00
00995              25.00    -1400.00
00996              25.00    -1400.00
00997             -25.00    -1600.00
00998               8.40    -1600.00
00999              25.00    -1600.00
01000             -25.00    -1600.00
01001             -25.00    -1600.00
01002              25.00    -1600.00
01003             -10.00    -1600.00
01004             -25.00    -1800.00
01005              25.00    -1800.00
01006              17.40    -1600.00
01007             -25.00    -1800.00
01008               5.00    -1800.00
01009              25.00    -2000.00
01010             -18.80    -1800.00
01011             -15.80    -1800.00
01012              20.60    -2000.00
01013               2.00    -1800.00
01014             -23.00    -2000.00
01015               7.40    -2000.00
01016              14.20    -2000.00
01017             -19.20    -2000.00
01018              -3.80    -2000.00
01019              15.40    -2000.00
01020              -7.80    -2200.00
01021             -12.00    -2200.00
01022               8.40    -2200.00
01023               2.60    -2200.00
01024             -11.80    -2400.00
01025               0.60    -2200.00
01026               7.40    -2400.00
01027              -7.60    -2400.00
01028              -6.20    -2400.00
01029               6.20    -2600.00
01030              -2.00    -2400.00
01031              -8.60    -2400.00
01032               2.60    -2400.00
01033               3.00    -2600.00
01034              -7.00    -2400.00
01035              -3.00    -2600.00
01036               3.80    -2600.00
01037              -2.80    -2400.00
01038              -5.80    -2600.00
01039               2.20    -2800.00
01040               0.60    -2600.00
01041              -5.80    -2600.00
01042              -1.40    -2800.00
01043               2.00    -2800.00
01044              -3.80    -2800.00
01045              -3.80    -2800.00
01046               1.80    -2800.00
01047              -1.00    -2800.00
01048              -5.20    -2800.00
01049              -1.00    -2800.00
01050               0.40    -3000.00
01051              -3.00    -2800.00
01052              -2.20    -3000.00
01053              -0.20    -3000.00
01054              -1.80    -3000.00
01055              -3.40    -3000.00
01056              -1.20    -3200.00
01057              -1.20    -3000.00
01058              -2.20    -3200.00
01059              -1.80    -3200.00
01060              -1.40    -3200.00
01061              -1.80    -3200.00
01062              -2.20    -3200.00
01063              -2.80    -3200.00
01064              -1.20    -3200.00
01065              -1.20    -3400.00
01066              -2.80    -3400.00
01067              -2.20    -3400.00
01068              -1.00    -3400.00
01069              -2.60    -3400.00
01070              -3.00    -3400.00
01071              -1.40    -3400.00
01072              -2.00    -3400.00
01073              -3.00    -3600.00
01074              -2.20    -3600.00
01075              -1.40    -3400.00
01076              -2.80    -3400.00
01077              -3.20    -3600.00
01078              -2.00    -3600.00
01079              -1.80    -3600.00
01080              -3.40    -3600.00
01081              -2.60    -3600.00
01082              -1.40    -3600.00
01083              -3.00    -3600.00
01084              -3.40    -3600.00
01085              -1.80    -3600.00
01086              -2.80    -3600.00
01087              -3.00    -3600.00
01088              -2.40    -3800.00
01089              -2.20    -3800.00
01090              -3.00    -3800.00
01091              -3.00    -4000.00
01092              -2.20    -4000.00
01093              -2.60    -4000.00
01094              -3.40    -4000.00
01095              -2.60    -4000.00
01096              -2.20    -4000.00
01097              -3.20    -4000.00
01098              -3.00    -3800.00
01099              -2.20    -4000.00
01100              -2.80    -4000.00
01101              -3.40    -4200.00
01102              -2.80    -4200.00
01103              -2.80    -4000.00
01104              -3.00    -4000.00
01105              -3.60    -4200.00
01106              -2.60    -4200.00
01107              -3.20    -4200.00
01108              -3.80    -4200.00
01109              -2.80    -4200.00
01110              -2.80    -4000.00
01111              -3.40    -4200.00
01112              -3.60    -4200.00
01113              -3.80    -4200.00
01114              -2.40    -4400.00
01115              -3.40    -4400.00
01116              -4.60    -4200.00
01117              -2.20    -4400.00
01118              -3.20    -4400.00
01119              -4.60    -4400.00
01120              -3.40    -4400.00
01121              -2.80    -4400.00
01122              -4.20    -4400.00
01123              -4.40    -4400.00
01124              -3.40    -4400.00
01125              -3.80    -4400.00
01126              -4.40    -4400.00
01127              -4.40    -4400.00
01128              -3.00    -4400.00
01129              -3.80    -4400.00
01130              -4.40    -4400.00
01131              -3.80    -4400.00
01132              -4.20    -4600.00
01133              -4.40    -4600.00
01134              -4.40    -4400.00
01135              -4.20    -4400.00
01136              -4.60    -4600.00
01137              -4.60    -4600.00
01138              -4.60    -4600.00
01139              -4.20    -4800.00
01140              -4.40    -4600.00
01141              -5.20    -4600.00
01142              -4.60    -4800.00
01143              -3.80    -4600.00
01144              -5.20    -4600.00
01145              -5.40    -4800.00
01146              -4.60    -4600.00
01147              -4.60    -4600.00
01148              -5.40    -4800.00
01149              -5.40    -4600.00
01150              -4.60    -4800.00
01151              -5.00    -4800.00
01152              -6.00    -4600.00
01153              -5.40    -4800.00
01154              -5.40    -4600.00
01155              -6.00    -4800.00
01156              -5.60    -4600.00
01157              -5.40    -4800.00
01158              -5.80    -5000.00
01159              -5.80    -4600.00
01160              -6.00    -4800.00
01161              -6.00    -4600.00
01162              -6.00    -4800.00
01163              -6.20    -4800.00
01164              -6.00    -5000.00
01165              -5.80    -4600.00
01166              -6.40    -4800.00
01167              -6.60    -4800.00
01168              -6.20    -5000.00
01169              -6.20    -4600.00
01170              -6.80    -5000.00
01171              -6.60    -5000.00
01172              -6.40    -5000.00
01173              -6.60    -4800.00
01174              -6.80    -5000.00
01175              -6.60    -5000.00
01176              -6.80    -5000.00
01177              -7.40    -5000.00
01178              -7.00    -5000.00
01179              -7.00    -5000.00
01180              -7.40    -4800.00
01181              -7.60    -5000.00
01182              -7.60    -4800.00
01183              -7.60    -5000.00
01184              -7.60    -5000.00
01185              -7.60    -5000.00
01186              -8.00    -5000.00
01187              -7.80    -5000.00
01188              -8.20    -5000.00
01189              -7.80    -5000.00
01190              -8.00    -5000.00
01191              -8.40    -5000.00
01192              -8.20    -5000.00
01193              -8.00    -5000.00
01194              -8.40    -5000.00
01195              -8.40    -4600.00
01196              -8.60    -5000.00
01197              -9.00    -5000.00
01198              -9.20    -5000.00
01199              -8.80    -5200.00
01200              -8.60    -5000.00
01201              -9.20    -5200.00
01202              -9.20    -5000.00
01203              -8.80    -5000.00
01204              -9.20    -5000.00
01205              -9.40    -5000.00
01206              -9.20    -5200.00
01207              -9.20    -5000.00
01208              -9.40    -5000.00
01209              -9.20    -5000.00
01210              -9.20    -5000.00
01211              -9.40    -5000.00
01212              -9.00    -5000.00
01213              -9.20    -5000.00
01214              -9.20    -5000.00
01215              -8.60    -5000.00
01216              -9.20    -5000.00
01217              -8.60    -5000.00
01218              -8.60    -5000.00
01219              -8.60    -5000.00
01220              -8.20    -5000.00
01221              -8.20    -5000.00
01222              -7.80    -5000.00
01223              -7.80    -5000.00
01224              -7.60    -4800.00
01225              -7.80    -5000.00
01226              -7.60    -5000.00
01227              -7.40    -5000.00
01228              -7.40    -5000.00
01229              -7.40    -5000.00
01230              -7.00    -4800.00
01231              -7.00    -5000.00
01232              -7.40    -4800.00
01233              -6.80    -4800.00
01234              -6.60    -4800.00
01235              -7.00    -5000.00
01236              -6.60    -5000.00
01237              -6.20    -4600.00
01238              -6.20    -4800.00
01239              -6.20    -5000.00
01240              -6.00    -4600.00
01241              -6.20    -4800.00
01242              -6.00    -4800.00
01243              -5.80    -5000.00
01244              -6.20    -4800.00
01245              -6.00    -5000.00
01246              -5.80    -4600.00
01247              -5.80    -4800.00
01248              -5.80    -4800.00
01249              -5.40    -4600.00
01250              -5.40    -4800.00
01251              -5.40    -4800.00
01252              -5.40    -4600.00
01253              -5.20    -4800.00
01254              -5.20    -4600.00
01255              -5.20    -4800.00
01256              -5.20    -4600.00
01257              -5.20    -4800.00
01258              -5.20    -4800.00
01259              -4.60    -4600.00
01260              -4.60    -4800.00
01261              -5.20    -4600.00
01262              -4.60    -4600.00
01263              -4.60    -4800.00
01264              -4.60    -4600.00
01265              -4.60    -4600.00
01266              -4.60    -4600.00
01267              -4.40    -4600.00
01268              -4.60    -4600.00
01269              -4.60    -4600.00
01270              -4.40    -4800.00
01271              -4.60    -4600.00
01272              -4.60    -4600.00
01273              -4.40    -4400.00
01274              -4.40    -4400.00
01275              -4.40    -4600.00
01276              -4.00    -4600.00
01277              -4.40    -4600.00
01278              -4.40    -4400.00
01279              -4.00    -4400.00
01280              -4.20    -4400.00
01281              -4.40    -4400.00
01282              -4.20    -4400.00
01283              -3.80    -4400.00
01284              -3.80    -4400.00
01285              -4.20    -4400.00
01286              -3.80    -4400.00
01287              -3.60    -4400.00
01288              -3.80    -4400.00
01289              -3.60    -4400.00
01290              -3.80    -4400.00
01291              -3.80    -4400.00
01292              -3.60    -4400.00
01293              -3.60    -4400.00
01294              -3.80    -4200.00
01295              -3.40    -4200.00
01296              -3.40    -4400.00
01297              -3.60    -4200.00
01298              -3.00    -4200.00
01299              -3.60    -4200.00
01300              -3.40    -4200.00
01301              -3.00    -4200.00
01302              -3.40    -4200.00
01303              -3.40    -4200.00
01304              -3.00    -4000.00
01305              -3.00    -4200.00
01306              -3.00    -4000.00
01307              -2.80    -4000.00
01308              -2.80    -4000.00
01309              -3.00    -4000.00
01310              -2.80    -4000.00
01311              -3.00    -4000.00
01312              -2.60    -4000.00
01313              -2.80    -4000.00
01314              -3.00    -4200.00
01315              -2.60    -4000.00
01316              -2.80    -4000.00
01317              -2.80    -4000.00
01318              -2.00    -4000.00
01319              -2.80    -3800.00
01320              -3.00    -4000.00
01321              -2.20    -3800.00
01322              -2.20    -3800.00
01323              -3.40    -3600.00
01324              -2.20    -3600.00
01325              -2.00    -3600.00
01326              -3.00    -3600.00
01327              -2.60    -3600.00
01328              -2.00    -3600.00
01329              -2.60    -3600.00
01330              -2.80    -3600.00
01331              -2.20    -3600.00
01332              -2.40    -3600.00
01333              -2.80    -3600.00
01334              -2.20    -3600.00
01335              -2.20    -3400.00
01336              -2.80    -3600.00
01337              -2.20    -3600.00
01338              -2.20    -3400.00
01339              -2.20    -3400.00
01340              -2.20    -3400.00
01341              -2.20    -3400.00
01342              -2.20    -3400.00
01343              -2.00    -3400.00
01344              -2.20    -3200.00
01345              -2.20    -3400.00
01346              -1.80    -3200.00
01347              -2.20    -3200.00
01348              -2.20    -3200.00
01349              -2.00    -3200.00
01350              -2.00    -3200.00
01351              -2.20    -3200.00
01352              -2.20    -3200.00
01353              -2.00    -3000.00
01354              -1.80    -3200.00
01355              -2.20    -3200.00
01356              -2.00    -3000.00
01357              -2.00    -3000.00
01358              -2.20    -2800.00
01359              -1.80    -3000.00
01360              -1.40    -2800.00
01361              -2.00    -3000.00
01362              -2.00    -2800.00
01363              -1.20    -2800.00
01364              -1.60    -2800.00
01365              -2.20    -2800.00
01366              -2.00    -2800.00
01367              -1.40    -2800.00
01368              -1.80    -2800.00
01369              -2.00    -2800.00
01370              -1.80    -2600.00
01371              -1.20    -2800.00
01372              -1.80    -2600.00
01373              -2.20    -2600.00
01374              -1.20    -2600.00
01375              -1.00    -2600.00
01376              -2.00    -2600.00
01377              -1.40    -2400.00
01378              -1.20    -2400.00
01379              -1.40    -2400.00
01380              -1.60    -2400.00
01381              -1.20    -2400.00
01382              -1.40    -2400.00
01383              -1.40    -2400.00
01384              -1.20    -2400.00
01385              -1.40    -2400.00
01386              -1.80    -2400.00
01387              -1.20    -2200.00
01388              -1.00    -2200.00
01389              -1.60    -2200.00
01390              -1.20    -2200.00
01391              -0.60    -2200.00
01392              -1.80    -2200.00
01393              -1.20    -2000.00
01394              -0.60    -2000.00
01395              -1.20    -2000.00
01396              -1.20    -2000.00
01397              -0.60    -2000.00
01398              -1.20    -2000.00
01399              -1.80    -2000.00
01400              -1.00    -1800.00
01401              -1.00    -1800.00
01402              -1.80    -1800.00
01403              -1.20    -1800.00
01404              -1.00    -1800.00
01405              -1.40    -1600.00
01406              -1.20    -1800.00
01407              -0.80    -1600.00
01408              -1.20    -1600.00
01409              -1.00    -1800.00
01410              -0.60    -1600.00
01411              -1.20    -1600.00
01412              -1.20    -1600.00
01413              -0.60    -1600.00
01414              -1.20    -1600.00
01415              -1.20    -1600.00
01416              -1.00    -1200.00
01417              -1.00    -1400.00
01418              -1.20    -1400.00
01419              -1.20    -1200.00
01420              -0.60    -1400.00
01421              -1.00    -1200.00
01422              -1.00    -1200.00
01423              -0.60    -1200.00
01424              -1.00    -1000.00
01425              -1.00    -1000.00
01426              -0.60    -1000.00
01427              -1.00    -1000.00
01428              -1.00    -1000.00
01429              -0.60    -1000.00
01430              -0.60    -1000.00
01431              -0.60    -1000.00
01432              -0.60     -800.00
01433              -0.60    -1000.00
01434              -0.60     -800.00
01435              -0.60     -800.00
01436              -0.80     -800.00
01437              -0.40     -800.00
01438              -0.60     -800.00
01439              -0.40     -800.00
01440              -0.60     -600.00
01441              -0.40     -600.00
01442              -0.40     -600.00
01443              -0.60     -400.00
01444              -0.60     -400.00
01445              -0.20     -400.00
01446              -0.60     -600.00
01447              -0.40     -400.00
01448              -0.40     -400.00
01449              -0.60     -400.00
01450              -0.40     -400.00
01451              -0.20     -400.00
01452              -0.60     -400.00
01453              -0.60     -200.00
01454              -0.20     -200.00
01455              -0.20     -200.00
01456              -0.60     -200.00
01457              -0.40     -200.00
01458              -0.40        0.00
01459              -0.60        0.00
01460              -1.00        0.00
01461              -0.20        0.00
01462               0.20        0.00
01463              -0.60     -200.00
01464              -0.20        0.00
01465               0.40        0.00
01466              -0.20        0.00
01467              -0.20        0.00
01468              -0.20      200.00
01469              -0.40        0.00
01470               1.20      200.00
01471               7.20      400.00
01472               7.40      400.00
01473             -19.60      400.00
01474             -25.00      200.00
01475              25.00      400.00
01476              25.00      600.00
01477             -25.00      400.00
01478             -23.00      400.00
01479              25.00      600.00
01480               6.20      400.00
01481             -25.00      600.00
01482              25.00      400.00
01483              25.00      600.00
01484             -25.00      400.00
01485             -25.00      800.00
01486              25.00      800.00
01487              17.60      800.00
01488             -25.00      800.00
01489              25.00      800.00
01490              25.00      800.00
01491             -25.00      800.00
01492             -25.00      800.00
01493              25.00      800.00
01494             -15.60      800.00
01495             -25.00     1000.00
01496              25.00      800.00
01497              25.00     1200.00
01498             -25.00     1200.00
01499              -7.60     1200.00
01500              25.00     1000.00
01501             -25.00     1400.00
01502             -25.00     1200.00
01503              25.00     1200.00
01504              25.00     1400.00
01505             -25.00     1400.00
01506               7.60     1400.00
01507              25.00     1400.00
01508             -25.00     1600.00
01509             -25.00     1400.00
01510              25.00     1400.00
01511               5.20     1800.00
01512             -25.00     1400.00
01513              25.00     1800.00
01514              25.00     1800.00
01515             -25.00     1600.00
01516              -4.60     1800.00
01517              25.00     1800.00
01518             -15.00     1800.00
01519             -23.00     1800.00
01520              25.00     1800.00
01521               6.80     1800.00
01522             -25.00     1800.00
01523               9.80     1800.00
01524              18.00     2000.00
01525             -16.40     2000.00
01526              -6.20     2000.00
01527              18.60     2000.00
01528              -2.80     2000.00
01529             -13.80     2200.00
01530              11.20     2000.00
01531               8.00     2000.00
01532             -12.00     2200.00
01533               0.40     2200.00
01534              12.20     2200.00
01535              -5.40     2200.00
01536              -6.40     2400.00
01537               9.80     2400.00
01538               2.00     2200.00
01539              -8.20     2400.00
01540               4.20     2400.00
01541               7.00     2200.00
01542              -5.40     2400.00
01543              -1.80     2400.00
01544               7.60     2400.00
01545              -0.20     2400.00
01546              -4.40     2400.00
01547               4.20     2600.00
01548               3.60     2400.00
01549              -3.60     2600.00
01550               1.00     2600.00
01551               5.00     2600.00
01552              -1.20     2800.00
01553              -1.20     2800.00
01554               4.00     2800.00
01555               2.20     2800.00
01556              -1.80     2800.00
01557               2.00     2800.00
01558               3.40     2800.00
01559              -0.20     2800.00
01560               0.20     3000.00
01561               3.00     3000.00
01562               1.60     2800.00
01563              -0.20     3000.00
01564               2.20     3000.00
01565               2.20     3000.00
01566               0.60     3000.00
01567               1.20     3000.00
01568               2.00     3000.00
01569               1.20     3000.00
01570               1.00     3000.00
01571               2.00     3000.00
01572               1.40     3000.00
01573               1.80     3200.00
01574               1.80     3200.00
01575               1.80     3200.00
01576               1.80     3200.00
01577               1.80     3400.00
01578               2.00     3200.00
01579               1.40     3400.00
01580               1.80     3200.00
01581               2.60     3400.00
01582               1.40     3400.00
01583               1.80     3400.00
01584               2.80     3600.00
01585               1.20     3600.00
01586               1.40     3600.00
01587               2.60     3600.00
01588               2.00     3600.00
01589               1.40     3600.00
01590               2.60     3600.00
01591               2.20     3600.00
01592               1.60     3600.00
01593               2.20     3600.00
01594               2.20     3800.00
01595               1.80     3600.00
01596               2.00     3600.00
01597               2.60     3800.00
01598               2.00     3800.00
01599               1.80     3800.00
01600               2.60     3800.00
01601               2.60     3800.00
01602               1.80     3800.00
01603               2.40     3800.00
01604               2.80     4000.00
01605               2.20     3800.00
01606               2.20     3800.00
01607               3.00     3800.00
01608               2.60     3800.00
01609               2.00     3800.00
01610               2.80     4000.00
01611               2.80     4000.00
01612               2.60     4000.00
01613               2.60     4000.00
01614               2.60     4000.00
01615               2.80     4000.00
01616               2.60     4000.00
01617               3.00     4000.00
01618               2.80     4000.00
01619               2.80     4000.00
01620               3.40     4200.00
01621               2.80     4000.00
01622               3.40     4200.00
01623               3.40     4000.00
01624               2.80     4200.00
01625               3.40     4200.00
01626               3.40     4200.00
01627               2.80     4400.00
01628               3.20     4200.00
01629               3.80     4400.00
01630               3.40     4400.00
01631               3.40     4400.00
01632               3.60     4400.00
01633               3.60     4400.00
01634               3.40     4400.00
01635               3.60     4400.00
01636               3.80     4400.00
01637               3.80     4600.00
01638               4.00     4400.00
01639               4.20     4600.00
01640               3.60     4400.00
01641               3.40     4600.00
01642               4.40     4600.00
01643               4.20     4400.00
01644               3.60     4600.00
01645               4.00     4600.00
01646               4.40     4600.00
01647               4.20     4600.00
01648               3.80     4600.00
01649               4.60     4400.00
01650               4.60     4600.00
01651               4.00     4600.00
01652               4.40     4600.00
01653               4.60     4600.00
01654               4.60     4600.00
01655               4.60     4600.00
01656               5.00     4600.00
01657               4.60     4600.00
01658               4.60     4600.00
01659               5.00     4600.00
01660               4.60     4800.00
01661               4.40     4800.00
01662               5.00     4600.00
01663               5.00     4800.00
01664               5.20     4600.00
01665               5.20     4600.00
01666               5.20     4600.00
01667               6.20     4800.00
01668               5.20     4800.00
01669               5.20     4800.00
01670               5.80     4800.00
01671               5.60     4800.00
01672               5.40     4800.00
01673               5.80     4800.00
01674               6.00     4800.00
01675               5.80     4800.00
01676               6.00     4800.00
01677               6.00     4800.00
01678               6.20     4800.00
01679               6.20     4800.00
01680               6.00     4800.00
01681               6.20     5000.00
01682               6.20     4800.00
01683               6.60     5200.00
01684               6.80     4800.00
01685               6.60     4800.00
01686               6.80     4800.00
01687               7.40     4800.00
01688               7.00     4800.00
01689               7.00     5000.00
01690               7.00     4800.00
01691               7.40     5000.00
01692               7.40     5000.00
01693               7.40     5200.00
01694               7.40     5000.00
01695               7.40     5000.00
01696               7.80     5000.00
01697               7.80     4800.00
01698               8.20     5000.00
01699               7.80     5000.00
01700               7.80     4800.00
01701               8.40     5200.00
01702               8.20     5000.00
01703               8.20     4800.00
01704               8.60     5000.00
01705               8.40     5000.00
01706               8.00     5200.00
01707               9.00     5200.00
01708               8.60     5000.00
01709               8.40     5000.00
01710               9.40     5200.00
01711               8.60     5000.00
01712               8.40     5000.00
01713               9.40     5000.00
01714               9.20     5000.00
01715               8.80     5000.00
01716               9.00     5200.00
01717               9.80     5000.00
01718               8.80     5200.00
01719               8.20     5000.00
01720               9.80     5000.00
01721               9.20     5000.00
01722               8.20     5000.00
01723               8.60     5200.00
01724               9.40     4800.00
01725               8.40     5000.00
01726               7.80     5000.00
01727               9.00     5000.00
01728               8.40     4800.00
01729               7.40     5000.00
01730               8.40     5000.00
01731               8.40     5200.00
01732               7.40     4800.00
01733               7.40     4800.00
01734               8.40     5000.00
01735               7.80     5000.00
01736               6.20     4800.00
01737               7.60     5000.00
01738               8.20     4800.00
01739               6.40     4800.00
01740               6.20     5000.00
01741               7.40     5000.00
01742               6.80     5000.00
01743               6.00     5000.00
01744               6.80     5000.00
01745               7.20     5200.00
01746               6.00     4800.00
01747               6.20     4800.00
01748               6.60     4800.00
01749               6.20     4800.00
01750               6.00     4800.00
01751               6.00     5000.00
01752               6.00     4800.00
01753               5.80     4800.00
01754               5.80     5200.00
01755               5.80     4800.00
01756               5.80     4800.00
01757               5.20     4800.00
01758               5.80     4800.00
01759               6.00     4800.00
01760               5.20     4800.00
01761               5.20     4800.00
01762               5.80     4800.00
01763               5.20     4800.00
01764               5.00     4800.00
01765               5.40     4800.00
01766               5.80     4800.00
01767               5.00     4800.00
01768               4.60     4600.00
01769               5.00     4800.00
01770               4.40     4800.00
01771               5.00     4600.00
01772               5.20     4800.00
01773               4.40     4600.00
01774               4.40     4800.00
01775               5.20     4800.00
01776               5.00     4600.00
01777               3.80     4600.00
01778               4.60     4600.00
01779               4.80     4800.00
01780               4.00     4600.00
01781               3.80     4600.00
01782               4.40     4600.00
01783               4.20     4600.00
01784               3.80     4600.00
01785               4.20     4600.00
01786               4.40     4600.00
01787               3.60     4600.00
01788               3.40     4600.00
01789               4.40     4600.00
01790               3.80     4400.00
01791               3.40     4600.00
01792               3.80     4400.00
01793               4.00     4400.00
01794               3.40     4400.00
01795               3.40     4400.00
01796               3.60     4600.00
01797               3.40     4400.00
01798               3.40     4400.00
01799               3.00     4400.00
01800               3.40     4400.00
01801               3.40     4400.00
01802               3.00     4400.00
01803               2.80     4200.00
01804               3.40     4400.00
01805               2.80     4400.00
01806               2.60     4200.00
01807               2.80     4000.00
01808               3.40     4200.00
01809               2.80     4000.00
01810               2.60     4400.00
01811               3.40     4400.00
01812               2.80     4000.00
01813               1.80     4200.00
01814               3.00     4000.00
01815               3.40     4000.00
01816               2.20     4000.00
01817               2.60     4000.00
01818               2.60     4000.00
01819               2.60     4000.00
01820               2.20     4000.00
01821               2.60     4000.00
01822               3.00     4000.00
01823               2.20     4000.00
01824               1.80     4000.00
01825               3.40     4000.00
01826               2.80     4000.00
01827               1.80     4000.00
01828               2.20     4000.00
01829               2.80     3800.00
01830               1.80     3800.00
01831               1.80     3800.00
01832               2.80     3800.00
01833               2.60     3600.00
01834               1.40     3800.00
01835               2.60     3800.00
01836               2.20     3600.00
01837               1.40     3800.00
01838               2.20     3600.00
01839               3.60     3600.00
01840               1.00     3600.00
01841               1.80     3600.00
01842               3.40     3600.00
01843               1.20     3400.00
01844               1.00     3600.00
01845               3.00     3600.00
01846               1.40     3600.00
01847               1.20     3400.00
01848               2.20     3600.00
01849               1.80     3400.00
01850               1.40     3200.00
01851               1.40     3200.00
01852               1.80     3400.00
01853               1.20     3200.00
01854               1.40     3400.00
01855               1.80     3200.00
01856               1.40     3200.00
01857               1.40     3200.00
01858               2.00     3200.00
01859               1.40     3200.00
01860               1.00     3200.00
01861               1.20     3000.00
01862               1.20     3000.00
01863               1.20     3000.00
01864               1.20     3200.00
01865               1.20     3000.00
01866               1.40     3000.00
01867               1.80     3000.00
01868               0.80     3000.00
01869               0.60     3000.00
01870               1.60     3000.00
01871               1.00     2800.00
01872               0.80     2800.00
01873               1.80     2800.00
01874               1.00     2800.00
01875               0.20     3000.00
01876               1.80     2800.00
01877               1.60     2800.00
01878              -0.40     2800.00
01879               1.00     2800.00
01880               2.60     2800.00
01881               0.20     2800.00
01882              -0.60     2600.00
01883               2.60     2600.00
01884               1.80     2600.00
01885              -1.40     2600.00
01886               1.80     2400.00
01887               2.80     2600.00
01888              -1.80     2400.00
01889               0.60     2400.00
01890               3.60     2400.00
01891              -0.20     2400.00
01892              -2.00     2400.00
01893               3.00     2400.00
01894               2.60     2400.00
01895              -2.20     2200.00
01896               0.20     2400.00
01897               3.60     2200.00
01898               0.00     2200.00
01899              -1.60     2200.00
01900               2.60     2200.00
01901               2.20     2000.00
01902              -1.20     2200.00
01903               0.20     2200.00
01904               2.20     2000.00
01905               0.60     2000.00
01906              -0.60     2000.00
01907               1.00     2000.00
01908               1.80     2000.00
01909              -0.20     2000.00
01910              -0.20     2000.00
01911               0.60     1800.00
01912               1.00     2000.00
01913               0.60     1600.00
01914               0.80     2000.00
01915               0.40     1800.00
01916               0.20     1800.00
01917               0.60     1600.00
01918              -0.20     1800.00
01919               0.00     1600.00
01920               1.00     1600.00
01921               0.40     1800.00
01922              -0.80     1400.00
01923               0.40     1600.00
01924               1.40     1400.00
01925              -0.60     1400.00
01926              -0.60     1400.00
01927               1.40     1400.00
01928               0.40     1400.00
01929              -1.00     1400.00
01930               0.20     1200.00
01931               1.00     1200.00
01932              -0.60     1200.00
01933              -0.40     1200.00
01934               1.00     1200.00
01935               0.20     1200.00
01936              -0.60     1000.00
01937               0.20     1200.00
01938               0.40     1000.00
01939              -0.60      800.00
01940              -0.20      800.00
01941               0.40      800.00
01942              -0.20      800.00
01943              -0.40      800.00
01944               0.20      800.00
01945               0.20      800.00
01946              -0.20      800.00
01947               0.20      800.00
01948               0.20      600.00
01949              -0.40      800.00
01950               0.00      800.00
01951               0.40      600.00
01952              -0.40      600.00
01953              -0.40      400.00
01954              -0.20      600.00
01955              -0.20      400.00
01956              -0.60      600.00
01957              -0.20      400.00
01958               0.40      400.00
01959               0.00      400.00
01960              -0.60      400.00
01961              -0.20      400.00
01962               0.20      400.00
01963              -0.20      400.00
01964              -0.40      200.00
01965              -0.20      400.00
01966              -0.20      200.00
01967              -0.20      200.00
01968              -0.40        0.00
01969              -0.60        0.00
01970              -0.40        0.00
01971              -0.20        0.00
01972              -0.40        0.00
01973              -0.20        0.00
01974              -0.20     -200.00
01975              -0.20        0.00
01976               0.20        0.00
01977               0.20     -200.00
01978              -0.20     -200.00
01979              -0.60     -200.00
01980              -0.20     -400.00
01981               7.40     -200.00
01982              15.00     -400.00
01983             -25.00     -400.00
01984             -25.00     -400.00
01985              25.00     -400.00
01986              25.00     -400.00
01987             -25.00     -400.00
01988             -25.00     -400.00
01989              25.00     -600.00
01990              11.20     -600.00
01991             -25.00     -400.00
01992              25.00     -600.00
01993              25.00     -600.00
01994             -25.00     -800.00
01995             -25.00     -600.00
01996              25.00     -800.00
01997              25.00    -1000.00
01998             -25.00     -800.00
01999              25.00     -800.00
02000              25.00     -800.00
02001             -25.00     -800.00
02002             -25.00    -1000.00
02003              25.00    -1000.00
02004              25.00    -1000.00
02005             -25.00    -1000.00
02006              25.00    -1000.00
02007              25.00    -1200.00
02008             -25.00    -1000.00
02009             -25.00    -1000.00
02010              25.00    -1200.00
02011             -10.20    -1000.00
02012             -25.00    -1200.00
02013              25.00    -1200.00
02014              25.00    -1200.00
02015             -25.00    -1200.00
02016             -19.60    -1400.00
02017              25.00    -1200.00
02018             -12.40    -1400.00
02019             -25.00    -1600.00
02020              25.00    -1600.00
02021              25.00    -1600.00
02022             -25.00    -1600.00
02023               8.20    -1600.00
02024              25.00    -1600.00
02025             -25.00    -1600.00
02026             -20.20    -1600.00
02027              25.00    -1800.00
02028              -9.40    -1600.00
02029             -25.00    -1800.00
02030              21.80    -1800.00
02031              13.40    -1800.00
02032             -25.00    -2000.00
02033              -0.40    -1800.00
02034              21.80    -1800.00
02035             -13.00    -1800.00
02036             -15.80    -2000.00
02037              18.00    -2000.00
02038               1.20    -2000.00
02039             -19.60    -2000.00
02040               8.20    -2000.00
02041              10.00    -2000.00
02042             -15.00    -2000.00
02043              -3.60    -2000.00
02044              11.00    -2000.00
02045              -5.00    -2400.00
02046             -10.80    -2000.00
02047               7.40    -2400.00
02048               2.80    -2400.00
02049             -12.00    -2400.00
02050               0.80    -2400.00
02051               6.40    -2400.00
02052              -8.20    -2400.00
02053              -5.00    -2400.00
02054               5.80    -2400.00
02055              -1.80    -2400.00
02056              -7.60    -2400.00
02057               1.20    -2600.00
02058               2.60    -2400.00
02059              -6.60    -2600.00
02060              -2.80    -2600.00
02061               3.00    -2600.00
02062              -3.40    -2800.00
02063              -4.80    -2600.00
02064               1.00    -2600.00
02065              -0.20    -2800.00
02066              -4.80    -2800.00
02067              -1.80    -2800.00
02068               1.00    -2800.00
02069              -3.00    -2800.00
02070              -3.20    -3000.00
02071               0.00    -2800.00
02072              -1.40    -2800.00
02073              -3.40    -2800.00
02074              -1.20    -3000.00
02075              -0.80    -3000.00
02076              -2.80    -2800.00
02077              -2.20    -3000.00
02078              -1.00    -3200.00
02079              -2.00    -3200.00
02080              -2.60    -3200.00
02081              -1.40    -3200.00
02082              -2.00    -3200.00
02083              -2.00    -3200.00
02084              -2.00    -3200.00
02085              -2.20    -3400.00
02086              -1.40    -3200.00
02087              -1.40    -3400.00
02088              -3.40    -3200.00
02089              -2.20    -3400.00
02090              -0.60    -3400.00
02091              -3.00    -3400.00
02092              -2.60    -3400.00
02093              -1.00    -3600.00
02094              -2.60    -3400.00
02095              -3.00    -3600.00
02096              -1.20    -3400.00
02097              -2.20    -3600.00
02098              -3.20    -3600.00
02099              -1.40    -3600.00
02100              -1.40    -3600.00
02101              -3.00    -3600.00
02102              -2.20    -3600.00
02103              -1.80    -3600.00
02104              -2.80    -3800.00
02105              -2.60    -3800.00
02106              -2.00    -3600.00
02107              -2.60    -3600.00
02108              -2.80    -3600.00
02109              -2.20    -3800.00
02110              -2.60    -3800.00
02111              -2.80    -3800.00
02112              -2.60    -4000.00
02113              -2.80    -4000.00
02114              -2.80    -4000.00
02115              -2.80    -4000.00
02116              -3.00    -4000.00
02117              -3.00    -4000.00
02118              -2.80    -4000.00
02119              -2.80    -4000.00
02120              -2.80    -4000.00
02121              -3.00    -4000.00
02122              -3.00    -4000.00
02123              -3.00    -4000.00
02124              -3.60    -4000.00
02125              -3.40    -4200.00
02126              -2.80    -4200.00
02127              -3.60    -4200.00
02128              -2.80    -4200.00
02129              -2.80    -4200.00
02130              -3.80    -4000.00
02131              -3.60    -4200.00
02132              -2.60    -4200.00
02133              -3.80    -4200.00
02134              -4.40    -4200.00
02135              -3.60    -4400.00
02136              -2.80    -4400.00
02137              -3.60    -4200.00
02138              -3.00    -4200.00
02139              -2.20    -4400.00
02140              -3.00    -4200.00
02141              -3.60    -4200.00
02142              -4.20    -4400.00
02143              -5.20    -4400.00
02144              -4.60    -4400.00
02145              -4.20    -4400.00
02146              -4.80    -4400.00
02147              -2.80    -4400.00
02148              -1.60    -4400.00
02149              -3.20    -4400.00
02150              -2.80    -4400.00
02151              -3.80    -4400.00
02152              -6.00    -4400.00
02153              -6.60    -4600.00
02154              -4.60    -4600.00
02155              -4.20    -4400.00
02156              -3.80    -4600.00
02157              -1.80    -4400.00
02158              -2.20    -4600.00
02159              -4.60    -4400.00
02160              -5.00    -4600.00
02161              -5.40    -4800.00
02162              -6.60    -4600.00
02163              -5.40    -4600.00
02164              -4.20    -4600.00
02165              -3.00    -4800.00
02166              -3.00    -4600.00
02167              -5.20    -4600.00
02168              -4.60    -4800.00
02169              -4.60    -4600.00
02170              -7.00    -4600.00
02171              -6.60    -4800.00
02172              -3.20    -4800.00
02173              -5.20    -4600.00
02174              -6.20    -4800.00
02175              -3.80    -4600.00
02176              -4.20    -4800.00
02177              -7.20    -4600.00
02178              -5.80    -4800.00
02179              -4.20    -4800.00
02180              -6.80    -4800.00
02181              -6.60    -4800.00
02182              -5.00    -4600.00
02183              -6.00    -5000.00
02184              -7.20    -4800.00
02185              -4.60    -4800.00
02186              -6.20    -5000.00
02187              -7.40    -5000.00
02188              -5.40    -4600.00
02189              -5.60    -5000.00
02190              -7.60    -4800.00
02191              -7.20    -4800.00
02192              -5.40    -5000.00
02193              -7.00    -5000.00
02194              -7.60    -4800.00
02195              -6.20    -5000.00
02196              -6.00    -5000.00
02197              -7.60    -4800.00
02198              -7.60    -4800.00
02199              -6.20    -5000.00
02200              -7.20    -5000.00
02201              -7.80    -5000.00
02202              -7.60    -5000.00
02203              -8.20    -5000.00
02204              -7.60    -5000.00
02205              -7.00    -5000.00
02206              -7.80    -5000.00
02207              -7.40    -5000.00
02208              -6.60    -5000.00
02209              -8.40    -5000.00
02210              -9.60    -5000.00
02211              -7.40    -5000.00
02212              -7.60    -5000.00
02213             -10.00    -5000.00
02214              -7.00    -5000.00
02215              -6.00    -5000.00
02216             -10.20    -5000.00
02217              -9.40    -5000.00
02218              -6.80    -5000.00
02219              -9.40    -5000.00
02220             -10.00    -5000.00
02221              -7.60    -5000.00
02222              -8.40    -5000.00
02223             -10.00    -5000.00
02224              -9.00    -5000.00
02225              -8.40    -5000.00
02226              -9.40    -5200.00
02227              -9.20    -5000.00
02228              -8.60    -5000.00
02229              -8.80    -5000.00
02230              -9.80    -5200.00
02231              -9.20    -5000.00
02232              -9.00    -5000.00
02233              -9.20    -5000.00
02234              -9.60    -5000.00
02235              -8.60    -5000.00
02236              -8.20    -5000.00
02237              -8.60    -5000.00
02238              -8.60    -5000.00
02239              -8.20    -5200.00
02240              -8.60    -5000.00
02241              -9.20    -5000.00
02242              -7.60    -4600.00
02243              -7.80    -5000.00
02244              -9.00    -5000.00
02245              -7.60    -5000.00
02246              -7.00    -5000.00
02247              -8.40    -5000.00
02248              -8.20    -5200.00
02249              -7.00    -5000.00
02250              -7.60    -5000.00
02251              -7.60    -5000.00
02252              -6.80    -5000.00
02253              -6.80    -5000.00
02254              -7.40    -5000.00
02255              -6.80    -5000.00
02256              -6.60    -5000.00
02257              -7.00    -4600.00
02258              -6.80    -5000.00
02259              -6.20    -5000.00
02260              -6.60    -4800.00
02261              -6.80    -4800.00
02262              -6.00    -4600.00
02263              -6.20    -4800.00
02264              -6.80    -4800.00
02265              -6.20    -4800.00
02266              -6.00    -5000.00
02267              -6.20    -4600.00
02268              -6.00    -4800.00
02269              -5.60    -4600.00
02270              -5.80    -4800.00
02271              -5.80    -4600.00
02272              -5.40    -4800.00
02273              -5.40    -4800.00
02274              -5.80    -4600.00
02275              -5.40    -4600.00
02276              -5.40    -5000.00
02277              -5.40    -4600.00
02278              -5.00    -4800.00
02279              -5.20    -4800.00
02280              -5.20    -4600.00
02281              -5.20    -4600.00
02282              -4.80    -4600.00
02283              -4.80    -4600.00
02284              -4.60    -4800.00
02285              -4.60    -4600.00
02286              -4.60    -4600.00
02287              -4.40    -4600.00
02288              -4.60    -4600.00
02289              -4.60    -4600.00
02290              -4.40    -4600.00
02291              -4.60    -4600.00
02292              -4.40    -4600.00
02293              -4.20    -4600.00
02294              -4.60    -4600.00
02295              -4.40    -4600.00
02296              -3.80    -4600.00
02297              -4.20    -4600.00
02298              -4.20    -4400.00
02299              -3.80    -4600.00
02300              -3.80    -4600.00
02301              -3.80    -4600.00
02302              -3.80    -4400.00
02303              -3.80    -4400.00
02304              -3.80    -4400.00
02305              -3.80    -4400.00
02306              -3.80    -4200.00
02307              -4.20    -4400.00
02308              -3.80    -4400.00
02309              -3.40    -4400.00
02310              -4.00    -4400.00
02311              -4.00    -4400.00
02312              -3.00    -4400.00
02313              -4.00    -4400.00
02314              -3.80    -4400.00
02315              -3.00    -4200.00
02316              -3.40    -4400.00
02317              -3.80    -4200.00
02318              -3.40    -4200.00
02319              -3.00    -4400.00
02320              -3.60    -4400.00
02321              -3.60    -4200.00
02322              -3.40    -4200.00
02323              -3.40    -4200.00
02324              -3.80    -4200.00
02325              -3.20    -4200.00
02326              -2.80    -4200.00
02327              -3.40    -4200.00
02328              -3.20    -4200.00
02329              -2.80    -4000.00
02330              -3.00    -4000.00
02331              -3.00    -4000.00
02332              -3.00    -4000.00
02333              -3.00    -4000.00
02334              -2.80    -4000.00
02335              -3.40    -4000.00
02336              -2.80    -4000.00
02337              -1.80    -4000.00
02338              -3.60    -4000.00
02339              -3.00    -4000.00
02340              -2.00    -4000.00
02341              -2.60    -4000.00
02342              -3.60    -3800.00
02343              -2.60    -3800.00
02344              -1.20    -3600.00
02345              -3.40    -3800.00
02346              -3.00    -3600.00
02347              -1.40    -3800.00
02348              -2.60    -3600.00
02349              -3.40    -3800.00
02350              -1.80    -3600.00
02351              -2.00    -3600.00
02352              -3.00    -3600.00
02353              -2.60    -3600.00
02354              -1.80    -3600.00
02355              -2.60    -3600.00
02356              -3.00    -3600.00
02357              -2.00    -3400.00
02358              -2.00    -3600.00
02359              -3.00    -3400.00
02360              -2.00    -3400.00
02361              -1.40    -3400.00
02362              -2.60    -3600.00
02363              -2.60    -3400.00
02364              -1.20    -3200.00
02365              -2.20    -3400.00
02366              -3.00    -3200.00
02367              -1.80    -3200.00
02368              -1.40    -3200.00
02369              -2.80    -3200.00
02370              -2.00    -3200.00
02371              -1.40    -3200.00
02372              -2.60    -3200.00
02373              -2.60    -3000.00
02374              -1.40    -3200.00
02375              -1.80    -3000.00
02376              -2.40    -3200.00
02377              -1.60    -3200.00
02378              -1.60    -3000.00
02379              -2.40    -3000.00
02380              -2.00    -3000.00
02381              -1.60    -3000.00
02382              -2.20    -2800.00
02383              -2.20    -3000.00
02384              -1.40    -2800.00
02385              -2.00    -2800.00
02386              -2.20    -2800.00
02387              -1.60    -2800.00
02388              -1.80    -2800.00
02389              -2.00    -2800.00
02390              -1.80    -2800.00
02391              -1.80    -2800.00
02392              -2.20    -2600.00
02393              -1.40    -2600.00
02394              -1.60    -2600.00
02395              -2.00    -2800.00
02396              -1.40    -2800.00
02397              -1.20    -2400.00
02398              -2.00    -2600.00
02399              -1.80    -2600.00
02400              -1.40    -2400.00
02401              -1.80    -2400.00
02402              -1.80    -2600.00
02403              -1.40    -2400.00
02404              -1.40    -2400.00
02405              -1.40    -2400.00
02406              -1.80    -2400.00
02407              -1.20    -2400.00
02408              -1.20    -2200.00
02409              -1.40    -2400.00
02410              -1.80    -2000.00
02411              -0.80    -2000.00
02412              -1.20    -2200.00
02413              -2.20    -2000.00
02414              -0.80    -2000.00
02415              -0.60    -2000.00
02416              -2.60    -2000.00
02417              -1.40    -2000.00
02418               0.40    -2000.00
02419              -2.00    -1800.00
02420              -2.00    -2000.00
02421              -0.20    -2000.00
02422              -0.80    -2000.00
02423              -1.80    -1800.00
02424              -1.40    -1800.00
02425              -0.20    -1800.00
02426              -1.00    -1800.00
02427              -2.00    -1800.00
02428              -1.00    -1600.00
02429               0.40    -1600.00
02430              -2.20    -1800.00
02431              -2.00    -1600.00
02432               0.40    -1600.00
02433              -1.00    -1400.00
02434              -2.60    -1600.00
02435               0.20    -1400.00
02436               0.20    -1600.00
02437              -2.20    -1200.00
02438              -1.00    -1600.00
02439               0.20    -1400.00
02440              -1.40    -1200.00
02441              -1.80    -1200.00
02442              -0.20    -1200.00
02443              -0.40    -1200.00
02444              -1.40    -1200.00
02445              -1.20    -1000.00
02446              -1.00    -1000.00
02447              -0.60    -1000.00
02448              -1.80    -1200.00
02449              -1.00    -1000.00
02450               0.20    -1000.00
02451              -0.60    -1000.00
02452              -1.60    -1000.00
02453              -0.40    -1000.00
02454              -0.40     -800.00
02455              -2.00     -800.00
02456              -0.40    -1000.00
02457               0.40     -800.00
02458              -1.20     -800.00
02459              -1.40     -800.00
02460              -0.20     -800.00
02461              -0.60     -800.00
02462              -1.40     -800.00
02463              -0.60     -600.00
02464              -0.20     -600.00
02465              -1.00     -400.00
02466              -1.20     -600.00
02467               0.20     -400.00
02468              -0.40     -400.00
02469              -1.40     -400.00
02470              -0.20     -400.00
02471               0.20     -400.00
02472              -1.20     -400.00
02473              -0.40     -200.00
02474               0.00     -400.00
02475              -1.20     -200.00
02476              -0.40     -200.00
02477              -0.20     -200.00
02478              -0.60     -200.00
02479               0.20     -200.00
02480              -0.40        0.00
02481              -1.40        0.00
02482               0.20        0.00
02483               0.20        0.00
02484              -1.00        0.00
02485               0.20        0.00
02486               0.60        0.00
02487              -0.40      200.00
02488              -0.20        0.00
02489               0.60      200.00
02490              -0.60        0.00
02491              -0.60      200.00
02492               2.60      400.00
02493              11.60      400.00
02494              -1.20      400.00
02495             -25.00      400.00
02496             -14.80      400.00
02497              25.00      400.00
02498              10.00      600.00
02499             -25.00      400.00
02500              25.00      400.00
02501              25.00      800.00
02502             -25.00      400.00
02503             -25.00      800.00
02504              25.00      400.00
02505              25.00      800.00
02506             -25.00      600.00
02507               6.80      600.00
02508              25.00      800.00
02509             -25.00      600.00
02510             -25.00      800.00
02511              25.00      800.00
02512              25.00      600.00
02513             -25.00     1000.00
02514              25.00      800.00
02515              25.00      800.00
02516             -25.00     1200.00
02517             -25.00     1000.00
02518              25.00      800.00
02519               6.00     1200.00
02520             -25.00     1200.00
02521              25.00     1200.00
02522              25.00     1200.00
02523             -25.00     1400.00
02524             -21.40     1200.00
02525              25.00     1200.00
02526             -10.80     1600.00
02527             -25.00     1400.00
02528              25.00     1400.00
02529              25.00     1600.00
02530             -25.00     1600.00
02531              -0.20     1400.00
02532              25.00     1800.00
02533             -25.00     1600.00
02534             -25.00     1400.00
02535              25.00     1400.00
02536               7.80     1800.00
02537             -25.00     1600.00
02538              17.80     1800.00
02539              25.00     1800.00
02540             -25.00     1800.00
02541              -6.60     1800.00
02542              25.00     1800.00
02543              -9.80     1800.00
02544             -19.60     2000.00
02545              20.60     1800.00
02546               8.40     2000.00
02547             -21.00     2000.00
02548               5.40     2000.00
02549              17.00     2000.00
02550             -12.20     2000.00
02551              -6.60     2000.00
02552              15.80     2200.00
02553              -0.20     2000.00
02554             -11.60     2200.00
02555               7.80     2200.00
02556               8.20     2200.00
02557              -9.60     2200.00
02558              -0.20     2400.00
02559              10.60     2200.00
02560              -3.00     2400.00
02561              -5.80     2200.00
02562               8.20     2400.00
02563               3.40     2400.00
02564              -6.80     2400.00
02565               3.00     2400.00
02566               6.60     2400.00
02567              -3.40     2400.00
02568              -2.00     2600.00
02569               5.80     2600.00
02570               1.00     2800.00
02571              -3.60     2600.00
02572               3.40     2800.00
02573               3.40     2800.00
02574              -2.20     2800.00
02575               0.60     2600.00
02576               3.80     2800.00
02577               0.20     2800.00
02578              -1.40     2800.00
02579               3.20     2800.00
02580               2.00     2800.00
02581              -1.00     3000.00
02582               1.40     2800.00
02583               2.60     3000.00
02584               0.40     2800.00
02585               0.40     3000.00
02586               2.40     3000.00
02587               1.40     3000.00
02588               0.40     3000.00
02589               1.80     3000.00
02590               1.40     3000.00
02591               0.60     3200.00
02592               1.80     3200.00
02593               1.60     3200.00
02594               1.20     3200.00
02595               1.80     3200.00
02596               1.80     3000.00
02597               1.40     3400.00
02598               1.60     3200.00
02599               2.00     3200.00
02600               1.20     3200.00
02601               1.60     3400.00
02602               2.00     3200.00
02603               1.80     3400.00
02604               1.40     3600.00
02605               2.00     3400.00
02606               2.20     3600.00
02607               1.80     3600.00
02608               2.00     3600.00
02609               2.20     3600.00
02610               1.40     3600.00
02611               2.20     3600.00
02612               2.60     3800.00
02613               1.80     3600.00
02614               2.00     3600.00
02615               2.60     3600.00
02616               2.20     3800.00
02617               2.00     3600.00
02618               2.20     3800.00
02619               2.20     3800.00
02620               2.40     3800.00
02621               2.20     3800.00
02622               2.40     3800.00
02623               2.60     3600.00
02624               2.20     4000.00
02625               2.40     3800.00
02626               3.00     4000.00
02627               2.20     3800.00
02628               2.60     4000.00
02629               2.80     4000.00
02630               2.60     3800.00
02631               2.20     4000.00
02632               2.60     4000.00
02633               2.60     4000.00
02634               2.60     4000.00
02635               2.60     4200.00
02636               2.60     4000.00
02637               3.00     4000.00
02638               2.60     4200.00
02639               2.60     4000.00
02640               3.20     4000.00
02641               3.00     4200.00
02642               2.80     4000.00
02643               2.80     4200.00
02644               3.00     4200.00
02645               3.00     4200.00
02646               2.80     4200.00
02647               3.20     4400.00
02648               3.20     4400.00
02649               3.40     4400.00
02650               3.00     4400.00
02651               2.80     4400.00
02652               4.20     4400.00
02653               3.40     4400.00
02654               2.60     4400.00
02655               4.40     4400.00
02656               3.60     4400.00
02657               2.60     4400.00
02658               4.20     4400.00
02659               4.20     4400.00
02660               3.00     4400.00
02661               4.20     4400.00
02662               5.20     4400.00
02663               2.80     4400.00
02664               3.80     4400.00
02665               4.80     4600.00
02666               3.00     4600.00
02667               3.40     4600.00
02668               5.80     4600.00
02669               3.60     4400.00
02670               3.40     4400.00
02671               5.40     4600.00
02672               5.20     4600.00
02673               3.40     4600.00
02674               4.40     4600.00
02675               5.40     4600.00
02676               4.20     4600.00
02677               4.20     4800.00
02678               5.20     4600.00
02679               5.60     4800.00
02680               4.40     4600.00
02681               4.80     4600.00
02682               5.80     4800.00
02683               5.00     4600.00
02684               4.60     4600.00
02685               5.40     4800.00
02686               5.80     4800.00
02687               5.40     4600.00
02688               5.20     4800.00
02689               5.80     4800.00
02690               5.40     4600.00
02691               5.20     4600.00
02692               6.00     4800.00
02693               5.80     5000.00
02694               5.60     4800.00
02695               6.20     4800.00
02696               5.80     4800.00
02697               5.80     5000.00
02698               6.00     4800.00
02699               6.20     4800.00
02700               6.00     4800.00
02701               6.60     4800.00
02702               6.60     5200.00
02703               6.00     4800.00
02704               6.20     5000.00
02705               6.60     5000.00
02706               6.20     4800.00
02707               6.80     5000.00
02708               6.80     4800.00
02709               6.80     5000.00
02710               6.80     5000.00
02711               6.80     5000.00
02712               7.20     5000.00
02713               7.00     4800.00
02714               7.00     4800.00
02715               8.20     4800.00
02716               7.20     4800.00
02717               6.80     4800.00
02718               8.20     4800.00
02719               7.60     5000.00
02720               6.80     5000.00
02721               8.40     5000.00
02722               8.40     5200.00
02723               7.40     4800.00
02724               8.40     5000.00
02725               8.40     5200.00
02726               7.60     5000.00
02727               8.20     5000.00
02728               9.00     4800.00
02729               8.40     5000.00
02730               8.40     5200.00
02731               9.20     5200.00
02732               9.00     5200.00
02733               8.40     5200.00
02734               9.20     4800.00
02735               9.00     5000.00
02736               8.40     5200.00
02737               9.20     5000.00
02738               9.40     5000.00
02739               9.00     5200.00
02740               9.00     5000.00
02741               9.00     5000.00
02742               9.00     5000.00
02743               9.00     5200.00
02744               8.80     4800.00
02745               9.00     4800.00
02746               8.80     5000.00
02747               8.40     5000.00
02748               8.60     5000.00
02749               8.40     5000.00
02750               8.20     5000.00
02751               8.40     5000.00
02752               8.40     5200.00
02753               7.60     5000.00
02754               7.60     5000.00
02755               7.80     5000.00
02756               7.60     5000.00
02757               7.40     4800.00
02758               7.60     5000.00
02759               7.60     4800.00
02760               6.80     5000.00
02761               7.00     4800.00
02762               7.00     4800.00
02763               6.80     5000.00
02764               6.60     4800.00
02765               6.60     4800.00
02766               6.60     4800.00
02767               6.20     4800.00
02768               6.20     4800.00
02769               6.40     4800.00
02770               6.20     4800.00
02771               5.80     4800.00
02772               6.20     4800.00
02773               6.00     4800.00
02774               5.40     4800.00
02775               5.60     4800.00
02776               5.80     4800.00
02777               5.60     4800.00
02778               5.40     4800.00
02779               5.40     4800.00
02780               5.80     4800.00
02781               5.20     4800.00
02782               5.20     4600.00
02783               5.20     4800.00
02784               5.40     4800.00
02785               4.40     4800.00
02786               4.80     4600.00
02787               5.20     4800.00
02788               4.60     4800.00
02789               5.00     4800.00
02790               5.20     4800.00
02791               4.60     4800.00
02792               4.60     4800.00
02793               5.20     4600.00
02794               4.40     4600.00
02795               4.40     4800.00
02796               4.60     4600.00
02797               4.60     4600.00
02798               4.20     4600.00
02799               4.20     4600.00
02800               4.20     4600.00
02801               4.40     4600.00
02802               4.20     4600.00
02803               4.20     4600.00
02804               4.20     4600.00
02805               4.20     4400.00
02806               4.20     4600.00
02807               4.20     4600.00
02808               3.60     4600.00
02809               4.00     4400.00
02810               4.20     4400.00
02811               3.80     4400.00
02812               3.60     4400.00
02813               4.00     4400.00
02814               3.60     4400.00
02815               3.40     4400.00
02816               3.60     4400.00
02817               3.60     4400.00
02818               3.60     4400.00
02819               3.40     4400.00
02820               3.40     4400.00
02821               3.60     4400.00
02822               3.40     4400.00
02823               3.40     4400.00
02824               3.60     4400.00
02825               3.40     4400.00
02826               2.80     4200.00
02827               3.40     4400.00
02828               3.00     4200.00
02829               2.60     4000.00
02830               2.80     4200.00
02831               2.80     4000.00
02832               2.80     4200.00
02833               2.60     4200.00
02834               2.80     4000.00
02835               2.80     4200.00
02836               2.60     4000.00
02837               2.60     4000.00
02838               2.60     4000.00
02839               2.60     4000.00
02840               2.60     4000.00
02841               2.60     4000.00
02842               2.60     4000.00
02843               2.20     4000.00
02844               2.60     3800.00
02845               2.40     4000.00
02846               2.20     4000.00
02847               2.40     3800.00
02848               2.20     3800.00
02849               2.00     4000.00
02850               2.00     3800.00
02851               2.60     3800.00
02852               2.00     3800.00
02853               1.80     3800.00
02854               2.20     3800.00
02855               2.00     3800.00
02856               1.80     3800.00
02857               2.40     3600.00
02858               2.00     3800.00
02859               2.00     3600.00
02860               2.00     3600.00
02861               2.00     3600.00
02862               2.00     3600.00
02863               1.80     3600.00
02864               1.80     3600.00
02865               1.80     3600.00
02866               2.00     3600.00
02867               1.80     3600.00
02868               1.80     3600.00
02869               1.80     3600.00
02870               2.00     3400.00
02871               1.80     3400.00
02872               1.80     3600.00
02873               1.80     3400.00
02874               1.80     3200.00
02875               1.40     3200.00
02876               1.80     3400.00
02877               1.80     3200.00
02878               1.40     3200.00
02879               1.40     3200.00
02880               1.40     3200.00
02881               1.60     3000.00
02882               1.40     3200.00
02883               1.40     3200.00
02884               1.40     3000.00
02885               1.00     3000.00
02886               1.60     3200.00
02887               2.00     3000.00
02888               0.20     3000.00
02889               1.80     3000.00
02890               3.00     3000.00
02891              -0.60     3000.00
02892               0.60     3000.00
02893               3.40     2800.00
02894              -0.60     2800.00
02895               0.20     2800.00
02896               1.40     2800.00
02897               1.80     2800.00
02898              -0.40     2800.00
02899               0.60     2800.00
02900               3.00     2800.00
02901              -0.60     2800.00
02902               0.20     2600.00
02903               2.60     2800.00
02904               1.40     2400.00
02905              -1.80     2600.00
02906               1.20     2400.00
02907               3.40     2600.00
02908              -1.80     2600.00
02909              -0.60     2400.00
02910               3.40     2400.00
02911               0.40     2400.00
02912              -0.60     2400.00
02913               1.40     2400.00
02914               2.00     2400.00
02915              -0.60     2400.00
02916              -0.20     2400.00
02917               1.80     2200.00
02918               1.20     2200.00
02919              -1.00     2200.00
02920               1.00     2200.00
02921               2.60     2200.00
02922              -1.20     2200.00
02923              -0.20     2200.00
02924               2.20     2200.00
02925               0.20     2000.00
02926              -0.40     2000.00
02927               1.20     2200.00
02928               0.60     2000.00
02929              -1.20     1800.00
02930               0.40     2000.00
02931               2.00     2000.00
02932              -0.20     1800.00
02933               0.20     1800.00
02934               1.40     1800.00
02935               0.40     1800.00
02936              -0.60     1600.00
02937               1.00     1800.00
02938               0.60     1600.00
02939               0.00     1800.00
02940               0.60     1600.00
02941               0.20     1800.00
02942              -0.40     1600.00
02943               0.60     1600.00
02944               0.20     1600.00
02945               0.60     1600.00
02946               0.40     1800.00
02947               0.40     1400.00
02948              -0.20     1400.00
02949               0.40     1200.00
02950               0.20     1400.00
02951              -0.20     1400.00
02952               0.00     1200.00
02953               0.40     1200.00
02954               0.20     1200.00
02955               0.40     1200.00
02956               0.20     1200.00
02957              -0.40     1200.00
02958               0.20     1200.00
02959               0.20     1200.00
02960              -0.40     1200.00
02961               0.40      800.00
02962               0.40      800.00
02963              -0.60      800.00
02964               0.20     1000.00
02965               0.20      800.00
02966              -0.60      600.00
02967               0.00      800.00
02968               0.80      800.00
02969              -0.60      800.00
02970              -1.20      800.00
02971               0.40      600.00
02972               0.20      600.00
02973              -0.60      600.00
02974              -0.60      600.00
02975               0.20      600.00
02976              -0.40      400.00
02977              -0.60      400.00
02978              -0.20      400.00
02979              -0.40      400.00
02980              -0.60      400.00
02981              -0.20      400.00
02982               0.20      200.00
02983              -0.40      200.00
02984              -0.60      400.00
02985              -0.20      200.00
02986              -0.60        0.00
02987              -1.00      200.00
02988              -0.20      200.00
02989               0.00        0.00
02990              -0.40        0.00
02991              -0.20        0.00
02992              -0.40        0.00
02993              -0.60        0.00
02994              -0.20        0.00
02995              -0.20        0.00
02996              -0.40     -200.00
02997              -0.40     -200.00
02998               0.40        0.00
02999              -0.20     -200.00
03000              -0.20     -200.00
03001              -0.20     -200.00
03002               0.60     -200.00
03003              12.20     -400.00
03004               8.20     -200.00
03005             -25.00     -400.00
03006             -18.00     -400.00
03007              25.00     -400.00
03008               7.20     -400.00
03009             -25.00     -400.00
03010              24.20     -400.00
03011              25.00     -400.00
03012             -25.00     -600.00
03013             -25.00     -400.00
03014              25.00     -800.00
03015              25.00     -600.00
03016             -25.00     -800.00
03017              -9.20     -600.00
03018              25.00     -800.00
03019             -25.00     -800.00
03020             -25.00     -800.00
03021              25.00    -1000.00
03022              25.00     -800.00
03023             -25.00     -800.00
03024               2.80     -800.00
03025              25.00    -1000.00
03026             -25.00    -1000.00
03027             -25.00    -1000.00
03028              25.00    -1200.00
03029              25.00    -1200.00
03030             -25.00    -1000.00
03031              25.00    -1400.00
03032              25.00    -1200.00
03033             -25.00    -1000.00
03034             -25.00    -1200.00
03035              25.00    -1400.00
03036              10.60    -1400.00
03037             -25.00    -1400.00
03038              19.40    -1600.00
03039              25.00    -1600.00
03040             -25.00    -1600.00
03041             -25.00    -1600.00
03042              25.00    -1600.00
03043              -7.40    -1600.00
03044             -25.00    -1600.00
03045              25.00    -1600.00
03046              25.00    -1800.00
03047             -25.00    -1800.00
03048               7.40    -1600.00
03049              25.00    -1800.00
03050             -25.00    -1600.00
03051             -16.60    -1800.00
03052              25.00    -2000.00
03053              -2.80    -2000.00
03054             -25.00    -1800.00
03055              12.20    -2000.00
03056              14.60    -2000.00
03057             -21.80    -2000.00
03058              -4.40    -2000.00
03059              19.40    -2000.00
03060             -10.20    -2000.00
03061             -14.00    -2000.00
03062              14.40    -2000.00
03063               1.20    -2200.00
03064             -15.80    -2000.00
03065               3.80    -2200.00
03066               8.40    -2200.00
03067             -10.40    -2400.00
03068              -5.20    -2200.00
03069               9.20    -2400.00
03070              -3.20    -2400.00
03071             -10.00    -2200.00
03072               5.40    -2400.00
03073               2.60    -2400.00
03074              -9.40    -2400.00
03075              -0.60    -2400.00
03076               5.80    -2400.00
03077              -5.20    -2600.00
03078              -5.80    -2400.00
03079               3.80    -2600.00
03080              -0.40    -2600.00
03081              -6.60    -2600.00
03082               0.40    -2600.00
03083               2.00    -2600.00
03084              -4.80    -2600.00
03085              -3.20    -2800.00
03086               1.80    -2800.00
03087              -1.60    -2800.00
03088              -4.60    -2800.00
03089              -0.20    -2800.00
03090               0.40    -2800.00
03091              -4.20    -2800.00
03092              -2.20    -2800.00
03093               0.20    -2800.00
03094              -2.60    -2800.00
03095              -3.00    -3000.00
03096              -1.20    -3000.00
03097              -1.20    -3000.00
03098              -2.60    -3000.00
03099              -2.20    -3000.00
03100              -1.40    -3200.00
03101              -1.80    -3200.00
03102              -2.40    -3000.00
03103              -2.00    -3200.00
03104              -1.40    -3200.00
03105              -2.20    -3200.00
03106              -2.60    -3400.00
03107              -2.00    -3400.00
03108              -1.80    -3200.00
03109              -2.20    -3400.00
03110              -2.60    -3400.00
03111              -1.80    -3400.00
03112              -2.20    -3400.00
03113              -2.60    -3600.00
03114              -2.20    -3400.00
03115              -2.20    -3400.00
03116              -2.60    -3600.00
03117              -2.20    -3600.00
03118              -2.00    -3600.00
03119              -2.60    -3600.00
03120              -2.20    -3600.00
03121              -2.20    -3600.00
03122              -2.40    -3600.00
03123              -2.60    -3600.00
03124              -2.60    -3600.00
03125              -2.40    -3600.00
03126              -2.20    -3600.00
03127              -2.60    -3800.00
03128              -2.60    -3600.00
03129              -2.20    -3600.00
03130              -2.80    -3600.00
03131              -2.80    -3800.00
03132              -2.60    -3800.00
03133              -2.60    -3800.00
03134              -2.80    -4000.00
03135              -2.20    -3800.00
03136              -2.60    -4000.00
03137              -3.00    -4000.00
03138              -3.20    -4000.00
03139              -2.20    -4000.00
03140              -2.60    -4000.00
03141              -3.40    -4000.00
03142              -2.80    -4000.00
03143              -2.20    -4000.00
03144              -3.40    -4000.00
03145              -3.00    -4200.00
03146              -2.60    -4000.00
03147              -3.40    -4200.00
03148              -3.00    -4000.00
03149              -2.60    -4200.00
03150              -2.80    -4200.00
03151              -3.40    -4200.00
03152              -3.40    -4200.00
03153              -3.40    -4200.00
03154              -3.60    -4200.00
03155              -3.40    -4400.00
03156              -3.40    -4400.00
03157              -3.40    -4200.00
03158              -2.80    -4400.00
03159              -4.20    -4200.00
03160              -3.60    -4400.00
03161              -3.60    -4200.00
03162              -3.60    -4400.00
03163              -3.80    -4400.00
03164              -3.40    -4400.00
03165              -4.00    -4400.00
03166              -3.80    -4400.00
03167              -3.80    -4400.00
03168              -4.40    -4400.00
03169              -4.00    -4400.00
03170              -3.80    -4400.00
03171              -4.20    -4400.00
03172              -3.80    -4600.00
03173              -4.20    -4800.00
03174              -4.20    -4600.00
03175              -4.20    -4600.00
03176              -4.40    -4400.00
03177              -4.40    -4600.00
03178              -4.60    -4600.00
03179              -4.40    -4600.00
03180              -4.60    -4600.00
03181              -4.40    -4600.00
03182              -4.20    -4600.00
03183              -4.60    -4600.00
03184              -4.60    -4600.00
03185              -4.40    -4600.00
03186              -4.60    -4800.00
03187              -5.00    -4600.00
03188              -5.20    -4600.00
03189              -5.00    -4800.00
03190              -4.40    -4600.00
03191              -5.20    -4600.00
03192              -5.00    -4800.00
03193              -4.60    -4600.00
03194              -5.20    -4800.00
03195              -5.20    -4800.00
03196              -5.40    -4600.00
03197              -5.40    -4800.00
03198              -5.40    -4800.00
03199              -5.40    -4800.00
03200              -5.20    -4600.00
03201              -5.80    -4800.00
03202              -5.80    -4600.00
03203              -5.40    -4800.00
03204              -5.60    -4800.00
03205              -6.00    -5000.00
03206              -5.80    -4600.00
03207              -5.80    -4800.00
03208              -6.00    -4800.00
03209              -6.00    -5000.00
03210              -6.00    -5000.00
03211              -6.40    -4800.00
03212              -6.60    -4600.00
03213              -6.60    -4800.00
03214              -6.60    -4600.00
03215              -6.60    -5000.00
03216              -6.60    -5000.00
03217              -6.80    -4800.00
03218              -6.60    -5000.00
03219              -7.20    -5000.00
03220              -7.40    -5000.00
03221              -6.20    -4600.00
03222              -7.60    -5000.00
03223              -8.40    -4800.00
03224              -6.20    -4800.00
03225              -7.40    -5200.00
03226              -8.80    -5000.00
03227              -6.80    -5000.00
03228              -7.40    -5000.00
03229              -9.00    -5000.00
03230              -7.60    -5000.00
03231              -7.00    -5000.00
03232              -9.20    -5000.00
03233              -8.60    -5000.00
03234              -7.60    -4800.00
03235              -9.00    -5000.00
03236              -9.00    -5000.00
03237              -7.80    -5000.00
03238              -8.80    -5000.00
03239              -9.20    -5000.00
03240              -8.40    -5000.00
03241              -8.60    -5000.00
03242              -9.00    -5200.00
03243              -9.20    -5000.00
03244              -9.00    -5000.00
03245              -9.00    -5000.00
03246              -9.60    -5000.00
03247              -9.20    -5000.00
03248              -9.00    -5000.00
03249              -9.40    -5000.00
03250              -9.40    -5000.00
03251              -8.80    -5000.00
03252              -9.20    -5000.00
03253              -9.40    -5200.00
03254              -9.20    -5000.00
03255              -9.20    -5000.00
03256              -8.20    -5000.00
03257              -9.40    -5000.00
03258              -9.20    -4800.00
03259              -7.40    -5000.00
03260              -9.20    -5200.00
03261              -9.20    -5000.00
03262              -7.40    -5000.00
03263              -8.60    -5000.00
03264              -9.00    -5000.00
03265              -7.60    -5000.00
03266              -7.60    -5000.00
03267              -8.60    -5000.00
03268              -7.40    -4800.00
03269              -7.00    -5000.00
03270              -8.20    -5000.00
03271              -7.60    -5000.00
03272              -6.80    -5000.00
03273              -7.00    -5000.00
03274              -7.40    -5000.00
03275              -6.60    -5000.00
03276              -6.60    -4800.00
03277              -7.00    -5000.00
03278              -6.80    -5000.00
03279              -6.60    -5000.00
03280              -6.80    -5000.00
03281              -6.80    -4800.00
03282              -6.20    -5000.00
03283              -6.20    -5000.00
03284              -6.60    -4600.00
03285              -5.80    -4800.00
03286              -6.00    -5000.00
03287              -6.60    -4600.00
03288              -5.80    -4600.00
03289              -5.80    -4800.00
03290              -6.80    -4600.00
03291              -5.40    -4800.00
03292              -5.60    -4600.00
03293              -6.00    -4800.00
03294              -5.80    -4600.00
03295              -5.00    -4800.00
03296              -6.00    -4600.00
03297              -5.80    -4600.00
03298              -4.60    -4800.00
03299              -5.60    -4600.00
03300              -5.40    -4800.00
03301              -4.80    -4600.00
03302              -5.20    -4600.00
03303              -5.20    -4600.00
03304              -4.60    -4600.00
03305              -5.00    -4600.00
03306              -5.00    -4600.00
03307              -4.60    -4600.00
03308              -4.60    -4600.00
03309              -4.40    -4800.00
03310              -5.00    -4600.00
03311              -4.60    -4600.00
03312              -4.40    -4600.00
03313              -4.40    -4600.00
03314              -4.40    -4600.00
03315              -4.20    -4600.00
03316              -4.40    -4600.00
03317              -4.40    -4600.00
03318              -4.00    -4600.00
03319              -4.40    -4400.00
03320              -4.60    -4600.00
03321              -4.00    -4400.00
03322              -4.20    -4400.00
03323              -4.00    -4400.00
03324              -4.00    -4400.00
03325              -4.00    -4400.00
03326              -3.80    -4400.00
03327              -4.00    -4400.00
03328              -3.80    -4400.00
03329              -3.40    -4400.00
03330              -3.60    -4400.00
03331              -3.60    -4400.00
03332              -3.40    -4400.00
03333              -3.60    -4400.00
03334              -3.80    -4400.00
03335              -3.40    -4400.00
03336              -3.60    -4400.00
03337              -3.40    -4200.00
03338              -3.40    -4200.00
03339              -3.40    -4200.00
03340              -3.40    -4200.00
03341              -3.00    -4200.00
03342              -3.20    -4200.00
03343              -3.40    -4200.00
03344              -3.40    -4200.00
03345              -2.80    -4200.00
03346              -3.00    -4200.00
03347              -3.20    -4200.00
03348              -3.00    -4200.00
03349              -3.00    -4000.00
03350              -3.00    -4200.00
03351              -3.00    -4200.00
03352              -3.00    -4000.00
03353              -2.80    -4200.00
03354              -3.00    -4000.00
03355              -3.00    -4000.00
03356              -2.80    -4000.00
03357              -3.00    -4000.00
03358              -3.00    -4000.00
03359              -3.00    -4000.00
03360              -2.60    -4000.00
03361              -2.80    -4000.00
03362              -2.60    -4000.00
03363              -2.80    -4000.00
03364              -2.60    -3800.00
03365              -2.80    -3800.00
03366              -2.80    -4000.00
03367              -2.60    -3800.00
03368              -2.80    -3800.00
03369              -2.80    -3600.00
03370              -2.20    -3600.00
03371              -2.80    -3600.00
03372              -2.80    -3600.00
03373              -2.40    -3800.00
03374              -2.20    -3600.00
03375              -2.60    -3600.00
03376              -2.60    -3600.00
03377              -2.40    -3600.00
03378              -2.40    -3600.00
03379              -2.20    -3400.00
03380              -2.20    -3600.00
03381              -2.00    -3400.00
03382              -2.20    -3400.00
03383              -2.20    -3400.00
03384              -2.20    -3400.00
03385              -2.20    -3400.00
03386              -2.20    -3400.00
03387              -2.00    -3200.00
03388              -2.00    -3200.00
03389              -2.20    -3200.00
03390              -2.00    -3200.00
03391              -2.00    -3400.00
03392              -2.20    -3200.00
03393              -1.80    -3200.00
03394              -2.00    -3200.00
03395              -1.80    -3200.00
03396              -1.80    -3000.00
03397              -2.00    -3200.00
03398              -2.00    -3000.00
03399              -2.00    -3000.00
03400              -1.60    -3000.00
03401              -1.80    -3000.00
03402              -2.00    -3000.00
03403              -1.80    -2800.00
03404              -1.80    -3000.00
03405              -2.00    -2800.00
03406              -1.80    -2800.00
03407              -1.80    -2800.00
03408              -1.40    -2800.00
03409              -1.40    -2800.00
03410              -1.80    -2800.00
03411              -1.40    -2800.00
03412              -1.40    -2800.00
03413              -2.00    -2800.00
03414              -1.40    -2600.00
03415              -1.40    -2600.00
03416              -2.20    -2600.00
03417              -1.80    -2600.00
03418              -1.40    -2600.00
03419              -2.00    -2600.00
03420              -1.80    -2600.00
03421              -1.80    -2600.00
03422              -1.80    -2400.00
03423              -1.20    -2400.00
03424              -1.80    -2400.00
03425              -1.40    -2400.00
03426              -1.20    -2400.00
03427              -1.60    -2400.00
03428              -1.40    -2200.00
03429              -1.20    -2200.00
03430              -2.00    -2400.00
03431              -1.80    -2200.00
03432              -1.20    -2000.00
03433              -1.40    -2000.00
03434              -1.80    -2000.00
03435              -1.20    -2000.00
03436              -1.40    -2000.00
03437              -1.40    -2000.00
03438              -1.20    -2000.00
03439              -1.20    -2000.00
03440              -1.20    -2000.00
03441              -1.20    -1800.00
03442              -1.20    -1800.00
03443              -1.00    -1800.00
03444              -1.20    -1800.00
03445              -1.20    -1800.00
03446              -1.20    -1800.00
03447              -1.20    -1800.00
03448              -1.40    -1800.00
03449              -1.20    -1800.00
03450              -1.00    -1800.00
03451              -1.20    -1600.00
03452              -1.20    -1600.00
03453              -0.60    -1800.00
03454              -1.00    -1600.00
03455              -1.40    -1600.00
03456              -1.00    -1600.00
03457              -0.60    -1600.00
03458              -1.40    -1600.00
03459              -1.00    -1600.00
03460              -0.40    -1400.00
03461              -1.20    -1200.00
03462              -1.20    -1600.00
03463              -0.60    -1200.00
03464              -1.00    -1200.00
03465              -1.00    -1200.00
03466              -1.00    -1200.00
03467              -0.60    -1200.00
03468              -1.00    -1000.00
03469              -1.00    -1000.00
03470              -0.40    -1000.00
03471              -1.00    -1200.00
03472              -0.60    -1000.00
03473              -0.40    -1000.00
03474              -0.60    -1000.00
03475              -1.20    -1000.00
03476              -0.40     -800.00
03477              -0.60     -800.00
03478              -0.60     -800.00
03479              -0.60     -800.00
03480              -0.60     -800.00
03481              -1.20     -800.00
03482              -1.00     -600.00
03483              -0.40     -800.00
03484              -1.00     -600.00
03485              -1.00     -600.00
03486              -0.40     -800.00
03487              -0.40     -600.00
03488              -1.00     -400.00
03489              -0.80     -600.00
03490              -0.40     -400.00
03491              -1.00     -400.00
03492              -1.00     -400.00
03493              -0.40     -400.00
03494              -0.60     -400.00
03495              -1.00     -400.00
03496              -0.60     -200.00
03497              -0.60     -200.00
03498              -0.60     -200.00
03499              -0.60     -200.00
03500              -0.60     -200.00
03501              -0.60     -200.00
03502              -0.60        0.00
03503              -0.60        0.00
03504               0.00        0.00
03505              -0.40     -200.00
03506              -0.40        0.00
03507              -0.40     -200.00
03508               0.20        0.00
03509              -0.40        0.00
03510              -0.20        0.00
03511              -0.40        0.00
03512              -0.40      200.00
03513               0.20        0.00
03514               3.80      400.00
03515              12.20      200.00
03516              -9.20      200.00
03517             -25.00      400.00
03518              11.80      400.00
03519              25.00      400.00
03520             -25.00      400.00
03521             -25.00      600.00
03522              25.00      400.00
03523              25.00      600.00
03524             -25.00      600.00
03525             -22.00      600.00
03526              25.00      800.00
03527              -5.00      600.00
03528             -25.00      800.00
03529              25.00      400.00
03530              25.00      800.00
03531             -25.00      800.00
03532             -17.20      800.00
03533              25.00      800.00
03534             -25.00     1000.00
03535             -25.00     1200.00
03536              25.00      800.00
03537              25.00     1000.00
03538             -25.00     1200.00
03539               8.20      800.00
03540              25.00     1200.00
03541             -25.00     1200.00
03542             -25.00     1200.00
03543              25.00      800.00
03544              23.40     1200.00
03545             -25.00     1400.00
03546              17.00     1200.00
03547              25.00     1200.00
03548             -25.00     1400.00
03549             -25.00     1400.00
03550              25.00     1400.00
03551               1.60     1400.00
03552             -25.00     1400.00
03553              25.00     1400.00
03554              25.00     1600.00
03555             -25.00     1800.00
03556              -7.40     1400.00
03557              25.00     1800.00
03558             -19.00     1600.00
03559             -25.00     1600.00
03560              25.00     1800.00
03561               9.20     1800.00
03562             -25.00     1800.00
03563              11.60     1600.00
03564              23.80     1800.00
03565             -22.20     2000.00
03566              -7.00     1800.00
03567              24.60     1800.00
03568              -5.20     2000.00
03569             -17.60     2000.00
03570              15.00     2000.00
03571               9.20     2000.00
03572             -16.60     2000.00
03573               2.20     2200.00
03574              14.80     2000.00
03575              -7.60     2200.00
03576              -7.00     2000.00
03577              12.20     2200.00
03578               1.60     2200.00
03579             -10.20     2400.00
03580               5.80     2400.00
03581               7.80     2200.00
03582              -7.00     2400.00
03583              -1.20     2400.00
03584               9.20     2400.00
03585              -1.40     2400.00
03586              -5.40     2400.00
03587               6.60     2400.00
03588               3.60     2600.00
03589              -5.00     2400.00
03590               1.80     2600.00
03591               5.80     2600.00
03592              -2.00     2600.00
03593              -1.40     2600.00
03594               5.20     2600.00
03595               1.80     2800.00
03596              -2.20     2800.00
03597               2.60     2800.00
03598               3.80     2800.00
03599              -1.40     2800.00
03600               0.20     2800.00
03601               3.80     2800.00
03602               0.60     2800.00
03603              -0.80     3000.00
03604               2.80     3000.00
03605               2.00     3000.00
03606               0.20     3000.00
03607               1.60     2800.00
03608               2.20     3000.00
03609               1.00     3000.00
03610               1.20     3000.00
03611               1.40     3000.00
03612               1.60     3000.00
03613               1.60     3200.00
03614               1.00     3200.00
03615               1.40     3000.00
03616               2.00     3200.00
03617               1.20     3200.00
03618               1.00     3200.00
03619               2.00     3200.00
03620               2.00     3200.00
03621               1.00     3200.00
03622               1.40     3200.00
03623               2.20     3200.00
03624               1.40     3400.00
03625               1.00     3400.00
03626               2.20     3400.00
03627               2.20     3600.00
03628               1.20     3400.00
03629               1.40     3600.00
03630               2.60     3600.00
03631               2.00     3600.00
03632               1.00     3600.00
03633               2.00     3600.00
03634               2.60     3600.00
03635               1.20     3600.00
03636               1.20     3600.00
03637               2.80     3600.00
03638               2.00     3800.00
03639               1.40     3800.00
03640               2.60     3800.00
03641               2.80     3800.00
03642               1.80     3800.00
03643               1.80     3800.00
03644               3.00     3800.00
03645               2.60     3800.00
03646               1.40     3800.00
03647               2.80     4000.00
03648               3.40     4000.00
03649               1.80     3800.00
03650               1.80     3800.00
03651               3.40     3800.00
03652               2.60     4000.00
03653               1.80     4000.00
03654               3.40     4000.00
03655               3.60     3800.00
03656               2.20     4000.00
03657               1.40     4000.00
03658               3.60     4000.00
03659               4.60     4000.00
03660               1.00     4200.00
03661               1.40     4000.00
03662               5.80     4200.00
03663               3.80     4000.00
03664               0.20     4200.00
03665               3.40     4200.00
03666               5.20     4200.00
03667               2.20     4000.00
03668               2.20     4200.00
03669               4.40     4400.00
03670               3.60     4200.00
03671               2.00     4400.00
03672               3.60     4200.00
03673               3.60     4400.00
03674               2.80     4400.00
03675               3.40     4400.00
03676               4.00     4400.00
03677               3.00     4400.00
03678               3.00     4400.00
03679               4.20     4400.00
03680               3.60     4400.00
03681               3.20     4400.00
03682               3.80     4400.00
03683               4.00     4400.00
03684               3.40     4600.00
03685               3.80     4400.00
03686               5.00     4400.00
03687               3.80     4600.00
03688               3.40     4600.00
03689               4.60     4600.00
03690               4.60     4600.00
03691               3.40     4600.00
03692               4.20     4400.00
03693               4.80     4600.00
03694               3.60     4400.00
03695               4.20     4600.00
03696               5.20     4600.00
03697               4.20     4600.00
03698               4.40     4800.00
03699               5.20     4800.00
03700               5.00     4600.00
03701               4.60     4800.00
03702               5.00     4600.00
03703               5.20     4600.00
03704               5.20     4800.00
03705               5.00     4600.00
03706               5.20     4800.00
03707               5.20     4800.00
03708               4.60     4600.00
03709               5.40     4800.00
03710               5.80     4800.00
03711               5.20     4800.00
03712               5.80     4800.00
03713               5.80     4800.00
03714               5.60     4800.00
03715               5.80     4800.00
03716               6.00     4800.00
03717               6.00     4800.00
03718               6.00     4800.00
03719               6.60     4800.00
03720               6.00     4800.00
03721               6.20     4800.00
03722               6.40     5000.00
03723               6.40     4800.00
03724               6.20     4800.00
03725               6.80     4800.00
03726               6.80     4800.00
03727               6.60     4800.00
03728               6.80     4800.00
03729               6.80     5000.00
03730               6.80     4800.00
03731               7.40     4800.00
03732               7.40     5000.00
03733               7.00     5000.00
03734               7.40     4800.00
03735               7.60     4800.00
03736               7.60     4800.00
03737               7.60     4800.00
03738               7.40     5000.00
03739               7.60     5000.00
03740               7.60     4800.00
03741               7.80     4800.00
03742               8.00     5000.00
03743               7.60     4800.00
03744               7.80     5000.00
03745               8.40     4800.00
03746               8.20     5000.00
03747               8.20     5200.00
03748               8.40     4800.00
03749               8.40     5000.00
03750               8.40     5000.00
03751               8.60     5200.00
03752               8.60     5000.00
03753               8.60     4800.00
03754               8.60     5000.00
03755               8.60     4800.00
03756               9.00     5000.00
03757               8.60     5000.00
03758               8.60     5000.00
03759               9.00     4800.00
03760               9.20     4800.00
03761               8.60     4800.00
03762               8.60     5200.00
03763               9.00     4800.00
03764               9.20     5000.00
03765               8.40     5000.00
03766               8.40     4800.00
03767               9.60     5000.00
03768               9.00     4800.00
03769               7.40     4800.00
03770               9.00     5000.00
03771               9.40     5200.00
03772               7.40     5000.00
03773               6.80     5000.00
03774               9.20     4800.00
03775               8.60     5200.00
03776               6.20     5000.00
03777               7.80     5000.00
03778               9.40     5200.00
03779               5.80     5000.00
03780               6.00     5000.00
03781              10.60     5000.00
03782               6.80     5200.00
03783               3.60     4800.00
03784               8.40     5000.00
03785              10.00     5000.00
03786               4.20     4800.00
03787               5.20     5000.00
03788               9.60     4800.00
03789               6.20     5000.00
03790               3.60     4800.00
03791               7.60     4800.00
03792               8.40     4800.00
03793               4.40     5000.00
03794               5.40     4800.00
03795               7.40     4800.00
03796               6.00     4800.00
03797               5.40     4800.00
03798               5.40     4800.00
03799               6.80     4800.00
03800               6.00     4800.00
03801               4.20     4800.00
03802               5.20     4800.00
03803               6.80     4800.00
03804               4.60     4800.00
03805               4.80     4800.00
03806               6.40     4800.00
03807               4.40     4800.00
03808               4.40     4600.00
03809               5.40     4800.00
03810               4.40     4800.00
03811               5.00     4800.00
03812               5.80     4800.00
03813               4.20     4800.00
03814               4.20     4800.00
03815               5.80     4600.00
03816               4.20     4800.00
03817               3.00     4600.00
03818               5.20     4600.00
03819               5.20     4600.00
03820               3.00     4600.00
03821               4.20     4600.00
03822               5.00     4600.00
03823               3.60     4600.00
03824               3.40     4400.00
03825               4.80     4600.00
03826               4.20     4600.00
03827               3.00     4600.00
03828               4.20     4600.00
03829               4.40     4600.00
03830               3.60     4400.00
03831               3.60     4600.00
03832               4.20     4600.00
03833               3.60     4600.00
03834               3.40     4400.00
03835               4.20     4400.00
03836               3.60     4400.00
03837               3.40     4400.00
03838               3.60     4400.00
03839               3.60     4400.00
03840               3.00     4400.00
03841               3.00     4400.00
03842               3.80     4400.00
03843               3.60     4400.00
03844               3.00     4400.00
03845               3.40     4400.00
03846               3.40     4400.00
03847               3.00     4400.00
03848               3.00     4400.00
03849               3.40     4400.00
03850               3.40     4400.00
03851               3.00     4200.00
03852               2.60     4200.00
03853               3.40     4000.00
03854               3.00     4000.00
03855               3.40     4200.00
03856               2.60     4200.00
03857               2.60     4000.00
03858               3.40     4000.00
03859               2.80     4200.00
03860               2.00     4000.00
03861               3.20     4000.00
03862               3.00     4000.00
03863               1.80     4000.00
03864               2.60     4000.00
03865               3.20     3800.00
03866               1.80     3800.00
03867               2.60     3800.00
03868               3.40     3800.00
03869               2.20     3800.00
03870               1.80     3800.00
03871               2.60     3800.00
03872               2.20     3800.00
03873               1.80     3800.00
03874               2.60     3800.00
03875               2.20     3600.00
03876               2.00     3800.00
03877               1.80     3600.00
03878               2.20     3800.00
03879               2.00     3600.00
03880               1.80     3600.00
03881               1.80     3600.00
03882               2.00     3600.00
03883               2.00     3600.00
03884               1.40     3600.00
03885               2.00     3600.00
03886               2.00     3600.00
03887               1.80     3600.00
03888               2.00     3600.00
03889               2.00     3600.00
03890               1.60     3600.00
03891               1.40     3600.00
03892               1.80     3400.00
03893               1.80     3400.00
03894               1.20     3400.00
03895               1.40     3200.00
03896               1.80     3400.00
03897               1.20     3200.00
03898               1.60     3400.00
03899               1.60     3200.00
03900               1.80     3200.00
03901               1.40     3200.00
03902               1.40     3200.00
03903               1.60     3200.00
03904               1.40     3000.00
03905               1.40     3000.00
03906               1.40     3200.00
03907               1.20     3200.00
03908               1.40     3000.00
03909               1.40     3000.00
03910               1.40     3000.00
03911               1.20     3000.00
03912               1.40     3000.00
03913               1.20     3000.00
03914               1.00     3000.00
03915               1.40     3000.00
03916               1.00     2800.00
03917               1.20     2800.00
03918               1.40     2800.00
03919               1.20     2800.00
03920               1.20     2800.00
03921               1.00     3000.00
03922               1.20     2800.00
03923               1.00     2600.00
03924               0.60     2800.00
03925               1.20     2600.00
03926               1.20     2400.00
03927               0.40     2800.00
03928               1.00     2600.00
03929               1.20     2600.00
03930               0.60     2600.00
03931               1.00     2400.00
03932               1.20     2400.00
03933               0.40     2400.00
03934               0.60     2400.00
03935               1.00     2400.00
03936               0.40     2400.00
03937               0.60     2200.00
03938               0.60     2200.00
03939               0.40     2200.00
03940               0.60     2400.00
03941               0.80     2200.00
03942               0.20     2200.00
03943               0.40     2000.00
03944               0.60     2000.00
03945               0.40     2000.00
03946               0.20     2000.00
03947               1.00     2000.00
03948               0.60     2000.00
03949               0.40     2000.00
03950               0.20     2000.00
03951               0.60     1800.00
03952               0.20     2000.00
03953               0.40     2000.00
03954               0.40     2000.00
03955               0.20     1800.00
03956               0.20     1800.00
03957               0.20     1600.00
03958               0.20     1600.00
03959               0.20     1800.00
03960               0.40     1600.00
03961               0.20     1800.00
03962               0.40     1600.00
03963               0.40     1800.00
03964               0.40     1600.00
03965               0.40     1600.00
03966               0.40     1400.00
03967               0.20     1400.00
03968               0.20     1400.00
03969               0.20     1400.00
03970               0.40     1400.00
03971               0.20     1400.00
03972               0.20     1400.00
03973               0.20     1400.00
03974               0.20     1400.00
03975               0.20     1200.00
03976               0.20     1200.00
03977               0.20     1000.00
03978               0.20     1200.00
03979               0.40     1200.00
03980               0.00     1200.00
03981               0.20     1000.00
03982               0.20     1000.00
03983               0.20     1000.00
03984               0.20     1000.00
03985               0.20      800.00
03986              -0.20      800.00
03987               0.20      800.00
03988              -0.20      800.00
03989               0.00      800.00
03990               0.00      800.00
03991               0.00      800.00
03992              -0.20      800.00
03993               0.40      800.00
03994              -0.20      600.00
03995              -0.20      600.00
03996               0.20      600.00
03997               0.20      600.00
03998              -0.40      400.00
03999               0.20      600.00
04000              -0.20      400.00
04001              -0.40      400.00
04002              -0.40      400.00
04003              -0.60      400.00
04004              -0.60      400.00
04005              -0.40      400.00
04006              -0.20      200.00
04007              -0.40      200.00
04008              -0.40      200.00
04009              -0.20        0.00
04010              -0.60        0.00
04011              -0.60        0.00
04012              -0.60        0.00
04013               0.20        0.00
04014              -0.60        0.00
04015              -0.60        0.00
04016               0.20     -200.00
04017              -0.60        0.00
04018              -0.60     -200.00
04019              -0.40        0.00
04020              -0.60     -200.00
04021              -0.40     -200.00
04022              -0.20     -200.00
04023              -0.40     -200.00
04024               2.60     -400.00
04025              16.40     -400.00
04026              -5.60     -400.00
04027             -25.00     -400.00
04028              12.40     -200.00
04029              25.00     -400.00
04030             -25.00     -400.00
04031             -25.00     -400.00
04032              25.00     -600.00
04033              25.00     -400.00
04034             -25.00     -600.00
04035             -25.00     -600.00
04036              25.00     -800.00
04037               7.60     -600.00
04038             -25.00     -600.00
04039              25.00     -800.00
04040              25.00     -800.00
04041             -25.00     -800.00
04042             -25.00     -800.00
04043              25.00     -800.00
04044              14.00    -1000.00
04045             -25.00     -800.00
04046              25.00    -1000.00
04047              25.00    -1000.00
04048             -25.00    -1000.00
04049             -23.40    -1200.00
04050              25.00    -1200.00
04051             -25.00    -1000.00
04052             -25.00    -1200.00
04053              25.00    -1200.00
04054              25.00    -1000.00
04055             -25.00    -1200.00
04056              -3.80    -1400.00
04057              25.00    -1600.00
04058             -25.00    -1200.00
04059             -25.00    -1400.00
04060              25.00    -1600.00
04061              25.00    -1200.00
04062             -25.00    -1600.00
04063               3.60    -1600.00
04064              25.00    -1600.00
04065             -25.00    -1600.00
04066             -25.00    -1600.00
04067              25.00    -1600.00
04068              -4.60    -1600.00
04069             -25.00    -1600.00
04070              25.00    -1800.00
04071              20.40    -1800.00
04072             -25.00    -1800.00
04073               1.80    -1800.00
04074              25.00    -1800.00
04075             -17.20    -1800.00
04076             -17.20    -1800.00
04077              20.60    -2000.00
04078               2.80    -2000.00
04079             -23.60    -1800.00
04080               7.40    -2000.00
04081              13.80    -2000.00
04082             -18.60    -2000.00
04083              -4.40    -2000.00
04084              15.60    -2000.00
04085              -7.60    -2200.00
04086             -12.20    -2000.00
04087               9.40    -2200.00
04088               2.40    -2200.00
04089             -12.80    -2200.00
04090               1.40    -2400.00
04091               8.40    -2400.00
04092              -9.20    -2400.00
04093              -6.00    -2400.00
04094               8.40    -2400.00
04095              -2.60    -2400.00
04096             -10.00    -2400.00
04097               3.80    -2400.00
04098               3.80    -2600.00
04099              -9.00    -2600.00
04100              -2.60    -2400.00
04101               5.80    -2600.00
04102              -4.60    -2600.00
04103              -6.20    -2600.00
04104               3.80    -2600.00
04105               0.40    -2600.00
04106              -6.80    -2800.00
04107              -0.40    -2800.00
04108               2.60    -2800.00
04109              -4.60    -2800.00
04110              -3.80    -2800.00
04111               2.20    -2800.00
04112              -1.80    -2800.00
04113              -5.00    -2800.00
04114              -0.20    -3000.00
04115               0.20    -3000.00
04116              -3.80    -2800.00
04117              -2.60    -3200.00
04118               0.40    -2800.00
04119              -2.20    -3000.00
04120              -3.40    -3200.00
04121              -0.40    -3200.00
04122              -1.20    -3200.00
04123              -3.00    -3200.00
04124              -1.80    -3200.00
04125              -1.20    -3200.00
04126              -2.40    -3200.00
04127              -2.20    -3400.00
04128              -1.20    -3200.00
04129              -2.00    -3200.00
04130              -2.40    -3400.00
04131              -2.00    -3400.00
04132              -2.00    -3400.00
04133              -2.20    -3400.00
04134              -2.20    -3400.00
04135              -2.00    -3400.00
04136              -2.20    -3400.00
04137              -2.20    -3600.00
04138              -2.40    -3400.00
04139              -2.40    -3600.00
04140              -2.20    -3600.00
04141              -2.40    -3600.00
04142              -2.60    -3600.00
04143              -2.60    -3600.00
04144              -2.40    -3600.00
04145              -2.60    -3600.00
04146              -3.00    -3600.00
04147              -2.20    -3600.00
04148              -1.80    -3600.00
04149              -3.00    -3600.00
04150              -3.00    -3600.00
04151              -1.80    -3800.00
04152              -2.80    -3600.00
04153              -3.60    -4000.00
04154              -2.40    -4000.00
04155              -2.20    -3600.00
04156              -3.60    -4000.00
04157              -2.80    -4000.00
04158              -2.00    -4000.00
04159              -3.20    -4000.00
04160              -3.40    -4000.00
04161              -2.00    -4000.00
04162              -2.80    -4000.00
04163              -3.80    -4200.00
04164              -2.40    -4000.00
04165              -2.20    -4000.00
04166              -3.80    -4000.00
04167              -3.00    -4000.00
04168              -2.60    -4200.00
04169              -3.60    -4200.00
04170              -3.20    -4200.00
04171              -2.40    -4200.00
04172              -3.20    -4200.00
04173              -3.60    -4200.00
04174              -3.00    -4200.00
04175              -3.00    -4200.00
04176              -3.60    -4200.00
04177              -3.80    -4200.00
04178              -3.20    -4200.00
04179              -2.60    -4200.00
04180              -3.40    -4200.00
04181              -3.80    -4400.00
04182              -3.00    -4200.00
04183              -4.20    -4400.00
04184              -3.40    -4400.00
04185              -3.00    -4400.00
04186              -4.20    -4400.00
04187              -3.80    -4400.00
04188              -2.60    -4400.00
04189              -4.40    -4400.00
04190              -4.60    -4400.00
04191              -2.80    -4400.00
04192              -4.40    -4400.00
04193              -4.60    -4400.00
04194              -3.00    -4400.00
04195              -3.80    -4400.00
04196              -5.20    -4600.00
04197              -4.00    -4400.00
04198              -3.60    -4600.00
04199              -5.00    -4400.00
04200              -4.40    -4600.00
04201              -3.80    -4600.00
04202              -5.00    -4600.00
04203              -4.60    -4600.00
04204              -4.20    -4600.00
04205              -4.60    -4600.00
04206              -5.00    -4600.00
04207              -4.60    -4800.00
04208              -4.60    -4600.00
04209              -5.20    -4600.00
04210              -5.00    -4800.00
04211              -4.80    -4600.00
04212              -4.60    -4600.00
04213              -5.40    -4800.00
04214              -4.80    -4600.00
04215              -5.00    -4800.00
04216              -5.40    -4600.00
04217              -5.40    -4600.00
04218              -5.20    -4800.00
04219              -5.40    -4600.00
04220              -5.80    -5000.00
04221              -5.40    -4600.00
04222              -5.40    -4800.00
04223              -5.80    -4600.00
04224              -5.40    -4800.00
04225              -5.60    -4800.00
04226              -5.60    -4800.00
04227              -6.20    -5000.00
04228              -6.00    -5000.00
04229              -6.00    -4800.00
04230              -6.20    -5000.00
04231              -6.60    -5000.00
04232              -6.00    -4600.00
04233              -6.20    -5000.00
04234              -7.00    -5000.00
04235              -6.00    -5000.00
04236              -6.00    -5000.00
04237              -7.60    -5000.00
04238              -6.60    -5000.00
04239              -6.00    -5000.00
04240              -7.00    -5000.00
04241              -7.80    -5000.00
04242              -6.00    -5000.00
04243              -6.80    -5000.00
04244              -8.40    -4800.00
04245              -6.80    -5000.00
04246              -6.60    -5000.00
04247              -7.80    -5000.00
04248              -7.80    -5000.00
04249              -6.80    -5000.00
04250              -7.60    -5000.00
04251              -8.60    -5200.00
04252              -7.60    -5000.00
04253              -7.80    -5000.00
04254              -8.40    -5000.00
04255              -8.20    -5000.00
04256              -8.20    -5000.00
04257              -8.20    -5000.00
04258              -8.60    -5000.00
04259              -7.60    -5200.00
04260              -8.40    -5000.00
04261              -9.40    -5000.00
04262              -8.40    -5200.00
04263              -8.20    -5000.00
04264              -9.60    -5000.00
04265              -9.20    -5000.00
04266              -8.40    -5000.00
04267              -9.20    -5000.00
04268             -10.00    -5000.00
04269              -8.60    -5000.00
04270              -8.60    -5000.00
04271             -10.20    -5000.00
04272              -9.20    -4800.00
04273              -8.40    -5000.00
04274              -9.80    -5000.00
04275              -9.80    -5000.00
04276              -8.60    -5000.00
04277              -9.20    -5000.00
04278              -9.80    -5000.00
04279              -9.00    -5000.00
04280              -8.60    -5200.00
04281              -9.20    -4800.00
04282              -8.60    -5000.00
04283              -8.40    -5000.00
04284              -8.60    -5000.00
04285              -8.60    -5000.00
04286              -8.20    -5200.00
04287              -8.20    -4800.00
04288              -7.80    -5200.00
04289              -7.60    -5000.00
04290              -7.80    -5000.00
04291              -7.80    -5000.00
04292              -7.00    -5000.00
04293              -7.40    -5000.00
04294              -7.60    -4800.00
04295              -7.00    -5000.00
04296              -6.80    -5000.00
04297              -7.40    -5000.00
04298              -6.80    -5000.00
04299              -6.60    -5000.00
04300              -6.80    -4800.00
04301              -6.80    -5000.00
04302              -6.20    -5000.00
04303              -6.20    -4600.00
04304              -6.60    -4600.00
04305              -6.60    -5000.00
04306              -6.00    -4800.00
04307              -6.00    -5000.00
04308              -6.40    -5000.00
04309              -5.80    -4600.00
04310              -6.00    -5000.00
04311              -6.20    -5000.00
04312              -5.20    -4600.00
04313              -5.40    -4600.00
04314              -6.00    -4800.00
04315              -5.20    -4800.00
04316              -5.00    -4600.00
04317              -5.80    -5000.00
04318              -5.80    -4600.00
04319              -5.00    -5000.00
04320              -5.00    -4600.00
04321              -5.80    -4800.00
04322              -5.00    -4600.00
04323              -4.60    -4600.00
04324              -5.40    -4800.00
04325              -5.20    -4600.00
04326              -4.60    -4800.00
04327              -5.20    -4600.00
04328              -5.40    -4600.00
04329              -4.40    -4600.00
04330              -4.60    -4600.00
04331              -5.40    -4600.00
04332              -4.20    -4600.00
04333              -3.80    -4600.00
04334              -5.40    -4600.00
04335              -5.20    -4600.00
04336              -3.00    -4400.00
04337              -4.60    -4600.00
04338              -6.00    -4800.00
04339              -3.80    -4600.00
04340              -3.00    -4400.00
04341              -5.80    -4400.00
04342              -4.60    -4600.00
04343              -3.00    -4600.00
04344              -4.40    -4400.00
04345              -5.00    -4400.00
04346              -3.80    -4400.00
04347              -3.40    -4400.00
04348              -4.40    -4400.00
04349              -4.40    -4400.00
04350              -3.40    -4400.00
04351              -3.00    -4400.00
04352              -5.00    -4400.00
04353              -4.00    -4400.00
04354              -2.20    -4400.00
04355              -4.00    -4400.00
04356              -4.60    -4400.00
04357              -3.00    -4400.00
04358              -2.40    -4400.00
04359              -4.60    -4200.00
04360              -4.20    -4400.00
04361              -2.20    -4200.00
04362              -3.60    -4200.00
04363              -4.60    -4200.00
04364              -2.20    -4200.00
04365              -2.20    -4200.00
04366              -4.20    -4200.00
04367              -3.80    -4200.00
04368              -2.20    -4200.00
04369              -3.00    -4200.00
04370              -3.80    -4000.00
04371              -2.60    -4200.00
04372              -2.80    -4000.00
04373              -3.20    -4000.00
04374              -3.00    -4000.00
04375              -2.60    -4000.00
04376              -3.00    -4000.00
04377              -3.60    -4000.00
04378              -2.60    -4000.00
04379              -2.20    -4000.00
04380              -3.00    -4000.00
04381              -3.00    -4000.00
04382              -2.00    -3800.00
04383              -2.80    -4000.00
04384              -3.60    -4000.00
04385              -2.20    -4000.00
04386              -2.00    -4000.00
04387              -3.00    -3800.00
04388              -3.00    -3800.00
04389              -1.40    -3600.00
04390              -2.80    -3800.00
04391              -3.40    -3800.00
04392              -2.00    -3800.00
04393              -1.80    -3600.00
04394              -3.40    -3600.00
04395              -2.20    -3800.00
04396              -1.40    -3600.00
04397              -3.00    -3600.00
04398              -2.60    -3600.00
04399              -1.40    -3600.00
04400              -2.60    -3400.00
04401              -3.00    -3600.00
04402              -2.00    -3600.00
04403              -2.00    -3400.00
04404              -2.60    -3600.00
04405              -2.20    -3400.00
04406              -2.00    -3400.00
04407              -2.20    -3400.00
04408              -2.40    -3400.00
04409              -2.20    -3200.00
04410              -2.20    -3400.00
04411              -2.20    -3200.00
04412              -2.20    -3400.00
04413              -2.20    -3200.00
04414              -2.00    -3200.00
04415              -2.00    -3200.00
04416              -2.60    -3400.00
04417              -2.00    -3200.00
04418              -1.80    -3200.00
04419              -2.40    -3200.00
04420              -2.00    -3000.00
04421              -1.80    -3200.00
04422              -2.20    -3000.00
04423              -1.40    -2800.00
04424              -1.20    -2800.00
04425              -1.80    -2800.00
04426              -1.80    -3000.00
04427              -2.00    -2800.00
04428              -1.40    -2800.00
04429              -1.20    -2800.00
04430              -2.80    -2800.00
04431              -1.20    -2600.00
04432              -0.60    -2800.00
04433              -3.00    -2600.00
04434              -1.40    -2800.00
04435              -0.40    -2800.00
04436              -2.60    -2600.00
04437              -2.20    -2600.00
04438               0.20    -2600.00
04439              -1.40    -2600.00
04440              -2.60    -2400.00
04441              -0.20    -2600.00
04442              -1.40    -2400.00
04443              -2.20    -2600.00
04444              -0.60    -2400.00
04445              -1.60    -2400.00
04446              -2.20    -2400.00
04447              -0.60    -2400.00
04448              -1.00    -2400.00
04449              -2.60    -2200.00
04450              -1.00    -2400.00
04451              -0.20    -2400.00
04452              -2.20    -2200.00
04453              -1.40    -2400.00
04454              -0.40    -2400.00
04455              -2.20    -2200.00
04456              -2.00    -2000.00
04457              -0.60    -2000.00
04458              -1.20    -2000.00
04459              -1.60    -2000.00
04460              -1.80    -2000.00
04461              -0.60    -2000.00
04462              -1.20    -2000.00
04463              -2.00    -2000.00
04464              -1.20    -1800.00
04465              -0.60    -1800.00
04466              -1.80    -2000.00
04467              -1.60    -1800.00
04468              -1.00    -1800.00
04469              -1.20    -1800.00
04470              -1.80    -1800.00
04471              -1.20    -1800.00
04472              -1.20    -1800.00
04473              -0.60    -1600.00
04474              -0.60    -1800.00
04475              -1.20    -1600.00
04476              -0.80    -1600.00
04477              -1.20    -1600.00
04478              -1.40    -1600.00
04479              -0.80    -1400.00
04480              -1.20    -1400.00
04481              -1.60    -1600.00
04482              -0.60    -1400.00
04483              -0.60    -1200.00
04484              -1.40    -1200.00
04485              -0.60    -1200.00
04486              -0.20    -1200.00
04487              -1.00    -1200.00
04488              -1.20    -1200.00
04489              -0.20    -1000.00
04490              -1.20    -1200.00
04491              -1.80    -1200.00
04492              -0.40    -1200.00
04493              -0.40    -1000.00
04494              -1.40    -1000.00
04495              -0.60    -1000.00
04496              -0.40    -1000.00
04497              -1.40     -800.00
04498              -1.00     -800.00
04499               0.20     -800.00
04500              -1.20     -800.00
04501              -1.00     -800.00
04502               0.20     -800.00
04503              -0.60     -800.00
04504              -0.80     -800.00
04505              -0.40     -400.00
04506              -0.40     -800.00
04507              -0.80     -600.00
04508              -1.00     -600.00
04509              -0.60     -600.00
04510              -1.00     -600.00
04511              -0.60     -400.00
04512              -0.20     -400.00
04513              -0.60     -400.00
04514              -0.60     -400.00
04515              -0.20     -400.00
04516              -0.60     -400.00
04517              -0.60     -400.00
04518              -0.40     -200.00
04519              -0.60     -400.00
04520              -0.40     -400.00
04521              -0.40     -200.00
04522              -0.60     -400.00
04523              -0.20     -200.00
04524              -0.40        0.00
04525              -1.20        0.00
04526              -0.20        0.00
04527               0.20        0.00
04528              -1.00        0.00
04529              -0.60        0.00
04530               0.40        0.00
04531              -0.20        0.00
04532              -1.00        0.00
04533               0.00      200.00
04534               0.40        0.00
04535               0.40      200.00
04536               6.20      400.00
04537               9.20      200.00
04538             -18.60      400.00
04539             -25.00      400.00
04540              25.00      400.00
04541              25.00      600.00
04542             -25.00      400.00
04543             -25.00      400.00
04544              25.00      600.00
04545              15.00      600.00
04546             -25.00      600.00
04547              25.00      400.00
04548              25.00      600.00
04549             -25.00      600.00
04550             -25.00      800.00
04551              25.00      800.00
04552              25.00      800.00
04553             -25.00      800.00
04554              25.00      600.00
04555              25.00      800.00
04556             -25.00      800.00
04557             -25.00     1000.00
04558              25.00      800.00
04559              -6.00     1000.00
04560             -25.00     1200.00
04561              25.00     1000.00
04562              25.00     1000.00
04563             -25.00     1200.00
04564             -14.80     1200.00
04565              25.00     1200.00
04566             -21.40     1400.00
04567             -25.00     1200.00
04568              25.00     1200.00
04569              25.00     1200.00
04570             -25.00     1400.00
04571               2.20     1200.00
04572              25.00     1400.00
04573             -25.00     1400.00
04574             -25.00     1400.00
04575              25.00     1400.00
04576               9.80     1800.00
04577             -25.00     1600.00
04578              21.40     1400.00
04579              25.00     1800.00
04580             -25.00     1600.00
04581              -7.80     1600.00
04582              25.00     1800.00
04583             -12.40     1800.00
04584             -25.00     1800.00
04585              25.00     1600.00
04586               9.80     2000.00
04587             -25.00     1800.00
04588               7.00     1800.00
04589              20.20     2000.00
04590             -15.00     2000.00
04591              -9.40     1800.00
04592              18.80     2000.00
04593              -0.20     2000.00
04594             -14.60     2000.00
04595               9.80     2000.00
04596              10.00     2000.00
04597             -11.60     2200.00
04598              -1.20     2200.00
04599              12.20     2200.00
04600              -4.40     2200.00
04601              -7.40     2200.00
04602               9.40     2200.00
04603               3.60     2200.00
04604              -8.40     2400.00
04605               3.00     2200.00
04606               8.00     2400.00
04607              -5.40     2400.00
04608              -2.60     2400.00
04609               7.80     2400.00
04610               0.40     2600.00
04611              -4.40     2400.00
04612               4.40     2400.00
04613               4.20     2400.00
04614              -3.80     2600.00
04615               0.60     2600.00
04616               5.20     2600.00
04617              -0.60     2600.00
04618              -1.40     2800.00
04619               4.20     2800.00
04620               2.20     2800.00
04621              -2.60     2800.00
04622               1.40     2800.00
04623               3.80     2800.00
04624              -0.60     3000.00
04625               0.40     2800.00
04626               3.40     3000.00
04627               1.60     3000.00
04628              -0.20     3000.00
04629               2.00     3000.00
04630               2.00     3000.00
04631               0.60     3000.00
04632               1.00     3000.00
04633               2.60     3200.00
04634               1.20     3200.00
04635               0.60     3200.00
04636               1.80     3200.00
04637               1.80     3200.00
04638               1.20     3200.00
04639               1.80     3200.00
04640               2.20     3200.00
04641               2.00     3200.00
04642               1.40     3200.00
04643               1.60     3400.00
04644               2.00     3400.00
04645               1.80     3400.00
04646               1.40     3400.00
04647               2.60     3400.00
04648               1.00     3600.00
04649               1.80     3400.00
04650               2.60     3400.00
04651               1.00     3600.00
04652               2.00     3600.00
04653               2.60     3600.00
04654               1.00     3600.00
04655               1.80     3600.00
04656               2.60     3600.00
04657               1.80     3600.00
04658               1.40     3600.00
04659               2.60     3600.00
04660               2.60     3600.00
04661               1.80     3600.00
04662               2.20     3600.00
04663               2.60     3800.00
04664               1.40     3800.00
04665               2.00     3800.00
04666               2.80     3800.00
04667               1.80     3800.00
04668               2.00     3800.00
04669               2.80     3800.00
04670               2.20     4000.00
04671               2.00     4000.00
04672               2.40     3800.00
04673               2.80     3800.00
04674               2.00     4000.00
04675               2.40     4000.00
04676               2.80     3800.00
04677               2.20     4000.00
04678               2.20     4000.00
04679               2.60     4000.00
04680               2.60     4000.00
04681               2.80     4000.00
04682               2.60     4000.00
04683               2.80     4000.00
04684               2.80     4000.00
04685               3.00     4000.00
04686               3.40     4200.00
04687               3.00     4200.00
04688               3.00     4200.00
04689               3.00     4400.00
04690               3.40     4400.00
04691               3.40     4400.00
04692               3.40     4400.00
04693               3.20     4400.00
04694               3.40     4400.00
04695               3.60     4400.00
04696               3.40     4400.00
04697               3.40     4400.00
04698               3.60     4400.00
04699               3.60     4400.00
04700               3.40     4400.00
04701               4.00     4400.00
04702               3.60     4400.00
04703               3.80     4400.00
04704               3.80     4400.00
04705               3.60     4600.00
04706               3.60     4600.00
04707               4.20     4600.00
04708               4.20     4400.00
04709               3.80     4400.00
04710               3.80     4600.00
04711               4.40     4400.00
04712               4.40     4600.00
04713               3.80     4600.00
04714               4.40     4600.00
04715               4.40     4600.00
04716               4.00     4600.00
04717               4.40     4600.00
04718               4.60     4600.00
04719               4.20     4600.00
04720               4.40     4600.00
04721               5.00     4800.00
04722               5.00     4600.00
04723               4.80     4600.00
04724               4.40     4600.00
04725               5.00     4600.00
04726               4.60     4600.00
04727               5.00     4600.00
04728               5.20     4600.00
04729               5.20     4800.00
04730               5.20     4800.00
04731               5.20     4800.00
04732               5.60     4800.00
04733               5.40     4800.00
04734               5.40     4800.00
04735               5.40     4800.00
04736               5.80     4800.00
04737               5.80     4800.00
04738               5.20     4800.00
04739               5.80     4800.00
04740               6.00     4800.00
04741               5.80     4800.00
04742               6.00     4800.00
04743               6.80     4800.00
04744               6.00     4800.00
04745               6.20     4800.00
04746               6.60     4800.00
04747               6.20     4800.00
04748               6.60     4800.00
04749               7.00     4800.00
04750               6.60     4800.00
04751               7.00     5000.00
04752               7.40     4800.00
04753               6.00     4800.00
04754               6.60     4800.00
04755               8.00     4800.00
04756               7.60     5000.00
04757               7.00     5000.00
04758               7.80     4800.00
04759               7.60     4800.00
04760               7.40     4800.00
04761               7.40     5000.00
04762               8.20     4800.00
04763               7.80     5000.00
04764               8.20     5000.00
04765               8.40     4800.00
04766               8.20     4800.00
04767               7.60     5000.00
04768               8.40     4800.00
04769               8.40     5000.00
04770               8.20     5200.00
04771              10.00     4800.00
04772               8.20     4800.00
04773               6.60     5000.00
04774              10.20     5000.00
04775               9.40     5200.00
04776               7.40     4800.00
04777               9.60     5000.00
04778               9.80     4800.00
04779               9.20     5000.00
04780               7.00     4800.00
04781              10.80     5200.00
04782               9.00     4800.00
04783               7.40     5000.00
04784              10.00     5000.00
04785              10.60     5000.00
04786               7.60     5000.00
04787               7.60     5000.00
04788              11.60     4800.00
04789               8.60     4800.00
04790               5.40     4800.00
04791              10.40     5000.00
04792               9.60     5000.00
04793               7.00     5200.00
04794               7.60     5000.00
04795               9.80     5000.00
04796               7.80     5000.00
04797               6.00     5000.00
04798               8.20     5000.00
04799               9.00     5000.00
04800               6.60     5000.00
04801               6.20     5000.00
04802               9.00     5000.00
04803               6.80     5000.00
04804               4.80     4800.00
04805               8.20     4800.00
04806               7.60     4800.00
04807               5.80     4800.00
04808               7.00     4800.00
04809               7.40     4800.00
04810               5.00     4800.00
04811               6.00     5200.00
04812               7.60     5000.00
04813               5.80     4800.00
04814               5.80     5000.00
04815               6.80     4800.00
04816               5.80     4800.00
04817               5.20     4800.00
04818               6.00     5000.00
04819               5.80     4800.00
04820               5.40     4800.00
04821               6.00     4800.00
04822               5.80     4800.00
04823               5.20     4800.00
04824               5.20     4800.00
04825               5.80     4800.00
04826               5.20     4800.00
04827               5.20     4600.00
04828               5.80     4800.00
04829               5.20     4800.00
04830               5.00     4800.00
04831               5.20     4800.00
04832               4.60     4800.00
04833               5.20     4800.00
04834               5.00     4800.00
04835               4.20     4600.00
04836               5.20     4600.00
04837               5.20     4800.00
04838               3.60     4600.00
04839               4.20     4600.00
04840               5.80     4800.00
04841               4.20     4600.00
04842               3.80     4600.00
04843               5.20     4800.00
04844               4.60     4600.00
04845               3.20     4600.00
04846               4.20     4400.00
04847               4.60     4600.00
04848               3.00     4600.00
04849               3.60     4400.00
04850               4.60     4600.00
04851               3.80     4400.00
04852               3.00     4600.00
04853               3.80     4600.00
04854               4.20     4400.00
04855               3.00     4400.00
04856               3.40     4400.00
04857               3.80     4400.00
04858               3.80     4400.00
04859               2.60     4400.00
04860               3.40     4400.00
04861               3.60     4400.00
04862               3.40     4400.00
04863               3.40     4200.00
04864               3.60     4400.00
04865               3.40     4400.00
04866               2.60     4400.00
04867               3.20     4400.00
04868               3.40     4400.00
04869               2.60     4400.00
04870               3.00     4400.00
04871               3.40     4200.00
04872               2.80     4400.00
04873               3.00     4000.00
04874               2.60     4200.00
04875               3.00     4000.00
04876               3.20     4200.00
04877               2.80     4200.00
04878               2.60     4000.00
04879               2.80     4000.00
04880               2.60     4000.00
04881               2.60     4000.00
04882               2.60     4000.00
04883               2.60     4000.00
04884               2.20     4000.00
04885               2.80     4000.00
04886               2.80     4000.00
04887               2.40     4000.00
04888               2.20     3800.00
04889               3.00     3800.00
04890               2.60     4000.00
04891               2.00     4000.00
04892               2.60     3800.00
04893               2.60     3800.00
04894               2.00     3800.00
04895               2.00     3800.00
04896               2.20     4000.00
04897               2.40     3800.00
04898               2.20     3800.00
04899               2.00     3800.00
04900               2.60     3800.00
04901               2.20     3600.00
04902               1.80     3800.00
04903               2.20     3600.00
04904               2.60     3800.00
04905               2.00     3600.00
04906               1.80     3600.00
04907               2.00     3600.00
04908               2.00     3600.00
04909               2.00     3600.00
04910               2.00     3600.00
04911               1.80     3400.00
04912               1.40     3600.00
04913               1.80     3400.00
04914               1.80     3600.00
04915               1.80     3400.00
04916               1.40     3400.00
04917               1.80     3400.00
04918               1.80     3200.00
04919               1.40     3200.00
04920               1.60     3200.00
04921               1.40     3200.00
04922               1.80     3200.00
04923               1.40     3200.00
04924               1.00     3000.00
04925               1.80     3200.00
04926               1.20     3000.00
04927               1.20     3000.00
04928               1.20     3200.00
04929               1.40     3000.00
04930               1.20     3000.00
04931               1.20     3200.00
04932               1.40     3000.00
04933               1.40     3000.00
04934               1.20     3000.00
04935               0.60     3000.00
04936               1.00     3000.00
04937               2.00     2800.00
04938               0.20     2800.00
04939               0.40     2800.00
04940               2.60     2800.00
04941               1.00     2800.00
04942              -0.60     2800.00
04943               2.40     2800.00
04944               1.80     2800.00
04945              -1.00     2600.00
04946               1.80     2400.00
04947               2.60     2600.00
04948              -0.40     2400.00
04949               0.40     2600.00
04950               2.60     2600.00
04951               0.40     2400.00
04952              -0.40     2600.00
04953               2.00     2400.00
04954               1.40     2400.00
04955               0.20     2400.00
04956               1.00     2400.00
04957               1.00     2400.00
04958               0.40     2400.00
04959               0.40     2400.00
04960               1.00     2200.00
04961               0.60     2200.00
04962               1.20     2200.00
04963               0.60     2200.00
04964               0.60     2200.00
04965               1.00     2200.00
04966               0.60     2200.00
04967               0.40     2000.00
04968               0.60     2000.00
04969               0.60     2000.00
04970               1.00     2000.00
04971               0.40     2000.00
04972               0.20     2000.00
04973               0.60     2000.00
04974               0.60     2000.00
04975               0.20     2000.00
04976               0.60     1800.00
04977               0.60     1800.00
04978               0.20     1800.00
04979               0.20     1800.00
04980               0.40     1600.00
04981               0.40     1600.00
04982               0.20     1800.00
04983               0.40     1600.00
04984               0.40     1800.00
04985               0.20     1800.00
04986               0.20     1600.00
04987               0.20     1600.00
04988               0.40     1400.00
04989              -0.20     1400.00
04990               0.20     1200.00
04991               0.40     1600.00
04992               0.00     1400.00
04993               0.00     1200.00
04994               0.20     1400.00
04995               0.20     1200.00
04996               0.20     1200.00
04997              -0.40     1200.00
04998               0.20     1200.00
04999               0.40     1200.00
05000              -0.60     1200.00
