Unit:(mV)
                     CH1         CH2
Frequency              ? 134.632 kHz
00001              -3.60    -5400.00
00002              -4.60    -5200.00
00003              -4.40    -5400.00
00004              -4.20    -5400.00
00005              -4.60    -5400.00
00006              -4.80    -5400.00
00007              -3.60    -5600.00
00008              -4.40    -5600.00
00009              -5.00    -5600.00
00010              -4.60    -5600.00
00011              -4.60    -5600.00
00012              -5.80    -5800.00
00013              -5.40    -5600.00
00014              -4.80    -5800.00
00015              -5.00    -5600.00
00016              -5.80    -5800.00
00017              -5.00    -5800.00
00018              -5.00    -5800.00
00019              -6.00    -5800.00
00020              -6.00    -5800.00
00021              -5.20    -5800.00
00022              -6.20    -6000.00
00023              -6.80    -6000.00
00024              -5.80    -6000.00
00025              -5.60    -5800.00
00026              -7.00    -6000.00
00027              -6.60    -6000.00
00028              -5.40    -6000.00
00029              -7.00    -6000.00
00030              -7.60    -6200.00
00031              -6.00    -6000.00
00032              -6.60    -6000.00
00033              -7.80    -6000.00
00034              -6.80    -6000.00
00035              -6.40    -6000.00
00036              -7.60    -6200.00
00037              -7.60    -6200.00
00038              -6.80    -6400.00
00039              -7.80    -6400.00
00040              -8.60    -6200.00
00041              -7.60    -6200.00
00042              -7.40    -6200.00
00043              -8.60    -6400.00
00044              -8.60    -6400.00
00045              -7.40    -6400.00
00046              -8.20    -6200.00
00047              -9.80    -6400.00
00048              -8.40    -6400.00
00049              -8.40    -6400.00
00050              -9.40    -6400.00
00051              -9.00    -6400.00
00052              -8.60    -6400.00
00053              -9.20    -6400.00
00054              -9.80    -6400.00
00055              -9.20    -6400.00
00056              -9.40    -6400.00
00057             -10.20    -6400.00
00058             -10.40    -6400.00
00059              -9.20    -6400.00
00060             -10.20    -6600.00
00061             -10.60    -6400.00
00062             -10.20    -6400.00
00063             -10.20    -6400.00
00064             -11.40    -6400.00
00065             -10.80    -6600.00
00066             -10.60    -6600.00
00067             -11.60    -6600.00
00068             -11.40    -6600.00
00069             -11.40    -6600.00
00070             -10.80    -6600.00
00071             -12.40    -6600.00
00072             -11.80    -6600.00
00073             -10.80    -6400.00
00074             -12.40    -6600.00
00075             -12.60    -6400.00
00076             -11.00    -6600.00
00077             -12.20    -6400.00
00078             -13.00    -6600.00
00079             -11.40    -6400.00
00080             -11.20    -6600.00
00081             -12.40    -6400.00
00082             -11.20    -6400.00
00083             -10.80    -6600.00
00084             -11.60    -6600.00
00085             -11.00    -6600.00
00086             -10.00    -6600.00
00087             -10.80    -6600.00
00088             -10.20    -6400.00
00089              -9.40    -6600.00
00090             -10.20    -6400.00
00091             -10.20    -6400.00
00092              -9.80    -6400.00
00093              -9.80    -6400.00
00094              -9.60    -6400.00
00095              -9.00    -6400.00
00096              -8.60    -6400.00
00097              -9.00    -6400.00
00098              -8.60    -6400.00
00099              -8.40    -6400.00
00100              -8.20    -6400.00
00101              -8.60    -6400.00
00102              -7.60    -6400.00
00103              -7.80    -6400.00
00104              -7.80    -6400.00
00105              -7.40    -6200.00
00106              -7.60    -6200.00
00107              -7.60    -6400.00
00108              -7.40    -6200.00
00109              -7.40    -6200.00
00110              -7.00    -6200.00
00111              -7.00    -6200.00
00112              -6.80    -6200.00
00113              -6.80    -6000.00
00114              -6.80    -6000.00
00115              -6.00    -6000.00
00116              -6.20    -6200.00
00117              -6.20    -6000.00
00118              -6.20    -6000.00
00119              -6.00    -6000.00
00120              -6.20    -6000.00
00121              -6.00    -6000.00
00122              -6.00    -5800.00
00123              -5.80    -5800.00
00124              -5.80    -6000.00
00125              -5.40    -5800.00
00126              -5.40    -6000.00
00127              -5.40    -5800.00
00128              -5.40    -5800.00
00129              -5.20    -5800.00
00130              -5.00    -5800.00
00131              -5.20    -5800.00
00132              -5.20    -5600.00
00133              -4.60    -5600.00
00134              -5.00    -5600.00
00135              -4.60    -5600.00
00136              -4.60    -5600.00
00137              -4.60    -5600.00
00138              -4.60    -5600.00
00139              -4.60    -5600.00
00140              -4.40    -5400.00
00141              -4.40    -5600.00
00142              -4.40    -5400.00
00143              -4.40    -5600.00
00144              -4.20    -5200.00
00145              -4.20    -5400.00
00146              -4.40    -5400.00
00147              -4.20    -5200.00
00148              -4.00    -5200.00
00149              -4.20    -5200.00
00150              -4.00    -5000.00
00151              -3.80    -5200.00
00152              -3.80    -5200.00
00153              -3.80    -5000.00
00154              -3.80    -5200.00
00155              -3.60    -5000.00
00156              -4.00    -4800.00
00157              -3.60    -4800.00
00158              -3.40    -5000.00
00159              -3.60    -4600.00
00160              -3.60    -4800.00
00161              -3.40    -4800.00
00162              -3.40    -4600.00
00163              -3.40    -4600.00
00164              -3.60    -4600.00
00165              -3.40    -4600.00
00166              -3.00    -4600.00
00167              -3.00    -4600.00
00168              -3.00    -4400.00
00169              -3.40    -4400.00
00170              -2.80    -4400.00
00171              -2.80    -4400.00
00172              -3.40    -4400.00
00173              -2.80    -4400.00
00174              -2.00    -4200.00
00175              -2.80    -4200.00
00176              -3.80    -4200.00
00177              -1.80    -4200.00
00178              -2.20    -4200.00
00179              -3.80    -4000.00
00180              -2.20    -4200.00
00181              -1.00    -4000.00
00182              -3.80    -4000.00
00183              -2.80    -4000.00
00184               0.20    -4000.00
00185              -4.00    -4000.00
00186              -3.80    -4000.00
00187              -0.40    -3800.00
00188              -2.60    -3600.00
00189              -3.80    -3600.00
00190              -0.60    -3600.00
00191              -1.20    -3600.00
00192              -3.80    -3400.00
00193              -1.80    -3600.00
00194              -0.60    -3400.00
00195              -2.80    -3400.00
00196              -2.60    -3400.00
00197              -0.80    -3400.00
00198              -2.00    -3200.00
00199              -2.60    -3200.00
00200              -1.60    -3000.00
00201              -1.20    -3200.00
00202              -2.20    -3200.00
00203              -2.00    -3000.00
00204              -1.00    -2800.00
00205              -2.20    -3000.00
00206              -2.20    -2800.00
00207              -0.60    -2800.00
00208              -1.20    -2800.00
00209              -2.60    -2600.00
00210              -1.20    -2600.00
00211              -1.20    -2600.00
00212              -2.80    -2600.00
00213              -1.40    -2400.00
00214              -0.60    -2600.00
00215              -2.20    -2600.00
00216              -2.20    -2400.00
00217              -0.20    -2400.00
00218              -1.80    -2400.00
00219              -2.20    -2400.00
00220              -0.60    -2200.00
00221              -1.20    -2000.00
00222              -2.20    -2000.00
00223              -1.20    -2000.00
00224              -0.60    -2000.00
00225              -1.80    -2000.00
00226              -1.40    -2000.00
00227              -0.40    -1800.00
00228              -1.20    -1800.00
00229              -1.80    -1800.00
00230              -1.20    -1600.00
00231              -1.00    -1600.00
00232              -1.60    -1600.00
00233              -1.20    -1600.00
00234              -0.60    -1600.00
00235              -1.20    -1200.00
00236              -1.00    -1200.00
00237              -0.60    -1200.00
00238              -0.80    -1200.00
00239              -0.80    -1000.00
00240              -0.60    -1000.00
00241              -1.00    -1000.00
00242              -1.00    -1000.00
00243              -1.00     -800.00
00244              -1.00    -1000.00
00245              -0.60     -800.00
00246              -0.40     -800.00
00247              -1.00     -800.00
00248              -0.60     -800.00
00249              -0.20     -600.00
00250              -1.00     -600.00
00251              -0.60     -600.00
00252               0.20     -400.00
00253              -0.60     -400.00
00254              -0.80     -400.00
00255              -0.20     -400.00
00256              -0.40     -400.00
00257              -0.20     -200.00
00258              -0.20     -200.00
00259              -1.00        0.00
00260              -0.20        0.00
00261               0.40     -200.00
00262              -0.20      200.00
00263               0.00        0.00
00264               1.00        0.00
00265              -0.20      200.00
00266              -1.00      400.00
00267               0.40      200.00
00268               0.40      400.00
00269               1.20      400.00
00270              10.80      600.00
00271               5.80      800.00
00272             -25.00      800.00
00273             -25.00      600.00
00274              25.00      800.00
00275              25.00      800.00
00276             -25.00      800.00
00277             -25.00      800.00
00278              25.00     1200.00
00279              25.00      800.00
00280             -25.00     1400.00
00281              14.40      600.00
00282              25.00     1800.00
00283             -25.00      800.00
00284             -25.00     1800.00
00285              25.00      800.00
00286              25.00     1600.00
00287             -25.00     1400.00
00288              25.00     1800.00
00289              25.00     1600.00
00290             -25.00     1800.00
00291             -25.00     1800.00
00292              25.00     1600.00
00293              12.40     1800.00
00294             -25.00     1800.00
00295              25.00     2000.00
00296              25.00     2000.00
00297             -25.00     2200.00
00298             -24.40     2000.00
00299              25.00     2000.00
00300             -15.20     2200.00
00301             -25.00     2400.00
00302              25.00     2200.00
00303              25.00     2400.00
00304             -25.00     2400.00
00305              -1.40     2400.00
00306              25.00     2200.00
00307             -25.00     2800.00
00308             -25.00     2400.00
00309              25.00     2600.00
00310              10.80     2800.00
00311             -25.00     2800.00
00312              25.00     2800.00
00313              25.00     2800.00
00314             -25.00     2800.00
00315              -4.40     3000.00
00316              25.00     3000.00
00317             -19.80     3200.00
00318             -24.20     3000.00
00319              25.00     3000.00
00320              10.60     3200.00
00321             -25.00     3000.00
00322              12.20     3200.00
00323              23.80     3200.00
00324             -18.20     3400.00
00325              -9.80     3200.00
00326              25.00     3400.00
00327              -2.60     3400.00
00328             -17.00     3600.00
00329              14.80     3400.00
00330              12.20     3600.00
00331             -15.80     3600.00
00332               2.80     3800.00
00333              16.60     3600.00
00334              -7.00     3800.00
00335              -5.80     4000.00
00336              14.00     3800.00
00337               2.80     3800.00
00338              -9.20     3800.00
00339               7.40     4000.00
00340               8.20     4000.00
00341              -5.60     4000.00
00342              -0.40     4000.00
00343              10.20     4200.00
00344              -0.20     4200.00
00345              -2.60     4400.00
00346               6.00     4200.00
00347               5.20     4400.00
00348              -3.40     4400.00
00349               3.00     4600.00
00350               6.40     4400.00
00351               0.40     4600.00
00352              -0.40     4600.00
00353               6.00     4600.00
00354               2.80     4600.00
00355              -0.60     4600.00
00356               3.60     4800.00
00357               5.00     4800.00
00358               0.40     4800.00
00359               2.00     4800.00
00360               5.20     4800.00
00361               2.20     5000.00
00362               2.00     4800.00
00363               4.20     4800.00
00364               3.60     5000.00
00365               2.60     4800.00
00366               4.20     5200.00
00367               3.40     5200.00
00368               3.00     5200.00
00369               3.20     5200.00
00370               3.60     5400.00
00371               3.00     5400.00
00372               4.20     5200.00
00373               3.40     5200.00
00374               4.20     5400.00
00375               3.80     5400.00
00376               3.80     5400.00
00377               3.80     5400.00
00378               4.40     5600.00
00379               4.20     5400.00
00380               4.40     5600.00
00381               4.00     5600.00
00382               4.40     5600.00
00383               4.60     5600.00
00384               4.40     5600.00
00385               4.40     5600.00
00386               5.00     6000.00
00387               5.00     5800.00
00388               4.20     5600.00
00389               5.20     5800.00
00390               5.80     5800.00
00391               5.00     6000.00
00392               5.20     5800.00
00393               6.00     5800.00
00394               5.20     6000.00
00395               5.40     6000.00
00396               5.80     6000.00
00397               6.20     6000.00
00398               5.20     6000.00
00399               6.20     6000.00
00400               6.40     6000.00
00401               5.80     6000.00
00402               5.80     6000.00
00403               6.80     6000.00
00404               6.40     6200.00
00405               6.00     6200.00
00406               6.80     6200.00
00407               6.80     6200.00
00408               6.40     6000.00
00409               6.60     6200.00
00410               7.60     6200.00
00411               6.80     6200.00
00412               6.80     6400.00
00413               7.60     6200.00
00414               7.40     6200.00
00415               7.60     6200.00
00416               8.20     6200.00
00417               8.40     6200.00
00418               7.80     6200.00
00419               7.80     6400.00
00420               8.40     6200.00
00421               9.00     6400.00
00422               8.20     6200.00
00423               8.60     6400.00
00424               9.00     6400.00
00425               9.00     6400.00
00426               8.60     6200.00
00427               9.80     6400.00
00428               9.40     6400.00
00429               9.20     6200.00
00430               9.80     6400.00
00431              10.00     6400.00
00432               9.80     6400.00
00433               9.80     6400.00
00434              10.60     6600.00
00435              10.60     6400.00
00436              10.20     6400.00
00437              10.60     6400.00
00438              11.00     6400.00
00439              10.60     6400.00
00440              10.80     6400.00
00441              11.40     6400.00
00442              11.40     6600.00
00443              11.00     6400.00
00444              11.40     6400.00
00445              11.60     6400.00
00446              11.40     6400.00
00447              11.40     6400.00
00448              11.60     6400.00
00449              11.60     6400.00
00450              11.40     6600.00
00451              11.40     6400.00
00452              11.40     6400.00
00453              11.00     6400.00
00454              10.80     6400.00
00455              10.80     6400.00
00456              10.40     6200.00
00457              10.20     6400.00
00458              10.00     6400.00
00459               9.80     6400.00
00460               9.80     6400.00
00461               9.40     6400.00
00462               9.00     6400.00
00463               9.00     6400.00
00464               9.00     6400.00
00465               8.80     6400.00
00466               8.40     6400.00
00467               8.40     6200.00
00468               8.20     6400.00
00469               8.20     6200.00
00470               7.80     6200.00
00471               7.80     6400.00
00472               7.60     6400.00
00473               7.60     6200.00
00474               7.60     6200.00
00475               7.40     6200.00
00476               6.80     6400.00
00477               7.00     6200.00
00478               6.80     6200.00
00479               6.60     6200.00
00480               6.80     6200.00
00481               6.60     6000.00
00482               6.60     6200.00
00483               6.20     6000.00
00484               6.20     6200.00
00485               6.00     6000.00
00486               6.00     6200.00
00487               5.80     6000.00
00488               6.00     6000.00
00489               5.80     6000.00
00490               5.80     6000.00
00491               5.40     6000.00
00492               5.40     6000.00
00493               5.40     6000.00
00494               5.00     6000.00
00495               5.40     6000.00
00496               5.20     6000.00
00497               5.20     5800.00
00498               5.20     5800.00
00499               5.40     5600.00
00500               5.00     5800.00
00501               4.60     5600.00
00502               4.40     5800.00
00503               4.40     5600.00
00504               4.60     5600.00
00505               4.40     5600.00
00506               4.40     5600.00
00507               4.60     5600.00
00508               4.40     5600.00
00509               4.20     5400.00
00510               4.20     5400.00
00511               4.20     5400.00
00512               3.80     5400.00
00513               4.20     5400.00
00514               3.80     5400.00
00515               4.00     5400.00
00516               3.80     5400.00
00517               3.60     5200.00
00518               3.80     5200.00
00519               3.60     5200.00
00520               3.40     5200.00
00521               3.60     5200.00
00522               3.60     5200.00
00523               3.40     5000.00
00524               3.40     5200.00
00525               3.00     4800.00
00526               3.60     4800.00
00527               3.00     5000.00
00528               3.20     4800.00
00529               3.20     4800.00
00530               3.40     4800.00
00531               2.80     4800.00
00532               3.00     4800.00
00533               3.00     4800.00
00534               2.80     4600.00
00535               2.60     4600.00
00536               2.60     4600.00
00537               2.60     4600.00
00538               2.60     4400.00
00539               2.20     4600.00
00540               2.60     4400.00
00541               2.60     4400.00
00542               2.20     4400.00
00543               2.60     4400.00
00544               2.20     4400.00
00545               2.00     4200.00
00546               2.20     4200.00
00547               2.20     4000.00
00548               2.00     4200.00
00549               2.20     4000.00
00550               2.00     4000.00
00551               1.80     4000.00
00552               2.00     4000.00
00553               2.00     4000.00
00554               1.80     3800.00
00555               1.60     3800.00
00556               1.80     3800.00
00557               1.80     3800.00
00558               1.40     3800.00
00559               1.80     3600.00
00560               1.60     3600.00
00561               1.00     3600.00
00562               2.00     3600.00
00563               1.80     3400.00
00564               1.00     3400.00
00565               2.00     3400.00
00566               1.40     3400.00
00567               0.60     3200.00
00568               1.80     3200.00
00569               1.80     3200.00
00570               0.40     3200.00
00571               1.40     3200.00
00572               1.80     3000.00
00573               0.60     3000.00
00574               1.20     3000.00
00575               1.80     2800.00
00576               1.00     2800.00
00577               1.00     2800.00
00578               1.80     2800.00
00579               1.00     2800.00
00580               0.80     2800.00
00581               1.20     2800.00
00582               1.00     2600.00
00583               0.60     2400.00
00584               1.00     2400.00
00585               1.20     2400.00
00586               0.80     2400.00
00587               1.00     2400.00
00588               1.00     2400.00
00589               0.80     2200.00
00590               0.60     2200.00
00591               1.00     2200.00
00592               0.80     2000.00
00593               0.60     2000.00
00594               0.60     2000.00
00595               0.60     2000.00
00596               0.20     1800.00
00597               0.40     1800.00
00598               0.40     1800.00
00599               0.40     1600.00
00600               0.40     1600.00
00601               0.40     1800.00
00602               0.20     1400.00
00603               0.00     1400.00
00604               0.40     1400.00
00605               0.40     1400.00
00606               0.20     1400.00
00607               0.40     1400.00
00608               0.20     1200.00
00609               0.20     1200.00
00610               0.20     1200.00
00611               0.40     1200.00
00612              -0.20     1000.00
00613              -0.20     1000.00
00614               0.00      800.00
00615              -0.20      800.00
00616              -0.20      600.00
00617              -0.20      600.00
00618              -0.40      800.00
00619              -0.20      600.00
00620              -0.40      600.00
00621              -0.20      600.00
00622               0.20      400.00
00623              -0.40      400.00
00624              -0.40      400.00
00625               0.20      400.00
00626              -0.20      200.00
00627              -0.60      400.00
00628               0.20      200.00
00629              -0.20        0.00
00630              -0.80        0.00
00631              -0.40        0.00
00632               0.20        0.00
00633              -0.40        0.00
00634              -0.40     -200.00
00635               0.40     -200.00
00636              -0.20     -200.00
00637              -1.00     -400.00
00638              -0.20     -400.00
00639               0.00     -400.00
00640               3.40     -400.00
00641              20.60     -800.00
00642              -6.00     -800.00
00643             -25.00     -800.00
00644              -4.20     -400.00
00645              25.00     -800.00
00646              12.60    -1000.00
00647             -25.00     -800.00
00648              17.80     -800.00
00649              25.00    -1000.00
00650             -25.00    -1200.00
00651             -25.00     -800.00
00652              25.00    -1200.00
00653              25.00    -1400.00
00654             -25.00    -1000.00
00655             -25.00    -1200.00
00656              25.00    -1400.00
00657              25.00    -1600.00
00658             -25.00    -1000.00
00659              25.00    -1800.00
00660              25.00    -1600.00
00661             -25.00    -1600.00
00662             -25.00    -1600.00
00663              25.00    -2000.00
00664              25.00    -1600.00
00665             -25.00    -1800.00
00666              25.00    -2000.00
00667              25.00    -1800.00
00668             -25.00    -1800.00
00669               4.80    -2000.00
00670              25.00    -2000.00
00671             -25.00    -2000.00
00672             -25.00    -2400.00
00673              25.00    -2400.00
00674              25.00    -2400.00
00675             -25.00    -2400.00
00676              21.00    -2400.00
00677              25.00    -2400.00
00678             -25.00    -2400.00
00679             -25.00    -2800.00
00680              25.00    -2800.00
00681             -10.60    -2800.00
00682             -25.00    -2800.00
00683              25.00    -2800.00
00684              25.00    -2800.00
00685             -25.00    -2800.00
00686              10.20    -3000.00
00687              25.00    -2800.00
00688             -25.00    -3000.00
00689             -25.00    -3200.00
00690              25.00    -3200.00
00691               1.20    -3200.00
00692             -25.00    -3200.00
00693              17.40    -3400.00
00694              25.00    -3200.00
00695             -25.00    -3200.00
00696              -9.40    -3400.00
00697              25.00    -3400.00
00698             -12.40    -3400.00
00699             -25.00    -3600.00
00700              20.20    -3600.00
00701               6.60    -3600.00
00702             -25.00    -3600.00
00703               2.80    -3800.00
00704              16.20    -3800.00
00705             -17.60    -3600.00
00706              -9.40    -3800.00
00707              15.40    -4000.00
00708              -5.00    -4000.00
00709             -16.60    -4000.00
00710               8.20    -4000.00
00711               4.40    -4000.00
00712             -15.80    -4000.00
00713              -1.80    -4200.00
00714               9.00    -4200.00
00715              -9.20    -4200.00
00716              -9.20    -4200.00
00717               6.60    -4400.00
00718              -2.20    -4200.00
00719             -11.60    -4400.00
00720               1.00    -4200.00
00721               3.40    -4400.00
00722              -8.60    -4400.00
00723              -5.40    -4600.00
00724               2.80    -4600.00
00725              -3.80    -4400.00
00726              -8.20    -4800.00
00727              -0.40    -4800.00
00728              -0.60    -4600.00
00729              -7.00    -4800.00
00730              -3.80    -4800.00
00731              -0.40    -4800.00
00732              -4.60    -5000.00
00733              -5.40    -5000.00
00734              -2.00    -5000.00
00735              -2.80    -5000.00
00736              -5.20    -5000.00
00737              -3.80    -5000.00
00738              -3.40    -5200.00
00739              -4.60    -5000.00
00740              -4.20    -5000.00
00741              -3.80    -5200.00
00742              -5.00    -5400.00
00743              -3.80    -5200.00
00744              -3.60    -5400.00
00745              -5.60    -5200.00
00746              -3.80    -5600.00
00747              -3.80    -5400.00
00748              -5.80    -5400.00
00749              -4.60    -5400.00
00750              -3.00    -5600.00
00751              -5.80    -5600.00
00752              -5.60    -5600.00
00753              -3.80    -5800.00
00754              -5.00    -5800.00
00755              -6.00    -5600.00
00756              -4.40    -5600.00
00757              -4.60    -5800.00
00758              -5.80    -5800.00
00759              -5.20    -5800.00
00760              -4.60    -5800.00
00761              -5.80    -5800.00
00762              -6.20    -6000.00
00763              -5.20    -6000.00
00764              -5.40    -5800.00
00765              -6.00    -5800.00
00766              -6.00    -6000.00
00767              -5.80    -6000.00
00768              -6.20    -6000.00
00769              -6.80    -6000.00
00770              -6.20    -6000.00
00771              -5.80    -6000.00
00772              -7.00    -6000.00
00773              -7.00    -6200.00
00774              -5.80    -6200.00
00775              -6.80    -6000.00
00776              -7.40    -6000.00
00777              -6.20    -6200.00
00778              -6.60    -6000.00
00779              -8.20    -6400.00
00780              -7.00    -6200.00
00781              -6.80    -6000.00
00782              -8.00    -6200.00
00783              -8.60    -6400.00
00784              -7.60    -6400.00
00785              -7.40    -6400.00
00786              -8.60    -6400.00
00787              -8.20    -6200.00
00788              -7.00    -6400.00
00789              -9.40    -6400.00
00790              -9.00    -6400.00
00791              -7.80    -6400.00
00792              -9.00    -6400.00
00793              -9.60    -6400.00
00794              -8.60    -6400.00
00795              -9.20    -6400.00
00796              -9.60    -6400.00
00797              -9.80    -6400.00
00798             -10.00    -6600.00
00799              -9.80    -6400.00
00800             -10.40    -6400.00
00801             -10.20    -6400.00
00802              -9.80    -6400.00
00803             -10.80    -6400.00
00804             -10.80    -6600.00
00805             -10.20    -6400.00
00806             -10.80    -6600.00
00807             -11.40    -6400.00
00808             -11.40    -6600.00
00809             -10.60    -6400.00
00810             -11.80    -6600.00
00811             -12.40    -6600.00
00812             -10.80    -6400.00
00813             -11.80    -6600.00
00814             -12.40    -6400.00
00815             -11.40    -6600.00
00816             -11.60    -6400.00
00817             -13.00    -6400.00
00818             -11.80    -6400.00
00819             -11.60    -6400.00
00820             -12.20    -6600.00
00821             -12.20    -6600.00
00822             -11.20    -6600.00
00823             -11.80    -6400.00
00824             -11.80    -6400.00
00825             -11.20    -6600.00
00826             -10.80    -6400.00
00827             -11.20    -6600.00
00828             -11.00    -6400.00
00829             -10.20    -6400.00
00830             -10.60    -6400.00
00831             -10.20    -6400.00
00832              -9.80    -6400.00
00833              -9.80    -6400.00
00834              -9.80    -6400.00
00835              -9.40    -6400.00
00836              -9.00    -6400.00
00837              -9.00    -6400.00
00838              -9.20    -6400.00
00839              -8.60    -6400.00
00840              -8.60    -6600.00
00841              -8.40    -6400.00
00842              -8.60    -6400.00
00843              -8.40    -6400.00
00844              -7.80    -6400.00
00845              -7.80    -6400.00
00846              -7.60    -6400.00
00847              -7.60    -6200.00
00848              -7.60    -6200.00
00849              -7.40    -6200.00
00850              -7.20    -6400.00
00851              -7.40    -6200.00
00852              -7.00    -6200.00
00853              -6.80    -6000.00
00854              -6.80    -6000.00
00855              -6.60    -6200.00
00856              -6.80    -6000.00
00857              -6.40    -6000.00
00858              -6.80    -6200.00
00859              -6.60    -6000.00
00860              -6.20    -6000.00
00861              -6.20    -6000.00
00862              -6.20    -6000.00
00863              -6.00    -6000.00
00864              -6.00    -6000.00
00865              -6.00    -6000.00
00866              -6.00    -5800.00
00867              -6.00    -5800.00
00868              -5.40    -5800.00
00869              -5.40    -5800.00
00870              -5.40    -6000.00
00871              -5.40    -5800.00
00872              -5.20    -5800.00
00873              -5.40    -6000.00
00874              -5.40    -5800.00
00875              -5.20    -5800.00
00876              -5.20    -5800.00
00877              -5.20    -5600.00
00878              -5.00    -5600.00
00879              -5.00    -5600.00
00880              -4.60    -5600.00
00881              -4.60    -5600.00
00882              -4.60    -5600.00
00883              -4.40    -5600.00
00884              -4.60    -5400.00
00885              -4.40    -5600.00
00886              -4.40    -5600.00
00887              -4.40    -5600.00
00888              -4.40    -5400.00
00889              -4.20    -5200.00
00890              -4.20    -5400.00
00891              -4.20    -5200.00
00892              -4.20    -5200.00
00893              -4.00    -5000.00
00894              -4.00    -5200.00
00895              -3.80    -5200.00
00896              -3.60    -5000.00
00897              -3.40    -5000.00
00898              -3.60    -5000.00
00899              -3.40    -5000.00
00900              -3.40    -5000.00
00901              -3.40    -4600.00
00902              -3.40    -4800.00
00903              -3.40    -4800.00
00904              -3.60    -4600.00
00905              -3.40    -4800.00
00906              -3.20    -4600.00
00907              -3.20    -4600.00
00908              -3.00    -4600.00
00909              -3.00    -4600.00
00910              -3.00    -4600.00
00911              -2.80    -4400.00
00912              -2.80    -4400.00
00913              -2.80    -4400.00
00914              -2.60    -4400.00
00915              -2.80    -4400.00
00916              -2.80    -4400.00
00917              -2.80    -4200.00
00918              -2.40    -4200.00
00919              -3.00    -4200.00
00920              -2.80    -4000.00
00921              -2.20    -4200.00
00922              -3.00    -4200.00
00923              -2.80    -4000.00
00924              -1.80    -4000.00
00925              -2.80    -4000.00
00926              -2.80    -3800.00
00927              -2.00    -4000.00
00928              -2.80    -3600.00
00929              -2.80    -3800.00
00930              -2.00    -3600.00
00931              -2.60    -3600.00
00932              -2.20    -3600.00
00933              -2.20    -3600.00
00934              -2.20    -3600.00
00935              -2.00    -3400.00
00936              -2.20    -3600.00
00937              -2.80    -3400.00
00938              -1.20    -3400.00
00939              -2.20    -3400.00
00940              -2.80    -3200.00
00941              -1.20    -3400.00
00942              -1.80    -3200.00
00943              -2.80    -3000.00
00944              -1.40    -3200.00
00945              -1.60    -3200.00
00946              -2.80    -3200.00
00947              -1.80    -3000.00
00948              -1.40    -3000.00
00949              -2.20    -2800.00
00950              -1.80    -2800.00
00951              -1.20    -2800.00
00952              -2.20    -2800.00
00953              -1.60    -2600.00
00954              -1.40    -2600.00
00955              -2.00    -2400.00
00956              -1.20    -2400.00
00957              -1.20    -2600.00
00958              -1.80    -2400.00
00959              -1.20    -2200.00
00960              -1.20    -2400.00
00961              -1.60    -2400.00
00962              -1.40    -2000.00
00963              -1.00    -2000.00
00964              -1.20    -2000.00
00965              -1.20    -2000.00
00966              -1.00    -2000.00
00967              -1.20    -2000.00
00968              -1.20    -1800.00
00969              -1.00    -1800.00
00970              -1.00    -1800.00
00971              -0.80    -1600.00
00972              -1.20    -1600.00
00973              -1.00    -1600.00
00974              -1.00    -1600.00
00975              -0.80    -1600.00
00976              -1.20    -1400.00
00977              -0.60    -1200.00
00978              -0.60    -1200.00
00979              -1.20    -1200.00
00980              -0.60    -1200.00
00981              -0.60    -1200.00
00982              -0.60    -1000.00
00983              -1.00    -1200.00
00984              -0.60    -1000.00
00985              -0.60    -1000.00
00986              -1.00    -1000.00
00987              -0.80     -800.00
00988              -0.60     -800.00
00989              -0.80     -800.00
00990              -0.60     -800.00
00991              -0.80     -400.00
00992              -0.40     -600.00
00993              -0.40     -400.00
00994              -1.00     -400.00
00995              -0.60     -600.00
00996              -0.20     -400.00
00997              -0.60     -400.00
00998              -0.60     -400.00
00999              -0.60     -200.00
01000              -0.40     -200.00
01001              -0.60        0.00
01002              -0.60        0.00
01003               0.20        0.00
01004               0.20        0.00
01005              -0.40        0.00
01006               0.20      200.00
01007               0.60      200.00
01008              -0.60      200.00
01009              -0.60      400.00
01010               0.40      400.00
01011               0.20      400.00
01012               2.60      400.00
01013              13.00      800.00
01014              -0.60      800.00
01015             -25.00      600.00
01016             -18.00      600.00
01017              25.00      800.00
01018              25.00      800.00
01019             -25.00      800.00
01020             -14.60      600.00
01021              25.00     1600.00
01022               0.20      400.00
01023             -25.00     1400.00
01024              25.00      600.00
01025              25.00     1800.00
01026             -25.00      600.00
01027             -25.00     1600.00
01028              25.00     1200.00
01029               2.20     1600.00
01030             -25.00     1400.00
01031              25.00     1800.00
01032              25.00     1400.00
01033             -25.00     1800.00
01034               2.60     1600.00
01035              25.00     1800.00
01036             -25.00     1800.00
01037             -25.00     2000.00
01038              25.00     1800.00
01039              25.00     2000.00
01040             -25.00     2200.00
01041              17.40     2000.00
01042              25.00     2000.00
01043             -25.00     2200.00
01044             -25.00     2200.00
01045              25.00     2000.00
01046              18.60     2400.00
01047             -25.00     2200.00
01048              25.00     2400.00
01049              25.00     2400.00
01050             -25.00     2800.00
01051             -18.80     2400.00
01052              25.00     2800.00
01053             -24.40     2800.00
01054             -25.00     2800.00
01055              25.00     2600.00
01056              18.80     2800.00
01057             -25.00     2800.00
01058              18.00     3000.00
01059              25.00     3000.00
01060             -25.00     3200.00
01061             -10.80     3000.00
01062              25.00     3000.00
01063              -4.80     3000.00
01064             -25.00     3200.00
01065              22.80     3200.00
01066              15.00     3200.00
01067             -23.80     3400.00
01068               1.40     3400.00
01069              25.00     3400.00
01070             -12.20     3400.00
01071             -11.00     3600.00
01072              19.60     3600.00
01073               4.20     3600.00
01074             -16.60     3600.00
01075              10.00     3600.00
01076              11.60     3600.00
01077             -10.80     3800.00
01078              -1.00     3800.00
01079              14.80     4000.00
01080              -2.80     3800.00
01081              -6.60     4000.00
01082              10.20     4000.00
01083               5.00     4000.00
01084              -7.00     4000.00
01085               3.60     4000.00
01086               9.20     4200.00
01087              -2.80     4400.00
01088              -0.60     4200.00
01089               7.80     4200.00
01090               2.60     4400.00
01091              -3.40     4200.00
01092               5.20     4400.00
01093               5.20     4400.00
01094              -0.80     4600.00
01095               1.20     4600.00
01096               7.00     4800.00
01097               1.20     4600.00
01098               0.40     4800.00
01099               4.60     4800.00
01100               4.20     4800.00
01101              -0.20     4800.00
01102               3.60     4800.00
01103               5.00     4800.00
01104               2.00     4800.00
01105               2.20     4800.00
01106               4.60     4800.00
01107               3.00     5200.00
01108               2.00     5000.00
01109               3.80     5000.00
01110               3.80     5200.00
01111               2.80     5200.00
01112               3.60     5200.00
01113               4.40     5200.00
01114               3.00     5200.00
01115               3.60     5400.00
01116               4.00     5200.00
01117               4.20     5400.00
01118               3.20     5400.00
01119               4.20     5400.00
01120               3.60     5400.00
01121               3.80     5600.00
01122               4.20     5600.00
01123               4.40     5400.00
01124               3.80     5600.00
01125               4.20     5400.00
01126               4.60     5600.00
01127               4.60     5600.00
01128               3.80     5600.00
01129               5.20     5600.00
01130               5.00     5600.00
01131               3.80     5600.00
01132               5.20     5600.00
01133               5.80     5800.00
01134               4.20     5600.00
01135               5.00     5800.00
01136               6.20     5800.00
01137               4.80     6000.00
01138               4.60     6000.00
01139               6.20     6000.00
01140               5.80     6000.00
01141               4.40     6000.00
01142               6.00     6000.00
01143               6.80     6000.00
01144               5.20     6000.00
01145               5.40     6000.00
01146               7.60     6000.00
01147               6.20     6000.00
01148               5.80     6200.00
01149               7.00     6200.00
01150               7.00     6200.00
01151               5.80     6200.00
01152               6.80     6200.00
01153               7.40     6200.00
01154               6.80     6200.00
01155               7.00     6200.00
01156               7.60     6200.00
01157               7.80     6200.00
01158               7.00     6400.00
01159               8.20     6200.00
01160               8.60     6400.00
01161               8.20     6400.00
01162               8.00     6400.00
01163               9.00     6200.00
01164               8.40     6400.00
01165               8.40     6200.00
01166               9.00     6400.00
01167               9.00     6200.00
01168               8.60     6400.00
01169               9.20     6400.00
01170               9.80     6400.00
01171               9.60     6200.00
01172               9.80     6400.00
01173              10.00     6400.00
01174              10.00     6400.00
01175              10.00     6400.00
01176              10.00     6400.00
01177              10.20     6400.00
01178              10.40     6400.00
01179              10.60     6400.00
01180              10.80     6400.00
01181              11.00     6400.00
01182              10.80     6400.00
01183              10.80     6400.00
01184              11.40     6400.00
01185              11.00     6400.00
01186              11.40     6400.00
01187              11.40     6400.00
01188              11.60     6400.00
01189              11.40     6400.00
01190              11.40     6400.00
01191              11.40     6400.00
01192              11.60     6400.00
01193              11.40     6400.00
01194              10.80     6400.00
01195              11.00     6400.00
01196              10.80     6400.00
01197              10.20     6400.00
01198              10.60     6400.00
01199              10.60     6400.00
01200               9.80     6400.00
01201               9.40     6400.00
01202              10.00     6400.00
01203               9.40     6400.00
01204               8.60     6400.00
01205               9.20     6400.00
01206               9.40     6400.00
01207               8.40     6200.00
01208               8.20     6400.00
01209               8.60     6200.00
01210               8.20     6400.00
01211               7.60     6200.00
01212               8.20     6200.00
01213               8.20     6200.00
01214               7.40     6400.00
01215               7.60     6400.00
01216               8.20     6400.00
01217               7.20     6400.00
01218               7.00     6200.00
01219               7.60     6200.00
01220               6.80     6200.00
01221               6.60     6200.00
01222               6.80     6000.00
01223               6.80     6400.00
01224               6.40     6200.00
01225               6.60     6000.00
01226               6.60     6200.00
01227               6.60     6000.00
01228               6.20     6200.00
01229               6.20     6000.00
01230               6.00     6000.00
01231               5.80     6000.00
01232               5.80     6000.00
01233               5.80     6000.00
01234               5.40     6000.00
01235               5.60     6000.00
01236               5.40     6000.00
01237               5.40     6000.00
01238               5.40     6000.00
01239               5.20     5800.00
01240               5.20     6000.00
01241               4.80     5800.00
01242               4.80     6000.00
01243               4.60     5600.00
01244               4.60     5800.00
01245               4.60     5600.00
01246               5.00     5600.00
01247               4.20     5600.00
01248               4.20     5600.00
01249               4.20     5600.00
01250               4.20     5600.00
01251               4.20     5400.00
01252               4.20     5400.00
01253               4.00     5400.00
01254               3.80     5400.00
01255               3.80     5400.00
01256               3.60     5400.00
01257               3.60     5400.00
01258               3.60     5200.00
01259               3.60     5200.00
01260               3.60     5200.00
01261               3.40     5400.00
01262               3.40     5200.00
01263               3.40     5200.00
01264               3.40     5200.00
01265               3.40     5000.00
01266               3.00     5000.00
01267               3.40     5200.00
01268               3.00     4800.00
01269               3.00     4800.00
01270               2.80     4800.00
01271               3.00     4800.00
01272               2.80     4800.00
01273               2.60     4800.00
01274               3.00     4600.00
01275               2.80     4600.00
01276               2.60     4600.00
01277               2.60     4600.00
01278               2.80     4600.00
01279               2.60     4600.00
01280               2.60     4600.00
01281               2.80     4400.00
01282               2.40     4400.00
01283               2.20     4400.00
01284               2.60     4400.00
01285               2.20     4400.00
01286               2.00     4400.00
01287               2.40     4400.00
01288               2.60     4400.00
01289               2.00     4000.00
01290               2.00     4000.00
01291               2.40     4000.00
01292               2.00     4000.00
01293               2.00     4000.00
01294               2.00     4000.00
01295               2.20     4000.00
01296               2.00     3800.00
01297               2.00     4000.00
01298               2.20     3800.00
01299               2.00     4000.00
01300               1.80     3800.00
01301               2.00     3800.00
01302               1.80     3600.00
01303               1.40     3600.00
01304               1.80     3600.00
01305               1.80     3600.00
01306               1.40     3600.00
01307               1.40     3600.00
01308               1.80     3400.00
01309               1.40     3200.00
01310               1.20     3400.00
01311               1.40     3200.00
01312               1.40     3200.00
01313               1.00     3200.00
01314               1.40     3000.00
01315               1.80     3000.00
01316               1.00     3000.00
01317               1.20     3000.00
01318               0.80     2800.00
01319               0.60     2800.00
01320               1.20     2800.00
01321               0.40     2800.00
01322               0.60     2800.00
01323               1.80     2800.00
01324               0.40     2600.00
01325               0.40     2400.00
01326               1.80     2400.00
01327               0.40     2400.00
01328               0.00     2400.00
01329               1.40     2400.00
01330               1.00     2400.00
01331              -0.20     2200.00
01332               1.00     2200.00
01333               1.20     2200.00
01334              -0.20     2000.00
01335               0.40     2000.00
01336               1.00     2000.00
01337              -0.20     2000.00
01338               0.20     2000.00
01339               1.00     2000.00
01340               0.40     1800.00
01341               0.20     1600.00
01342               0.60     1600.00
01343               0.40     1800.00
01344               0.20     1600.00
01345               0.40     1400.00
01346               0.80     1400.00
01347               0.40     1400.00
01348               0.20     1400.00
01349               0.40     1400.00
01350               0.40     1400.00
01351              -0.20     1400.00
01352               0.20     1200.00
01353               0.20     1200.00
01354               0.20     1000.00
01355               0.20     1000.00
01356               0.40      800.00
01357               0.20      800.00
01358               0.20      800.00
01359               0.20      800.00
01360               0.20      800.00
01361               0.20      600.00
01362               0.20      600.00
01363               0.00      400.00
01364              -0.20      400.00
01365               0.00      400.00
01366              -0.20      400.00
01367              -0.20      400.00
01368              -0.40      400.00
01369               0.00      200.00
01370              -0.20      200.00
01371               0.20      200.00
01372              -0.20        0.00
01373              -0.60        0.00
01374               0.00        0.00
01375               0.20        0.00
01376               0.20     -200.00
01377               0.20     -200.00
01378              -0.20     -200.00
01379              -0.20     -400.00
01380              -0.60     -200.00
01381              -1.00     -200.00
01382               0.20     -400.00
01383               7.00     -400.00
01384              20.20     -800.00
01385             -20.80     -800.00
01386             -25.00     -800.00
01387              25.00     -400.00
01388              25.00     -800.00
01389             -24.20    -1000.00
01390             -25.00     -600.00
01391              25.00    -1000.00
01392              25.00    -1000.00
01393             -25.00    -1400.00
01394             -25.00     -800.00
01395              25.00    -1200.00
01396              25.00    -1400.00
01397             -25.00    -1000.00
01398             -23.00    -1400.00
01399              25.00    -1600.00
01400              12.60    -1600.00
01401             -25.00    -1200.00
01402              25.00    -2000.00
01403              25.00    -1600.00
01404             -25.00    -1400.00
01405              -6.20    -1800.00
01406              25.00    -2000.00
01407             -25.00    -1600.00
01408             -25.00    -1800.00
01409              25.00    -2000.00
01410              25.00    -2000.00
01411             -25.00    -1800.00
01412              25.00    -2200.00
01413              25.00    -2200.00
01414             -25.00    -2000.00
01415             -25.00    -2400.00
01416              25.00    -2400.00
01417               2.20    -2200.00
01418             -25.00    -2400.00
01419              25.00    -2600.00
01420              25.00    -2600.00
01421             -25.00    -2600.00
01422               1.00    -2400.00
01423              25.00    -2600.00
01424             -25.00    -2600.00
01425             -25.00    -2800.00
01426              25.00    -2800.00
01427               0.40    -2800.00
01428             -25.00    -2800.00
01429              25.00    -3200.00
01430              25.00    -3000.00
01431             -25.00    -3000.00
01432              -6.80    -3200.00
01433              25.00    -3200.00
01434             -18.80    -3200.00
01435             -25.00    -3200.00
01436              25.00    -3400.00
01437              12.40    -3400.00
01438             -25.00    -3200.00
01439               5.80    -3400.00
01440              25.00    -3600.00
01441             -25.00    -3400.00
01442             -15.00    -3600.00
01443              25.00    -3600.00
01444              -5.20    -3600.00
01445             -24.60    -3600.00
01446              12.20    -3800.00
01447               9.80    -3800.00
01448             -22.60    -4000.00
01449              -1.20    -3800.00
01450              14.60    -4000.00
01451             -12.60    -4000.00
01452             -12.00    -4000.00
01453              11.60    -4200.00
01454              -2.00    -4200.00
01455             -15.60    -4000.00
01456               3.00    -4200.00
01457               6.20    -4200.00
01458             -12.60    -4400.00
01459              -5.40    -4200.00
01460               6.80    -4400.00
01461              -6.20    -4400.00
01462             -10.20    -4600.00
01463               3.60    -4400.00
01464               0.40    -4400.00
01465             -10.00    -4600.00
01466              -2.20    -4400.00
01467               2.20    -4600.00
01468              -6.00    -4600.00
01469              -6.80    -4800.00
01470               0.20    -4600.00
01471              -2.20    -4600.00
01472              -6.80    -4800.00
01473              -3.80    -4800.00
01474               0.20    -4800.00
01475              -5.80    -4800.00
01476              -5.80    -5000.00
01477              -1.20    -5000.00
01478              -3.00    -5000.00
01479              -6.00    -5200.00
01480              -3.00    -5200.00
01481              -3.00    -5200.00
01482              -4.60    -5000.00
01483              -4.40    -5400.00
01484              -3.00    -5200.00
01485              -4.40    -5200.00
01486              -4.60    -5200.00
01487              -3.60    -5200.00
01488              -4.40    -5400.00
01489              -4.40    -5600.00
01490              -4.40    -5600.00
01491              -4.40    -5400.00
01492              -5.00    -5600.00
01493              -4.20    -5600.00
01494              -4.40    -5600.00
01495              -5.40    -5600.00
01496              -4.60    -5600.00
01497              -4.20    -5800.00
01498              -6.00    -5600.00
01499              -4.60    -5800.00
01500              -4.40    -5600.00
01501              -6.00    -5800.00
01502              -5.40    -5800.00
01503              -5.00    -5800.00
01504              -5.40    -5800.00
01505              -6.20    -5800.00
01506              -5.60    -5800.00
01507              -4.40    -5800.00
01508              -7.00    -6000.00
01509              -6.00    -6000.00
01510              -5.60    -6000.00
01511              -6.60    -6000.00
01512              -7.00    -6000.00
01513              -6.20    -6000.00
01514              -5.80    -6000.00
01515              -8.20    -6000.00
01516              -6.20    -6000.00
01517              -5.40    -6200.00
01518              -8.40    -6000.00
01519              -7.00    -6000.00
01520              -6.40    -6200.00
01521              -7.20    -6200.00
01522              -8.20    -6000.00
01523              -7.00    -6200.00
01524              -6.80    -6200.00
01525              -8.40    -6200.00
01526              -8.40    -6200.00
01527              -7.40    -6200.00
01528              -7.80    -6400.00
01529              -9.20    -6400.00
01530              -7.60    -6400.00
01531              -6.80    -6400.00
01532             -10.00    -6400.00
01533              -9.20    -6400.00
01534              -7.80    -6400.00
01535              -9.60    -6200.00
01536              -9.80    -6400.00
01537              -8.40    -6400.00
01538              -9.20    -6400.00
01539              -9.40    -6400.00
01540              -9.80    -6400.00
01541              -9.40    -6400.00
01542              -9.80    -6400.00
01543             -10.60    -6400.00
01544              -9.60    -6600.00
01545              -9.80    -6600.00
01546             -10.60    -6400.00
01547             -10.60    -6600.00
01548             -10.40    -6600.00
01549             -11.00    -6400.00
01550             -11.00    -6600.00
01551             -10.80    -6600.00
01552             -11.00    -6400.00
01553             -11.80    -6400.00
01554             -11.40    -6600.00
01555             -11.40    -6400.00
01556             -11.80    -6600.00
01557             -11.60    -6600.00
01558             -11.60    -6400.00
01559             -11.60    -6600.00
01560             -11.80    -6600.00
01561             -12.20    -6600.00
01562             -12.20    -6600.00
01563             -11.60    -6600.00
01564             -11.80    -6400.00
01565             -11.60    -6400.00
01566             -11.40    -6400.00
01567             -11.60    -6400.00
01568             -11.40    -6600.00
01569             -11.20    -6600.00
01570             -11.00    -6400.00
01571             -10.60    -6400.00
01572             -10.60    -6400.00
01573             -10.20    -6400.00
01574              -9.80    -6400.00
01575             -10.00    -6600.00
01576             -10.20    -6400.00
01577              -9.40    -6400.00
01578              -9.40    -6400.00
01579              -9.60    -6400.00
01580              -9.20    -6400.00
01581              -9.00    -6400.00
01582              -9.00    -6400.00
01583              -8.60    -6400.00
01584              -8.60    -6400.00
01585              -8.40    -6400.00
01586              -8.40    -6400.00
01587              -8.00    -6400.00
01588              -7.80    -6400.00
01589              -7.80    -6400.00
01590              -7.80    -6400.00
01591              -7.60    -6200.00
01592              -7.60    -6400.00
01593              -7.40    -6200.00
01594              -7.40    -6400.00
01595              -7.40    -6200.00
01596              -7.00    -6200.00
01597              -7.00    -6200.00
01598              -7.00    -6000.00
01599              -6.80    -6200.00
01600              -6.60    -6200.00
01601              -7.00    -6000.00
01602              -6.20    -6000.00
01603              -6.20    -6000.00
01604              -6.60    -6000.00
01605              -6.20    -6000.00
01606              -6.00    -6000.00
01607              -6.00    -5800.00
01608              -6.00    -6000.00
01609              -5.80    -6000.00
01610              -5.40    -6000.00
01611              -5.80    -5800.00
01612              -5.80    -6000.00
01613              -5.40    -5800.00
01614              -5.20    -5800.00
01615              -5.40    -5800.00
01616              -5.20    -5800.00
01617              -5.00    -5800.00
01618              -5.20    -5800.00
01619              -5.00    -5800.00
01620              -4.60    -5600.00
01621              -5.00    -5600.00
01622              -5.00    -5600.00
01623              -4.60    -5600.00
01624              -4.60    -5600.00
01625              -4.60    -5600.00
01626              -4.40    -5600.00
01627              -4.40    -5400.00
01628              -4.40    -5600.00
01629              -4.40    -5200.00
01630              -4.20    -5600.00
01631              -4.20    -5200.00
01632              -3.80    -5200.00
01633              -3.80    -5400.00
01634              -4.20    -5200.00
01635              -4.00    -5200.00
01636              -3.80    -5200.00
01637              -3.80    -5000.00
01638              -4.20    -5200.00
01639              -3.80    -5200.00
01640              -3.60    -5000.00
01641              -3.80    -5000.00
01642              -3.80    -5000.00
01643              -3.40    -5000.00
01644              -3.60    -4800.00
01645              -3.80    -4600.00
01646              -3.40    -4800.00
01647              -3.40    -4600.00
01648              -3.80    -4600.00
01649              -3.40    -4600.00
01650              -3.00    -4600.00
01651              -3.60    -4600.00
01652              -3.40    -4600.00
01653              -3.00    -4600.00
01654              -3.00    -4400.00
01655              -3.20    -4600.00
01656              -2.80    -4400.00
01657              -3.00    -4400.00
01658              -3.00    -4400.00
01659              -3.20    -4200.00
01660              -2.80    -4400.00
01661              -3.00    -4200.00
01662              -2.80    -4200.00
01663              -2.80    -4200.00
01664              -2.80    -4000.00
01665              -2.80    -4000.00
01666              -2.80    -4000.00
01667              -2.60    -3800.00
01668              -2.20    -4000.00
01669              -2.60    -3800.00
01670              -2.20    -4000.00
01671              -2.20    -3800.00
01672              -2.60    -3600.00
01673              -2.60    -3800.00
01674              -2.20    -3600.00
01675              -2.20    -3600.00
01676              -2.60    -3600.00
01677              -2.00    -3400.00
01678              -2.00    -3600.00
01679              -2.20    -3400.00
01680              -2.00    -3400.00
01681              -1.80    -3400.00
01682              -2.00    -3200.00
01683              -2.00    -3200.00
01684              -1.80    -3200.00
01685              -2.00    -3200.00
01686              -2.00    -3000.00
01687              -1.80    -3200.00
01688              -1.60    -3000.00
01689              -2.00    -2800.00
01690              -1.40    -3000.00
01691              -1.40    -2800.00
01692              -2.00    -2800.00
01693              -1.60    -2800.00
01694              -1.40    -2800.00
01695              -1.40    -2600.00
01696              -1.40    -2600.00
01697              -1.40    -2600.00
01698              -1.40    -2400.00
01699              -1.20    -2600.00
01700              -1.00    -2400.00
01701              -2.00    -2400.00
01702              -1.00    -2400.00
01703              -1.20    -2200.00
01704              -2.00    -2200.00
01705              -1.20    -2200.00
01706              -1.20    -2000.00
01707              -1.80    -2000.00
01708              -1.00    -2000.00
01709              -0.60    -2000.00
01710              -1.80    -2000.00
01711              -1.20    -1800.00
01712              -0.60    -1800.00
01713              -1.60    -1600.00
01714              -1.20    -1800.00
01715              -0.60    -1800.00
01716              -1.20    -1600.00
01717              -1.40    -1600.00
01718              -0.60    -1600.00
01719              -1.20    -1600.00
01720              -1.40    -1200.00
01721              -0.80    -1400.00
01722              -0.60    -1200.00
01723              -1.20    -1200.00
01724              -1.00    -1000.00
01725              -1.00    -1200.00
01726              -1.00    -1000.00
01727              -1.00    -1000.00
01728              -0.80    -1000.00
01729              -1.00     -800.00
01730              -0.60     -800.00
01731              -0.60     -800.00
01732              -1.00     -800.00
01733              -0.60     -600.00
01734              -0.40     -800.00
01735              -1.20     -600.00
01736              -0.20     -400.00
01737              -0.40     -400.00
01738              -0.60     -400.00
01739              -0.20     -400.00
01740              -0.60     -200.00
01741              -0.60     -200.00
01742              -0.20     -200.00
01743              -0.60     -200.00
01744              -0.20        0.00
01745              -0.20        0.00
01746              -0.40        0.00
01747               0.40        0.00
01748               0.20      200.00
01749               0.20        0.00
01750               0.40      400.00
01751              -0.60      200.00
01752              -0.20      200.00
01753               0.40      400.00
01754               0.40      400.00
01755               4.40      600.00
01756              12.60      600.00
01757              -9.20      800.00
01758             -25.00      600.00
01759               0.00      600.00
01760              25.00     1000.00
01761               2.60      800.00
01762             -25.00      800.00
01763              25.00      600.00
01764              25.00     1600.00
01765             -25.00      600.00
01766             -25.00     1400.00
01767              25.00      800.00
01768              25.00     1600.00
01769             -25.00     1000.00
01770              16.60     1400.00
01771              25.00     1400.00
01772             -25.00     1400.00
01773             -25.00     1400.00
01774              25.00     1800.00
01775              25.00     1400.00
01776             -25.00     2000.00
01777              25.00     1600.00
01778              25.00     1800.00
01779             -25.00     1600.00
01780             -25.00     2200.00
01781              25.00     1600.00
01782              -6.60     2000.00
01783             -25.00     2000.00
01784              25.00     2000.00
01785              25.00     2200.00
01786             -25.00     2200.00
01787             -17.20     2200.00
01788              25.00     2200.00
01789             -17.40     2600.00
01790             -25.00     2400.00
01791              25.00     2400.00
01792              25.00     2400.00
01793             -25.00     2400.00
01794              15.00     2400.00
01795              25.00     2800.00
01796             -25.00     2800.00
01797             -23.80     2800.00
01798              25.00     2800.00
01799              -7.80     3000.00
01800             -25.00     2800.00
01801              25.00     3000.00
01802              20.60     3000.00
01803             -25.00     3200.00
01804               5.00     3000.00
01805              25.00     3200.00
01806             -18.80     3200.00
01807             -16.00     3200.00
01808              25.00     3200.00
01809               3.80     3400.00
01810             -24.40     3400.00
01811              12.60     3200.00
01812              19.60     3400.00
01813             -18.80     3400.00
01814              -2.80     3600.00
01815              21.00     3600.00
01816              -4.20     3600.00
01817             -12.60     3600.00
01818              15.80     3800.00
01819               6.20     3800.00
01820             -11.80     3800.00
01821               5.00     3800.00
01822              13.00     4000.00
01823              -7.60     4000.00
01824              -2.20     4000.00
01825              11.60     4000.00
01826               1.40     4000.00
01827              -5.60     4000.00
01828               8.40     4000.00
01829               7.20     4400.00
01830              -3.80     4000.00
01831               1.00     4200.00
01832               7.40     4400.00
01833              -0.80     4400.00
01834              -2.60     4400.00
01835               6.60     4400.00
01836               4.60     4400.00
01837              -0.60     4600.00
01838               4.40     4600.00
01839               6.80     4600.00
01840              -1.00     4800.00
01841               0.40     4600.00
01842               4.20     4600.00
01843               1.80     4800.00
01844               0.20     4800.00
01845               5.20     4800.00
01846               4.80     4800.00
01847               3.00     4800.00
01848               3.40     4800.00
01849               4.20     4800.00
01850               1.60     4800.00
01851               1.40     5000.00
01852               3.00     5200.00
01853               3.00     5200.00
01854               2.80     5200.00
01855               5.00     5200.00
01856               4.40     5200.00
01857               3.20     5400.00
01858               3.80     5400.00
01859               3.40     5400.00
01860               3.00     5400.00
01861               3.40     5400.00
01862               4.20     5400.00
01863               3.60     5400.00
01864               4.20     5600.00
01865               4.60     5400.00
01866               4.40     5600.00
01867               4.20     5600.00
01868               5.00     5600.00
01869               4.60     5600.00
01870               4.40     5600.00
01871               4.20     5600.00
01872               4.80     5600.00
01873               3.80     5800.00
01874               4.40     5600.00
01875               5.80     5800.00
01876               5.80     6000.00
01877               5.00     5800.00
01878               5.80     5800.00
01879               6.20     6000.00
01880               4.60     6000.00
01881               4.40     6000.00
01882               5.80     6000.00
01883               5.40     6000.00
01884               5.20     6000.00
01885               6.80     6000.00
01886               7.40     6000.00
01887               5.80     6000.00
01888               6.00     6000.00
01889               7.60     6000.00
01890               5.80     6000.00
01891               5.00     6200.00
01892               7.60     6200.00
01893               7.80     6200.00
01894               5.60     6200.00
01895               8.20     6200.00
01896               8.60     6200.00
01897               6.20     6200.00
01898               6.80     6200.00
01899               8.60     6200.00
01900               6.80     6200.00
01901               6.00     6200.00
01902               8.40     6400.00
01903               8.40     6400.00
01904               7.60     6200.00
01905               8.60     6400.00
01906               9.00     6400.00
01907               8.20     6200.00
01908               8.20     6400.00
01909               9.00     6400.00
01910               9.40     6400.00
01911               8.20     6400.00
01912               9.20     6400.00
01913               9.80     6400.00
01914               9.20     6400.00
01915               9.40     6400.00
01916              10.00     6400.00
01917               9.80     6400.00
01918              10.20     6400.00
01919               9.80     6400.00
01920              10.00     6400.00
01921              10.20     6400.00
01922              10.00     6400.00
01923              10.80     6600.00
01924              11.20     6400.00
01925              10.80     6400.00
01926              11.00     6400.00
01927              11.60     6400.00
01928              10.80     6400.00
01929              10.60     6400.00
01930              11.80     6400.00
01931              11.60     6400.00
01932              11.00     6400.00
01933              11.60     6400.00
01934              12.20     6400.00
01935              11.60     6400.00
01936              10.60     6400.00
01937              11.60     6400.00
01938              11.00     6400.00
01939              10.00     6400.00
01940              10.80     6400.00
01941              11.00     6400.00
01942              10.00     6400.00
01943              10.40     6400.00
01944              10.40     6400.00
01945               9.20     6200.00
01946               9.40     6400.00
01947               9.40     6400.00
01948               8.80     6400.00
01949               9.00     6400.00
01950               9.00     6400.00
01951               8.60     6200.00
01952               8.60     6400.00
01953               8.20     6200.00
01954               7.80     6400.00
01955               8.20     6400.00
01956               8.20     6400.00
01957               7.60     6200.00
01958               7.60     6200.00
01959               7.60     6200.00
01960               7.40     6200.00
01961               7.40     6200.00
01962               6.80     6200.00
01963               6.80     6200.00
01964               7.00     6200.00
01965               6.60     6200.00
01966               6.20     6200.00
01967               6.80     6000.00
01968               6.00     6200.00
01969               5.80     6000.00
01970               6.20     6000.00
01971               6.00     6000.00
01972               5.80     6000.00
01973               6.00     6000.00
01974               5.80     6000.00
01975               5.40     6000.00
01976               5.20     6000.00
01977               5.40     6000.00
01978               5.20     6000.00
01979               5.00     6000.00
01980               5.20     6000.00
01981               5.00     5800.00
01982               5.20     5800.00
01983               4.60     5800.00
01984               4.80     5800.00
01985               5.20     6000.00
01986               4.40     5800.00
01987               4.40     5800.00
01988               5.00     5800.00
01989               4.00     5600.00
01990               4.20     5600.00
01991               4.40     5600.00
01992               4.00     5600.00
01993               4.40     5400.00
01994               4.40     5600.00
01995               3.60     5600.00
01996               3.60     5400.00
01997               4.40     5400.00
01998               3.60     5400.00
01999               3.40     5400.00
02000               4.20     5400.00
02001               3.80     5400.00
02002               3.40     5400.00
02003               3.60     5400.00
02004               4.20     5400.00
02005               3.40     5200.00
02006               3.40     5200.00
02007               3.80     5000.00
02008               3.00     5200.00
02009               2.80     5200.00
02010               4.20     5200.00
02011               3.00     5200.00
02012               2.80     4800.00
02013               3.40     4800.00
02014               3.00     4800.00
02015               2.80     4800.00
02016               3.00     4800.00
02017               3.00     4800.00
02018               2.80     4800.00
02019               2.60     4600.00
02020               2.80     4600.00
02021               2.60     4600.00
02022               2.60     4600.00
02023               2.60     4600.00
02024               2.60     4600.00
02025               2.20     4400.00
02026               2.60     4400.00
02027               2.60     4400.00
02028               2.20     4400.00
02029               2.00     4400.00
02030               2.20     4200.00
02031               2.00     4400.00
02032               2.20     4200.00
02033               2.00     4000.00
02034               1.20     4200.00
02035               2.80     4000.00
02036               2.80     4000.00
02037               0.60     4000.00
02038               1.40     3800.00
02039               3.40     3800.00
02040               1.80     3800.00
02041               0.20     3800.00
02042               2.00     3800.00
02043               2.60     3800.00
02044               1.00     3600.00
02045               0.60     3600.00
02046               2.20     3600.00
02047               1.80     3600.00
02048               1.00     3600.00
02049               1.80     3600.00
02050               1.80     3400.00
02051               1.20     3200.00
02052               1.40     3200.00
02053               1.40     3200.00
02054               1.00     3000.00
02055               1.20     3200.00
02056               1.80     3000.00
02057               1.00     3000.00
02058               0.60     3000.00
02059               1.40     3000.00
02060               1.20     2800.00
02061               1.20     3000.00
02062               1.20     2800.00
02063               1.20     2800.00
02064               1.00     2800.00
02065               1.20     2600.00
02066               0.60     2800.00
02067               0.40     2800.00
02068               1.60     2400.00
02069               1.40     2400.00
02070              -0.20     2400.00
02071               2.00     2400.00
02072               1.00     2400.00
02073              -0.60     2200.00
02074               1.80     2200.00
02075               1.60     2200.00
02076              -0.40     2200.00
02077               0.80     2000.00
02078               2.00     2200.00
02079              -0.40     2000.00
02080               0.20     2000.00
02081               2.60     2000.00
02082               0.20     2000.00
02083              -1.00     1800.00
02084               2.00     1600.00
02085               1.40     1800.00
02086              -1.80     1600.00
02087               0.60     1600.00
02088               2.00     1600.00
02089              -0.60     1400.00
02090              -0.40     1400.00
02091               1.60     1400.00
02092               0.40     1200.00
02093              -0.60     1200.00
02094               1.00     1200.00
02095               0.60     1200.00
02096              -0.40     1200.00
02097               0.20     1000.00
02098               0.80     1000.00
02099              -0.20      800.00
02100              -0.40      800.00
02101               0.40      800.00
02102              -0.20      800.00
02103              -0.80      800.00
02104               0.40      600.00
02105               0.20      600.00
02106              -1.00      600.00
02107              -0.20      400.00
02108               0.20      400.00
02109              -0.40      400.00
02110              -0.20      400.00
02111               0.20      200.00
02112              -0.60      200.00
02113              -0.60      200.00
02114              -0.20        0.00
02115               0.40        0.00
02116              -1.20        0.00
02117              -0.60        0.00
02118               0.40        0.00
02119              -0.20     -200.00
02120              -0.60     -200.00
02121               0.20     -200.00
02122              -0.40     -400.00
02123              -1.20     -400.00
02124              -0.40     -400.00
02125               0.40     -400.00
02126              12.00     -400.00
02127              16.40     -800.00
02128             -25.00    -1000.00
02129             -25.00     -400.00
02130              25.00     -800.00
02131              25.00     -800.00
02132             -25.00    -1200.00
02133             -25.00     -400.00
02134              25.00    -1200.00
02135              25.00    -1000.00
02136             -25.00    -1200.00
02137             -25.00    -1000.00
02138              25.00    -1200.00
02139              25.00    -1600.00
02140             -25.00     -800.00
02141              25.00    -1600.00
02142              25.00    -1600.00
02143             -25.00    -1400.00
02144             -25.00    -1600.00
02145              25.00    -1600.00
02146              25.00    -1600.00
02147             -25.00    -1400.00
02148              25.00    -2000.00
02149              25.00    -1800.00
02150             -25.00    -1800.00
02151             -25.00    -2000.00
02152              25.00    -2000.00
02153             -16.60    -1800.00
02154             -25.00    -2000.00
02155              25.00    -2200.00
02156              25.00    -2000.00
02157             -25.00    -2400.00
02158               7.00    -2400.00
02159              25.00    -2400.00
02160             -25.00    -2200.00
02161             -25.00    -2600.00
02162              25.00    -2600.00
02163              25.00    -2600.00
02164             -25.00    -2600.00
02165              25.00    -2800.00
02166              25.00    -2600.00
02167             -25.00    -2600.00
02168             -12.20    -2800.00
02169              25.00    -2800.00
02170             -25.00    -2800.00
02171             -25.00    -2800.00
02172              25.00    -3200.00
02173              12.20    -3000.00
02174             -25.00    -3200.00
02175              14.20    -3000.00
02176              25.00    -3200.00
02177             -25.00    -3200.00
02178             -19.80    -3400.00
02179              25.00    -3400.00
02180              -5.40    -3400.00
02181             -25.00    -3400.00
02182              18.20    -3600.00
02183              17.80    -3600.00
02184             -25.00    -3600.00
02185              -2.20    -3600.00
02186              24.40    -3800.00
02187             -15.80    -3600.00
02188             -18.80    -3600.00
02189              18.20    -3800.00
02190               0.20    -3600.00
02191             -22.20    -4000.00
02192               8.60    -4000.00
02193              10.80    -3800.00
02194             -19.00    -4000.00
02195              -6.00    -4000.00
02196              13.00    -4000.00
02197              -8.60    -4000.00
02198             -12.80    -4200.00
02199               8.40    -4200.00
02200               1.40    -4200.00
02201             -14.60    -4200.00
02202              -0.20    -4400.00
02203               5.00    -4400.00
02204              -9.20    -4400.00
02205              -6.20    -4400.00
02206               4.60    -4400.00
02207              -2.80    -4400.00
02208              -9.40    -4600.00
02209              -0.80    -4400.00
02210               1.00    -4400.00
02211              -7.00    -4800.00
02212              -4.60    -4600.00
02213               1.00    -4800.00
02214              -3.60    -4600.00
02215              -6.40    -4800.00
02216              -1.80    -4800.00
02217              -2.00    -5000.00
02218              -5.80    -4800.00
02219              -3.80    -5000.00
02220              -1.80    -5000.00
02221              -3.80    -5000.00
02222              -4.60    -5000.00
02223              -3.20    -5000.00
02224              -3.80    -5000.00
02225              -4.40    -5000.00
02226              -4.20    -5000.00
02227              -3.80    -5200.00
02228              -4.40    -5400.00
02229              -4.40    -5200.00
02230              -3.80    -5400.00
02231              -4.20    -5200.00
02232              -5.20    -5600.00
02233              -4.40    -5400.00
02234              -4.40    -5600.00
02235              -4.40    -5600.00
02236              -4.40    -5600.00
02237              -5.20    -5600.00
02238              -5.00    -5800.00
02239              -4.40    -5600.00
02240              -5.40    -5600.00
02241              -5.80    -5600.00
02242              -4.60    -5800.00
02243              -5.00    -5800.00
02244              -5.80    -5800.00
02245              -5.20    -5600.00
02246              -5.00    -5800.00
02247              -6.00    -5800.00
02248              -6.00    -5800.00
02249              -5.40    -5800.00
02250              -5.40    -6000.00
02251              -6.20    -6000.00
02252              -5.80    -6000.00
02253              -6.00    -6000.00
02254              -6.80    -6000.00
02255              -6.60    -6000.00
02256              -5.80    -6000.00
02257              -6.60    -6000.00
02258              -7.00    -6200.00
02259              -6.20    -6000.00
02260              -6.00    -6000.00
02261              -7.60    -6000.00
02262              -7.00    -6000.00
02263              -6.00    -6200.00
02264              -7.60    -6200.00
02265              -7.80    -6200.00
02266              -6.60    -6200.00
02267              -7.00    -6200.00
02268              -8.20    -6400.00
02269              -7.60    -6400.00
02270              -7.00    -6400.00
02271              -8.40    -6200.00
02272              -8.60    -6400.00
02273              -7.00    -6200.00
02274              -8.00    -6400.00
02275              -9.80    -6400.00
02276              -8.40    -6400.00
02277              -8.20    -6400.00
02278              -9.80    -6400.00
02279              -9.00    -6400.00
02280              -8.20    -6400.00
02281              -9.20    -6400.00
02282             -10.00    -6400.00
02283              -9.20    -6400.00
02284              -9.40    -6400.00
02285             -10.20    -6400.00
02286             -10.20    -6600.00
02287              -9.40    -6600.00
02288             -10.60    -6400.00
02289             -10.60    -6400.00
02290             -10.00    -6400.00
02291             -10.60    -6400.00
02292             -11.40    -6600.00
02293             -11.00    -6600.00
02294             -10.80    -6600.00
02295             -11.80    -6600.00
02296             -11.40    -6400.00
02297             -11.20    -6600.00
02298             -11.60    -6400.00
02299             -11.80    -6600.00
02300             -11.80    -6600.00
02301             -11.80    -6600.00
02302             -12.20    -6400.00
02303             -12.40    -6600.00
02304             -12.00    -6400.00
02305             -11.80    -6600.00
02306             -12.40    -6600.00
02307             -12.20    -6400.00
02308             -11.60    -6400.00
02309             -11.80    -6600.00
02310             -11.40    -6400.00
02311             -11.40    -6600.00
02312             -11.40    -6400.00
02313             -10.80    -6400.00
02314             -10.60    -6400.00
02315             -10.80    -6600.00
02316             -10.20    -6400.00
02317             -10.00    -6600.00
02318              -9.80    -6400.00
02319              -9.80    -6400.00
02320              -9.80    -6400.00
02321              -9.80    -6400.00
02322              -9.20    -6400.00
02323              -9.40    -6600.00
02324              -9.00    -6400.00
02325              -8.80    -6400.00
02326              -8.60    -6400.00
02327              -8.60    -6400.00
02328              -8.40    -6400.00
02329              -7.80    -6400.00
02330              -8.00    -6400.00
02331              -8.20    -6200.00
02332              -7.40    -6200.00
02333              -7.60    -6400.00
02334              -7.80    -6400.00
02335              -7.00    -6200.00
02336              -7.40    -6200.00
02337              -7.60    -6200.00
02338              -6.80    -6200.00
02339              -6.60    -6200.00
02340              -7.00    -6000.00
02341              -6.60    -6200.00
02342              -6.20    -6200.00
02343              -6.60    -6200.00
02344              -6.40    -6000.00
02345              -6.00    -6200.00
02346              -6.20    -6000.00
02347              -6.40    -6000.00
02348              -6.00    -6000.00
02349              -6.00    -6000.00
02350              -6.20    -6000.00
02351              -5.80    -5800.00
02352              -5.40    -6000.00
02353              -5.60    -6000.00
02354              -5.40    -6000.00
02355              -5.00    -5800.00
02356              -5.60    -6000.00
02357              -5.40    -5800.00
02358              -5.20    -5800.00
02359              -5.40    -5600.00
02360              -5.20    -5800.00
02361              -5.00    -5600.00
02362              -5.20    -5800.00
02363              -5.20    -5600.00
02364              -5.00    -5800.00
02365              -4.60    -5400.00
02366              -5.00    -5600.00
02367              -4.60    -5400.00
02368              -4.60    -5600.00
02369              -4.60    -5200.00
02370              -4.40    -5400.00
02371              -4.40    -5400.00
02372              -4.60    -5600.00
02373              -4.40    -5200.00
02374              -4.20    -5400.00
02375              -4.40    -5200.00
02376              -4.20    -5400.00
02377              -4.40    -5200.00
02378              -4.20    -5200.00
02379              -4.20    -5000.00
02380              -4.00    -5000.00
02381              -3.80    -5200.00
02382              -3.80    -5000.00
02383              -3.80    -5000.00
02384              -3.80    -5000.00
02385              -3.60    -4800.00
02386              -3.60    -4800.00
02387              -2.80    -4600.00
02388              -3.40    -4800.00
02389              -3.60    -4600.00
02390              -3.00    -4600.00
02391              -3.00    -4800.00
02392              -3.80    -4800.00
02393              -3.40    -4600.00
02394              -2.60    -4400.00
02395              -3.40    -4600.00
02396              -3.00    -4400.00
02397              -2.60    -4400.00
02398              -2.80    -4400.00
02399              -3.00    -4200.00
02400              -2.80    -4400.00
02401              -2.60    -4400.00
02402              -2.80    -4200.00
02403              -2.80    -4400.00
02404              -2.20    -4200.00
02405              -2.60    -4200.00
02406              -2.80    -4200.00
02407              -2.20    -4000.00
02408              -2.20    -4000.00
02409              -2.60    -4000.00
02410              -2.20    -4000.00
02411              -2.60    -4000.00
02412              -2.20    -3800.00
02413              -2.20    -3800.00
02414              -2.00    -4000.00
02415              -2.20    -3800.00
02416              -2.20    -3800.00
02417              -2.20    -3600.00
02418              -2.20    -3600.00
02419              -2.00    -3600.00
02420              -2.00    -3600.00
02421              -2.00    -3600.00
02422              -2.20    -3400.00
02423              -2.20    -3400.00
02424              -2.00    -3400.00
02425              -2.00    -3200.00
02426              -2.20    -3200.00
02427              -2.00    -3200.00
02428              -2.00    -3200.00
02429              -2.00    -3200.00
02430              -1.40    -3200.00
02431              -2.00    -3000.00
02432              -2.20    -2800.00
02433              -1.40    -2800.00
02434              -1.80    -2800.00
02435              -1.40    -2800.00
02436              -1.80    -2800.00
02437              -1.80    -2800.00
02438              -1.20    -2600.00
02439              -1.40    -2600.00
02440              -1.80    -2600.00
02441              -1.80    -2600.00
02442              -1.40    -2600.00
02443              -1.40    -2400.00
02444              -1.40    -2400.00
02445              -1.80    -2200.00
02446              -1.40    -2400.00
02447              -1.20    -2200.00
02448              -1.40    -2200.00
02449              -1.20    -2000.00
02450              -1.20    -2000.00
02451              -1.20    -2000.00
02452              -1.20    -1800.00
02453              -1.20    -2000.00
02454              -1.20    -1800.00
02455              -0.80    -1800.00
02456              -1.20    -1800.00
02457              -1.80    -1600.00
02458              -0.60    -1600.00
02459              -1.00    -1600.00
02460              -1.80    -1600.00
02461              -0.40    -1600.00
02462              -0.60    -1600.00
02463              -1.40    -1200.00
02464              -0.40    -1400.00
02465              -0.40    -1200.00
02466              -1.40    -1200.00
02467              -0.60    -1200.00
02468               0.40    -1000.00
02469              -1.20    -1000.00
02470              -1.20    -1200.00
02471               0.20     -800.00
02472              -0.60     -800.00
02473              -1.20     -800.00
02474              -0.40     -800.00
02475              -0.60     -800.00
02476              -1.00     -600.00
02477              -0.20     -400.00
02478              -0.40     -400.00
02479              -0.60     -400.00
02480              -0.20     -400.00
02481              -0.40     -400.00
02482              -0.60     -200.00
02483              -0.40     -400.00
02484              -0.40     -200.00
02485              -0.20     -200.00
02486              -0.60        0.00
02487              -0.60     -200.00
02488              -0.40     -200.00
02489               0.20        0.00
02490              -0.60        0.00
02491              -0.40        0.00
02492               1.00      200.00
02493              -0.20      200.00
02494              -1.00      200.00
02495               0.40      400.00
02496               0.40      400.00
02497               0.60      400.00
02498               7.00      600.00
02499              10.20      800.00
02500             -18.80      800.00
02501             -25.00      400.00
02502              21.80      600.00
02503              25.00     1200.00
02504             -25.00      800.00
02505             -25.00      800.00
02506              25.00      800.00
02507              25.00     1200.00
02508             -25.00      800.00
02509             -25.00      800.00
02510              25.00     1400.00
02511              25.00     1000.00
02512             -25.00     1600.00
02513              25.00     1200.00
02514              25.00     1800.00
02515             -25.00     1200.00
02516             -25.00     1600.00
02517              25.00     1800.00
02518             -25.00     1600.00
02519             -25.00     2000.00
02520              25.00     1600.00
02521              25.00     2000.00
02522             -25.00     1800.00
02523              16.40     2000.00
02524              25.00     1600.00
02525             -25.00     2200.00
02526             -25.00     2000.00
02527              25.00     2200.00
02528              25.00     2200.00
02529             -25.00     2400.00
02530              16.20     2000.00
02531              25.00     2400.00
02532             -25.00     2400.00
02533             -25.00     2400.00
02534              25.00     2200.00
02535              -0.20     2800.00
02536             -25.00     2800.00
02537              25.00     2600.00
02538              25.00     2800.00
02539             -25.00     2800.00
02540               5.40     2600.00
02541              25.00     2800.00
02542             -25.00     3000.00
02543             -25.00     2800.00
02544              25.00     3000.00
02545               0.60     3000.00
02546             -25.00     3200.00
02547              19.60     3000.00
02548              24.60     3200.00
02549             -25.00     3200.00
02550              -2.60     3200.00
02551              25.00     3200.00
02552              -8.40     3400.00
02553             -19.80     3400.00
02554              22.00     3400.00
02555               9.80     3600.00
02556             -20.60     3600.00
02557               6.60     3600.00
02558              18.80     3600.00
02559             -11.80     3600.00
02560              -6.20     3800.00
02561              18.00     3600.00
02562              -1.20     3800.00
02563             -10.60     3800.00
02564              10.20     3800.00
02565               9.00     4000.00
02566             -10.20     4000.00
02567               2.80     4000.00
02568              11.00     4000.00
02569              -3.00     4000.00
02570              -4.40     4200.00
02571              10.00     4200.00
02572               3.40     4000.00
02573              -4.60     4400.00
02574               4.40     4400.00
02575               7.60     4400.00
02576              -2.60     4400.00
02577               0.80     4400.00
02578               7.40     4400.00
02579               2.00     4600.00
02580              -1.40     4600.00
02581               5.40     4600.00
02582               5.00     4400.00
02583              -0.80     4600.00
02584               2.80     4800.00
02585               5.40     4800.00
02586               1.80     4800.00
02587               0.80     4800.00
02588               5.20     4800.00
02589               3.40     4800.00
02590               1.60     4800.00
02591               3.60     4800.00
02592               4.60     5200.00
02593               2.00     4800.00
02594               3.20     5200.00
02595               3.80     5000.00
02596               3.60     5200.00
02597               2.60     5200.00
02598               4.40     5200.00
02599               3.60     5400.00
02600               3.60     5400.00
02601               3.80     5400.00
02602               4.20     5400.00
02603               3.60     5400.00
02604               4.20     5400.00
02605               4.40     5400.00
02606               3.80     5600.00
02607               4.20     5400.00
02608               4.60     5400.00
02609               4.40     5600.00
02610               4.20     5600.00
02611               4.60     5600.00
02612               4.60     5600.00
02613               4.40     5600.00
02614               4.60     5600.00
02615               5.20     5600.00
02616               4.20     5600.00
02617               4.80     5800.00
02618               5.40     5600.00
02619               5.40     5600.00
02620               4.40     5600.00
02621               5.80     6000.00
02622               5.40     5800.00
02623               5.00     6000.00
02624               5.20     6000.00
02625               6.20     6000.00
02626               5.40     6000.00
02627               5.20     6000.00
02628               6.20     6000.00
02629               6.20     6000.00
02630               5.20     6000.00
02631               6.60     6200.00
02632               6.80     6000.00
02633               5.80     6000.00
02634               6.60     6200.00
02635               7.40     6000.00
02636               6.60     6400.00
02637               6.00     6200.00
02638               7.60     6000.00
02639               7.00     6200.00
02640               6.60     6200.00
02641               7.40     6200.00
02642               8.00     6400.00
02643               7.40     6200.00
02644               7.40     6200.00
02645               8.20     6400.00
02646               7.80     6400.00
02647               7.80     6200.00
02648               8.60     6400.00
02649               9.00     6400.00
02650               7.80     6400.00
02651               8.40     6400.00
02652               9.40     6400.00
02653               8.40     6400.00
02654               8.80     6400.00
02655              10.00     6400.00
02656               9.20     6400.00
02657               9.40     6400.00
02658               9.60     6400.00
02659              10.00     6400.00
02660              10.00     6400.00
02661              10.00     6400.00
02662              10.20     6400.00
02663              10.60     6400.00
02664              10.40     6400.00
02665              10.60     6400.00
02666              10.80     6400.00
02667              11.00     6600.00
02668              10.80     6400.00
02669              11.00     6400.00
02670              11.20     6400.00
02671              11.40     6400.00
02672              11.40     6600.00
02673              11.40     6400.00
02674              11.40     6400.00
02675              11.60     6400.00
02676              11.60     6400.00
02677              11.60     6400.00
02678              11.40     6400.00
02679              11.40     6400.00
02680              11.20     6400.00
02681              10.80     6400.00
02682              10.60     6400.00
02683              10.60     6400.00
02684              10.20     6400.00
02685              10.00     6400.00
02686               9.80     6400.00
02687              10.00     6400.00
02688               9.40     6400.00
02689               9.20     6400.00
02690               9.20     6400.00
02691               9.00     6400.00
02692               9.00     6400.00
02693               8.80     6400.00
02694               8.20     6200.00
02695               8.00     6400.00
02696               8.20     6400.00
02697               8.40     6400.00
02698               7.60     6200.00
02699               7.60     6400.00
02700               7.80     6400.00
02701               7.60     6200.00
02702               7.40     6200.00
02703               6.80     6200.00
02704               7.40     6200.00
02705               6.80     6200.00
02706               6.60     6400.00
02707               6.80     6200.00
02708               6.80     6200.00
02709               6.60     6200.00
02710               6.60     6200.00
02711               6.60     6200.00
02712               6.00     6200.00
02713               6.60     6200.00
02714               6.20     6200.00
02715               5.80     6200.00
02716               5.80     6000.00
02717               5.80     6000.00
02718               5.80     6000.00
02719               5.20     6000.00
02720               5.80     6000.00
02721               5.40     6000.00
02722               5.40     6000.00
02723               5.40     6000.00
02724               5.20     6000.00
02725               5.00     5800.00
02726               5.00     5800.00
02727               5.20     6000.00
02728               4.40     6000.00
02729               4.60     5800.00
02730               5.00     5800.00
02731               4.60     5800.00
02732               4.20     5600.00
02733               4.60     5800.00
02734               4.60     5600.00
02735               4.40     5600.00
02736               3.80     5600.00
02737               4.20     5400.00
02738               4.40     5600.00
02739               3.80     5400.00
02740               3.80     5400.00
02741               4.40     5600.00
02742               4.00     5400.00
02743               3.80     5200.00
02744               3.60     5400.00
02745               3.80     5200.00
02746               3.60     5200.00
02747               3.80     5400.00
02748               3.60     5200.00
02749               3.20     5200.00
02750               3.00     5200.00
02751               3.60     5000.00
02752               3.20     5000.00
02753               2.80     5000.00
02754               3.40     5200.00
02755               3.00     4800.00
02756               2.60     4800.00
02757               3.00     4800.00
02758               3.00     4800.00
02759               2.60     4800.00
02760               2.80     4800.00
02761               2.60     4800.00
02762               2.40     4600.00
02763               2.80     4800.00
02764               2.40     4600.00
02765               2.40     4600.00
02766               2.60     4400.00
02767               2.60     4400.00
02768               2.60     4600.00
02769               2.20     4400.00
02770               2.20     4400.00
02771               2.40     4400.00
02772               2.00     4400.00
02773               2.00     4400.00
02774               2.20     4400.00
02775               2.20     4400.00
02776               2.00     4000.00
02777               2.20     4200.00
02778               2.00     4200.00
02779               2.00     4000.00
02780               2.00     4000.00
02781               2.00     4000.00
02782               1.80     3800.00
02783               1.80     3800.00
02784               2.00     3800.00
02785               1.80     3800.00
02786               1.80     3600.00
02787               2.00     3600.00
02788               1.80     3600.00
02789               1.80     3600.00
02790               2.00     3600.00
02791               1.80     3400.00
02792               1.20     3600.00
02793               1.80     3400.00
02794               1.40     3400.00
02795               1.40     3200.00
02796               1.40     3200.00
02797               1.40     3200.00
02798               1.40     3200.00
02799               1.40     3200.00
02800               1.60     3200.00
02801               1.40     3000.00
02802               1.20     3000.00
02803               1.40     2800.00
02804               1.20     2800.00
02805               1.00     3000.00
02806               1.00     3000.00
02807               1.20     2800.00
02808               1.00     2800.00
02809               1.00     2800.00
02810               1.20     2600.00
02811               1.00     2600.00
02812               0.60     2400.00
02813               0.80     2400.00
02814               0.80     2400.00
02815               0.60     2400.00
02816               0.60     2400.00
02817               0.60     2200.00
02818               0.60     2200.00
02819               0.40     2200.00
02820               0.40     2000.00
02821               1.20     2000.00
02822               0.40     2000.00
02823               0.20     2000.00
02824               0.80     2000.00
02825               0.40     1800.00
02826               0.40     1800.00
02827               0.40     1800.00
02828               0.20     1600.00
02829               0.20     1600.00
02830               0.40     1800.00
02831               0.20     1600.00
02832               0.40     1400.00
02833               0.20     1400.00
02834               0.20     1400.00
02835               0.40     1400.00
02836              -0.20     1400.00
02837              -0.40     1200.00
02838               1.00     1200.00
02839              -0.20     1200.00
02840              -0.40     1000.00
02841               0.60     1000.00
02842               0.20      800.00
02843              -0.60      800.00
02844               0.20      800.00
02845               0.60      600.00
02846              -0.60      600.00
02847              -0.40      600.00
02848               1.40      600.00
02849              -0.80      600.00
02850              -0.60      400.00
02851               1.00      400.00
02852               0.20      200.00
02853              -1.00      400.00
02854               0.20      400.00
02855               0.20      400.00
02856              -0.60      200.00
02857              -0.60        0.00
02858               0.20        0.00
02859              -0.20        0.00
02860              -0.40        0.00
02861               0.00     -200.00
02862               0.40     -200.00
02863              -0.20     -400.00
02864               0.00     -200.00
02865              -0.20     -200.00
02866              -0.60     -200.00
02867              -0.60     -400.00
02868               1.80     -400.00
02869              16.60     -600.00
02870               7.40     -800.00
02871             -25.00    -1000.00
02872             -25.00     -400.00
02873              25.00     -800.00
02874              25.00     -800.00
02875             -25.00    -1200.00
02876             -25.00     -400.00
02877              25.00    -1000.00
02878              25.00    -1200.00
02879             -25.00    -1000.00
02880              18.00    -1000.00
02881              25.00    -1200.00
02882             -11.00    -1600.00
02883             -25.00    -1000.00
02884              25.00    -1600.00
02885              25.00    -1800.00
02886             -25.00    -1200.00
02887             -25.00    -1800.00
02888              25.00    -1600.00
02889              -0.60    -1800.00
02890             -25.00    -1400.00
02891              25.00    -2000.00
02892              25.00    -1600.00
02893             -25.00    -1800.00
02894              25.00    -2000.00
02895              25.00    -2000.00
02896             -25.00    -2000.00
02897             -25.00    -2000.00
02898              25.00    -2200.00
02899              13.20    -2000.00
02900             -25.00    -2400.00
02901              25.00    -2400.00
02902              25.00    -2400.00
02903             -25.00    -2400.00
02904             -25.00    -2600.00
02905              25.00    -2400.00
02906             -22.80    -2400.00
02907             -25.00    -2600.00
02908              25.00    -2800.00
02909              25.00    -2400.00
02910             -25.00    -2600.00
02911              25.00    -2600.00
02912              25.00    -2800.00
02913             -25.00    -2800.00
02914             -22.20    -2800.00
02915              25.00    -3000.00
02916             -16.40    -3000.00
02917             -25.00    -2800.00
02918              25.00    -3200.00
02919              22.60    -3000.00
02920             -25.00    -3200.00
02921              -1.80    -3200.00
02922              25.00    -3400.00
02923             -22.40    -3400.00
02924             -25.00    -3400.00
02925              25.00    -3600.00
02926               3.60    -3400.00
02927             -25.00    -3600.00
02928              10.00    -3400.00
02929              18.00    -3600.00
02930             -23.00    -3600.00
02931              -9.00    -3600.00
02932              19.60    -3800.00
02933              -9.20    -3600.00
02934             -17.80    -3800.00
02935              13.20    -4000.00
02936               3.40    -4000.00
02937             -19.00    -4000.00
02938               1.80    -4000.00
02939              10.20    -4200.00
02940             -13.00    -4000.00
02941              -8.40    -4200.00
02942               9.40    -4200.00
02943              -3.80    -4000.00
02944             -13.20    -4200.00
02945               3.60    -4400.00
02946               2.60    -4400.00
02947             -11.40    -4400.00
02948              -3.60    -4400.00
02949               5.20    -4400.00
02950              -6.20    -4600.00
02951              -8.20    -4600.00
02952               2.00    -4600.00
02953              -1.20    -4400.00
02954              -8.80    -4600.00
02955              -2.20    -4800.00
02956               0.40    -4800.00
02957              -6.00    -4600.00
02958              -5.40    -4800.00
02959              -0.40    -4800.00
02960              -3.40    -5000.00
02961              -6.60    -5000.00
02962              -2.80    -5000.00
02963              -1.80    -5000.00
02964              -5.20    -5000.00
02965              -4.60    -5000.00
02966              -2.60    -5000.00
02967              -4.40    -5200.00
02968              -4.40    -5200.00
02969              -3.80    -5200.00
02970              -4.20    -5200.00
02971              -4.00    -5400.00
02972              -3.80    -5200.00
02973              -4.60    -5200.00
02974              -4.40    -5600.00
02975              -4.20    -5400.00
02976              -4.60    -5400.00
02977              -4.80    -5600.00
02978              -3.80    -5600.00
02979              -4.40    -5600.00
02980              -5.00    -5600.00
02981              -4.60    -5600.00
02982              -4.60    -5600.00
02983              -5.20    -5600.00
02984              -5.20    -5800.00
02985              -4.40    -5600.00
02986              -5.20    -5800.00
02987              -5.40    -5800.00
02988              -5.00    -5800.00
02989              -5.20    -6000.00
02990              -6.00    -5800.00
02991              -5.40    -6000.00
02992              -5.00    -6000.00
02993              -6.00    -5800.00
02994              -6.60    -5800.00
02995              -5.40    -6000.00
02996              -5.80    -6000.00
02997              -7.00    -6000.00
02998              -6.20    -6000.00
02999              -5.60    -6000.00
03000              -7.00    -6200.00
03001              -6.60    -6000.00
03002              -5.80    -6000.00
03003              -7.00    -6000.00
03004              -7.20    -6200.00
03005              -6.60    -6000.00
03006              -6.80    -6200.00
03007              -8.20    -6200.00
03008              -7.40    -6200.00
03009              -6.80    -6200.00
03010              -7.80    -6400.00
03011              -9.00    -6200.00
03012              -7.00    -6400.00
03013              -7.20    -6200.00
03014              -9.20    -6400.00
03015              -8.40    -6400.00
03016              -6.80    -6400.00
03017              -9.20    -6400.00
03018              -9.80    -6200.00
03019              -7.80    -6400.00
03020              -9.20    -6400.00
03021             -10.00    -6400.00
03022              -8.60    -6400.00
03023              -8.80    -6400.00
03024             -10.00    -6400.00
03025              -9.80    -6400.00
03026              -8.60    -6400.00
03027             -10.00    -6400.00
03028             -11.20    -6400.00
03029              -9.20    -6400.00
03030              -9.40    -6400.00
03031             -11.60    -6400.00
03032             -10.20    -6400.00
03033             -10.00    -6400.00
03034             -11.80    -6600.00
03035             -11.00    -6600.00
03036             -10.60    -6400.00
03037             -11.40    -6400.00
03038             -11.00    -6400.00
03039             -10.80    -6400.00
03040             -11.80    -6600.00
03041             -11.80    -6400.00
03042             -11.60    -6600.00
03043             -11.80    -6400.00
03044             -11.80    -6400.00
03045             -11.80    -6400.00
03046             -11.60    -6400.00
03047             -12.20    -6600.00
03048             -11.60    -6400.00
03049             -12.00    -6600.00
03050             -12.00    -6600.00
03051             -11.40    -6400.00
03052             -11.00    -6400.00
03053             -11.40    -6600.00
03054             -11.40    -6400.00
03055             -11.00    -6600.00
03056             -11.00    -6400.00
03057             -10.80    -6400.00
03058             -10.60    -6400.00
03059             -10.00    -6400.00
03060              -9.80    -6400.00
03061              -9.80    -6600.00
03062              -9.80    -6400.00
03063              -9.40    -6400.00
03064              -9.80    -6400.00
03065              -9.20    -6400.00
03066              -8.60    -6400.00
03067              -9.00    -6400.00
03068              -8.60    -6400.00
03069              -8.40    -6400.00
03070              -8.40    -6400.00
03071              -8.60    -6400.00
03072              -8.40    -6400.00
03073              -7.80    -6400.00
03074              -7.80    -6200.00
03075              -7.80    -6200.00
03076              -7.60    -6400.00
03077              -7.60    -6200.00
03078              -7.60    -6200.00
03079              -7.40    -6200.00
03080              -7.20    -6400.00
03081              -7.00    -6200.00
03082              -7.00    -6400.00
03083              -6.80    -6400.00
03084              -7.00    -6200.00
03085              -6.80    -6000.00
03086              -6.20    -6000.00
03087              -6.60    -6200.00
03088              -7.00    -6000.00
03089              -6.00    -6000.00
03090              -6.20    -6000.00
03091              -7.00    -6000.00
03092              -5.80    -6000.00
03093              -5.40    -6000.00
03094              -6.60    -6000.00
03095              -5.80    -5800.00
03096              -5.20    -6000.00
03097              -6.00    -5800.00
03098              -6.00    -5800.00
03099              -5.20    -5800.00
03100              -5.40    -5800.00
03101              -5.60    -5800.00
03102              -5.00    -5800.00
03103              -5.20    -5800.00
03104              -5.00    -5600.00
03105              -4.60    -5600.00
03106              -5.20    -5600.00
03107              -5.00    -5600.00
03108              -4.60    -5600.00
03109              -4.40    -5400.00
03110              -4.60    -5600.00
03111              -4.40    -5600.00
03112              -4.40    -5400.00
03113              -4.20    -5600.00
03114              -4.20    -5400.00
03115              -4.20    -5200.00
03116              -4.00    -5600.00
03117              -4.20    -5400.00
03118              -3.80    -5200.00
03119              -4.20    -5200.00
03120              -4.20    -5200.00
03121              -3.80    -5200.00
03122              -3.80    -5200.00
03123              -3.80    -5200.00
03124              -3.80    -5000.00
03125              -3.40    -5200.00
03126              -3.40    -5000.00
03127              -3.40    -5000.00
03128              -3.60    -4800.00
03129              -3.40    -5000.00
03130              -3.40    -4600.00
03131              -3.80    -4600.00
03132              -3.40    -4800.00
03133              -3.40    -4600.00
03134              -3.40    -4600.00
03135              -3.00    -4800.00
03136              -3.00    -4600.00
03137              -3.40    -4400.00
03138              -3.00    -4600.00
03139              -3.00    -4600.00
03140              -3.00    -4400.00
03141              -2.80    -4400.00
03142              -2.80    -4400.00
03143              -2.80    -4400.00
03144              -3.00    -4400.00
03145              -3.00    -4200.00
03146              -2.80    -4200.00
03147              -3.00    -4200.00
03148              -2.80    -4200.00
03149              -2.60    -4200.00
03150              -2.60    -4200.00
03151              -2.80    -4000.00
03152              -2.60    -4000.00
03153              -2.40    -4000.00
03154              -2.80    -4000.00
03155              -2.80    -4000.00
03156              -2.20    -4000.00
03157              -2.20    -3800.00
03158              -2.60    -3600.00
03159              -2.20    -3600.00
03160              -2.20    -3600.00
03161              -2.60    -3600.00
03162              -2.20    -3600.00
03163              -2.20    -3400.00
03164              -2.40    -3400.00
03165              -2.20    -3400.00
03166              -2.00    -3400.00
03167              -2.00    -3200.00
03168              -2.00    -3200.00
03169              -2.00    -3400.00
03170              -1.80    -3200.00
03171              -1.80    -3200.00
03172              -2.00    -3000.00
03173              -2.00    -3000.00
03174              -2.00    -2800.00
03175              -1.80    -2800.00
03176              -2.00    -2800.00
03177              -1.80    -2800.00
03178              -1.20    -2800.00
03179              -1.40    -2800.00
03180              -1.80    -2600.00
03181              -1.80    -2600.00
03182              -1.00    -2600.00
03183              -1.40    -2600.00
03184              -1.60    -2600.00
03185              -1.20    -2400.00
03186              -1.40    -2400.00
03187              -1.40    -2400.00
03188              -1.00    -2400.00
03189              -1.80    -2200.00
03190              -1.20    -2200.00
03191              -1.20    -2200.00
03192              -1.40    -2200.00
03193              -0.80    -2000.00
03194              -1.20    -2000.00
03195              -1.40    -2000.00
03196              -1.00    -1800.00
03197              -1.00    -1800.00
03198              -1.40    -1800.00
03199              -1.00    -1800.00
03200              -1.00    -1600.00
03201              -1.20    -1600.00
03202              -1.20    -1600.00
03203              -1.00    -1600.00
03204              -0.80    -1400.00
03205              -1.20    -1400.00
03206              -1.00    -1200.00
03207              -1.00    -1400.00
03208              -1.20    -1200.00
03209              -1.00    -1200.00
03210              -0.60    -1200.00
03211              -1.20    -1200.00
03212              -1.20    -1000.00
03213              -0.60    -1000.00
03214              -1.00     -800.00
03215              -1.20    -1000.00
03216              -0.60     -800.00
03217              -0.60     -800.00
03218              -0.40     -800.00
03219              -1.00     -800.00
03220              -0.60     -600.00
03221              -0.40     -400.00
03222              -1.00     -600.00
03223              -0.80     -200.00
03224              -0.40     -400.00
03225              -0.60     -200.00
03226              -0.80     -400.00
03227              -0.20     -200.00
03228              -0.60     -200.00
03229              -0.60     -200.00
03230              -0.60        0.00
03231              -0.20     -200.00
03232              -0.20        0.00
03233              -0.20        0.00
03234               0.40      200.00
03235               0.80        0.00
03236              -0.60      400.00
03237              -0.60      200.00
03238               0.40      400.00
03239              -0.20      400.00
03240               1.20      400.00
03241              10.60      600.00
03242               6.00      800.00
03243             -25.00      600.00
03244             -25.00      600.00
03245              25.00      600.00
03246              25.00     1000.00
03247             -25.00      800.00
03248             -25.00      600.00
03249              25.00     1200.00
03250              25.00     1000.00
03251             -25.00     1200.00
03252              11.00      800.00
03253              25.00     1800.00
03254             -25.00      600.00
03255             -25.00     1800.00
03256              25.00     1200.00
03257              25.00     1800.00
03258             -25.00     1400.00
03259              25.00     1800.00
03260              25.00     1800.00
03261             -25.00     1600.00
03262             -25.00     2000.00
03263              25.00     1800.00
03264              17.00     2000.00
03265             -25.00     1800.00
03266              25.00     2000.00
03267              25.00     1800.00
03268             -25.00     2200.00
03269             -25.00     2000.00
03270              25.00     2000.00
03271             -11.80     2000.00
03272             -25.00     2400.00
03273              25.00     2000.00
03274              25.00     2400.00
03275             -25.00     2400.00
03276              -4.40     2400.00
03277              25.00     2400.00
03278             -25.00     2800.00
03279             -25.00     2400.00
03280              25.00     2600.00
03281              13.80     2600.00
03282             -25.00     2800.00
03283              25.00     2600.00
03284              25.00     2800.00
03285             -25.00     2800.00
03286              -6.20     2800.00
03287              25.00     3000.00
03288             -18.80     3000.00
03289             -25.00     3200.00
03290              25.00     3000.00
03291              12.20     3200.00
03292             -25.00     3000.00
03293              11.00     3200.00
03294              24.60     3200.00
03295             -18.00     3400.00
03296             -10.80     3200.00
03297              25.00     3600.00
03298              -1.80     3600.00
03299             -17.80     3600.00
03300              14.20     3600.00
03301              13.20     3600.00
03302             -16.20     3600.00
03303               1.40     3800.00
03304              17.20     3600.00
03305              -6.60     3600.00
03306              -7.00     3800.00
03307              14.00     4000.00
03308               3.60     4000.00
03309              -9.40     3800.00
03310               7.40     4000.00
03311               9.00     4000.00
03312              -5.20     4000.00
03313              -0.60     4000.00
03314              10.60     4200.00
03315              -0.20     4200.00
03316              -3.00     4400.00
03317               6.60     4400.00
03318               5.40     4400.00
03319              -3.60     4200.00
03320               3.40     4400.00
03321               6.80     4400.00
03322               0.40     4600.00
03323              -0.60     4600.00
03324               6.40     4600.00
03325               3.20     4600.00
03326              -0.60     4800.00
03327               3.80     4600.00
03328               5.40     4800.00
03329               0.60     4800.00
03330               2.00     4800.00
03331               5.80     4800.00
03332               2.20     4800.00
03333               1.60     4800.00
03334               4.20     5000.00
03335               3.80     4800.00
03336               1.20     4800.00
03337               4.20     5000.00
03338               4.20     5000.00
03339               2.60     5200.00
03340               3.00     5200.00
03341               4.60     5200.00
03342               2.60     5200.00
03343               3.60     5200.00
03344               3.80     5400.00
03345               3.80     5400.00
03346               3.40     5400.00
03347               3.80     5400.00
03348               3.80     5400.00
03349               3.80     5400.00
03350               3.60     5600.00
03351               4.40     5600.00
03352               4.00     5400.00
03353               4.20     5600.00
03354               4.60     5600.00
03355               4.20     5600.00
03356               4.20     5800.00
03357               4.60     5600.00
03358               5.00     5800.00
03359               4.20     5800.00
03360               5.20     5600.00
03361               5.40     5800.00
03362               4.60     5800.00
03363               4.60     5800.00
03364               5.80     6000.00
03365               5.20     6000.00
03366               5.00     5800.00
03367               5.40     6000.00
03368               6.00     6000.00
03369               5.20     6000.00
03370               5.40     6000.00
03371               6.60     6000.00
03372               6.20     6200.00
03373               5.40     6200.00
03374               7.00     6000.00
03375               6.60     6200.00
03376               5.80     6000.00
03377               6.60     6000.00
03378               7.40     6000.00
03379               6.60     6400.00
03380               6.60     6200.00
03381               7.40     6200.00
03382               7.40     6200.00
03383               6.80     6200.00
03384               7.20     6200.00
03385               8.60     6400.00
03386               7.40     6200.00
03387               7.60     6400.00
03388               9.20     6200.00
03389               7.60     6200.00
03390               7.60     6200.00
03391               8.80     6400.00
03392               8.60     6200.00
03393               8.20     6400.00
03394               8.40     6400.00
03395               9.40     6400.00
03396               9.20     6400.00
03397               8.60     6400.00
03398              10.00     6200.00
03399               9.40     6400.00
03400               9.20     6400.00
03401               9.40     6400.00
03402              10.20     6400.00
03403              10.00     6400.00
03404               9.00     6400.00
03405              11.40     6400.00
03406               9.60     6400.00
03407               9.80     6600.00
03408              11.80     6400.00
03409              10.00     6400.00
03410              10.60     6400.00
03411              10.80     6400.00
03412              11.00     6600.00
03413              10.80     6400.00
03414              11.20     6400.00
03415              11.80     6400.00
03416              10.80     6400.00
03417              11.00     6400.00
03418              12.20     6400.00
03419              10.80     6400.00
03420              11.00     6400.00
03421              11.80     6400.00
03422              11.40     6400.00
03423              10.60     6400.00
03424              10.60     6400.00
03425              10.60     6600.00
03426              10.00     6400.00
03427              10.00     6400.00
03428              10.60     6400.00
03429              10.20     6400.00
03430               9.80     6400.00
03431               9.40     6400.00
03432               9.40     6400.00
03433               9.00     6200.00
03434               9.00     6400.00
03435               9.40     6400.00
03436               8.40     6400.00
03437               8.40     6400.00
03438               8.80     6400.00
03439               7.80     6400.00
03440               7.80     6200.00
03441               8.40     6200.00
03442               8.20     6200.00
03443               7.80     6200.00
03444               7.40     6200.00
03445               7.60     6400.00
03446               7.40     6200.00
03447               7.40     6400.00
03448               7.00     6200.00
03449               7.40     6200.00
03450               6.80     6200.00
03451               7.00     6200.00
03452               6.20     6200.00
03453               6.20     6200.00
03454               6.60     6200.00
03455               6.00     6000.00
03456               6.20     6200.00
03457               6.20     6000.00
03458               6.00     6000.00
03459               5.80     6000.00
03460               6.00     6000.00
03461               5.40     6000.00
03462               5.40     6000.00
03463               6.00     6000.00
03464               5.40     6000.00
03465               5.00     6000.00
03466               5.40     6000.00
03467               5.20     6000.00
03468               4.80     5800.00
03469               5.20     5800.00
03470               5.20     5800.00
03471               4.60     5600.00
03472               4.40     5600.00
03473               4.80     5600.00
03474               4.40     5600.00
03475               4.20     5600.00
03476               5.00     5600.00
03477               4.20     5600.00
03478               4.20     5600.00
03479               4.40     5600.00
03480               4.20     5600.00
03481               4.20     5600.00
03482               3.60     5400.00
03483               3.80     5600.00
03484               4.20     5400.00
03485               3.80     5400.00
03486               3.20     5400.00
03487               3.80     5400.00
03488               3.80     5400.00
03489               3.00     5200.00
03490               3.60     5400.00
03491               3.60     5200.00
03492               3.40     5200.00
03493               3.60     5200.00
03494               3.00     5200.00
03495               3.00     5000.00
03496               3.60     4800.00
03497               3.00     5200.00
03498               2.80     4800.00
03499               3.00     4800.00
03500               3.20     4800.00
03501               2.80     5000.00
03502               2.80     4800.00
03503               3.00     4600.00
03504               3.00     4800.00
03505               2.60     4600.00
03506               2.60     4800.00
03507               2.60     4400.00
03508               2.60     4600.00
03509               2.60     4400.00
03510               2.60     4400.00
03511               2.60     4400.00
03512               2.60     4400.00
03513               2.60     4400.00
03514               2.00     4400.00
03515               2.60     4400.00
03516               2.20     4400.00
03517               2.00     4200.00
03518               2.20     4000.00
03519               2.00     4000.00
03520               2.00     4000.00
03521               2.20     4000.00
03522               2.00     4000.00
03523               2.00     3800.00
03524               2.00     4000.00
03525               2.00     3800.00
03526               2.00     3800.00
03527               1.60     3800.00
03528               1.60     3600.00
03529               2.00     3600.00
03530               1.80     3600.00
03531               1.20     3600.00
03532               1.80     3600.00
03533               1.60     3600.00
03534               1.40     3600.00
03535               1.40     3600.00
03536               1.40     3400.00
03537               1.20     3400.00
03538               1.40     3200.00
03539               1.40     3200.00
03540               1.20     3200.00
03541               1.20     3200.00
03542               1.20     3200.00
03543               1.40     3000.00
03544               1.20     3000.00
03545               1.00     3000.00
03546               1.20     3000.00
03547               1.00     2800.00
03548               0.80     2800.00
03549               1.20     2800.00
03550               1.00     2800.00
03551               0.60     2800.00
03552               1.00     2600.00
03553               1.00     2600.00
03554               0.60     2400.00
03555               0.80     2400.00
03556               1.20     2400.00
03557               0.80     2200.00
03558               0.60     2200.00
03559               0.80     2200.00
03560               0.60     2200.00
03561               0.60     2000.00
03562               0.40     2200.00
03563               1.00     2000.00
03564               0.40     2000.00
03565               0.40     2000.00
03566               0.60     2000.00
03567               0.80     2000.00
03568               0.40     1800.00
03569               0.60     1600.00
03570               0.60     1800.00
03571               0.40     1600.00
03572               0.60     1800.00
03573               0.40     1400.00
03574               0.60     1600.00
03575               0.20     1400.00
03576               0.40     1400.00
03577               0.40     1400.00
03578               0.20     1400.00
03579               0.20     1400.00
03580               0.20     1200.00
03581               0.20     1200.00
03582               0.20     1200.00
03583               0.40     1000.00
03584               0.20     1000.00
03585               0.20      800.00
03586               0.40      800.00
03587               0.00      800.00
03588               0.20      800.00
03589               0.20      600.00
03590               0.20      600.00
03591              -0.20      600.00
03592              -0.40      600.00
03593               0.20      400.00
03594              -0.20      400.00
03595              -0.60      400.00
03596               0.20      400.00
03597               0.20      200.00
03598              -1.20      200.00
03599              -0.20      200.00
03600               0.40        0.00
03601              -1.20        0.00
03602              -0.40        0.00
03603               1.00        0.00
03604              -1.00        0.00
03605              -0.60     -200.00
03606               1.00     -200.00
03607              -0.40     -400.00
03608              -1.60     -400.00
03609               0.20     -400.00
03610              -0.20     -400.00
03611               2.20     -400.00
03612              20.40     -600.00
03613              -5.20     -800.00
03614             -25.00     -800.00
03615              -6.80     -400.00
03616              25.00     -800.00
03617              15.00     -800.00
03618             -25.00    -1000.00
03619              12.60     -600.00
03620              25.00    -1200.00
03621             -22.80    -1400.00
03622             -25.00     -800.00
03623              25.00    -1200.00
03624              25.00    -1200.00
03625             -25.00    -1200.00
03626             -25.00    -1200.00
03627              25.00    -1200.00
03628              25.00    -1800.00
03629             -25.00    -1000.00
03630              25.00    -1800.00
03631              25.00    -1600.00
03632             -25.00    -1600.00
03633             -25.00    -1600.00
03634              25.00    -2000.00
03635              25.00    -1600.00
03636             -25.00    -1800.00
03637              25.00    -2000.00
03638              25.00    -2000.00
03639             -25.00    -1800.00
03640              -1.00    -2200.00
03641              25.00    -2200.00
03642             -25.00    -2000.00
03643             -25.00    -2400.00
03644              25.00    -2600.00
03645              25.00    -2200.00
03646             -25.00    -2400.00
03647              16.40    -2600.00
03648              25.00    -2400.00
03649             -25.00    -2400.00
03650             -25.00    -2600.00
03651              25.00    -2600.00
03652              -6.00    -2600.00
03653             -25.00    -2800.00
03654              25.00    -2800.00
03655              25.00    -2800.00
03656             -25.00    -2800.00
03657               8.20    -3200.00
03658              25.00    -2800.00
03659             -25.00    -3200.00
03660             -25.00    -3200.00
03661              25.00    -3200.00
03662               3.60    -3200.00
03663             -25.00    -3200.00
03664              15.00    -3400.00
03665              25.00    -3400.00
03666             -25.00    -3400.00
03667             -12.20    -3400.00
03668              25.00    -3600.00
03669             -10.80    -3400.00
03670             -25.00    -3600.00
03671              19.20    -3600.00
03672               8.40    -3600.00
03673             -25.00    -3800.00
03674               1.20    -4000.00
03675              17.40    -3800.00
03676             -17.00    -4000.00
03677             -11.00    -3800.00
03678              15.60    -4000.00
03679              -4.00    -4000.00
03680             -17.40    -4000.00
03681               6.80    -4000.00
03682               5.40    -4200.00
03683             -15.60    -4200.00
03684              -3.40    -4200.00
03685               9.00    -4200.00
03686              -8.40    -4200.00
03687             -10.20    -4400.00
03688               6.00    -4200.00
03689              -1.60    -4400.00
03690             -11.40    -4400.00
03691               0.00    -4400.00
03692               3.60    -4400.00
03693              -8.60    -4400.00
03694              -6.00    -4600.00
03695               2.60    -4600.00
03696              -3.40    -4800.00
03697              -8.40    -4600.00
03698              -0.80    -4600.00
03699              -0.40    -4800.00
03700              -6.60    -4800.00
03701              -3.80    -5000.00
03702              -0.40    -4800.00
03703              -4.80    -4600.00
03704              -5.40    -4800.00
03705              -1.80    -5000.00
03706              -2.80    -5000.00
03707              -5.00    -5000.00
03708              -3.40    -5000.00
03709              -3.00    -5000.00
03710              -4.40    -5200.00
03711              -4.20    -5200.00
03712              -3.60    -5200.00
03713              -4.20    -5200.00
03714              -4.20    -5200.00
03715              -3.80    -5200.00
03716              -4.60    -5400.00
03717              -4.20    -5400.00
03718              -4.40    -5600.00
03719              -5.00    -5600.00
03720              -4.60    -5600.00
03721              -3.60    -5600.00
03722              -5.00    -5600.00
03723              -5.40    -5600.00
03724              -4.40    -5800.00
03725              -4.60    -5600.00
03726              -5.80    -5800.00
03727              -5.20    -5600.00
03728              -5.00    -5600.00
03729              -5.20    -5800.00
03730              -5.80    -5800.00
03731              -5.20    -6000.00
03732              -5.40    -5800.00
03733              -6.20    -5800.00
03734              -5.20    -6000.00
03735              -5.40    -6000.00
03736              -6.60    -5800.00
03737              -6.00    -6000.00
03738              -5.40    -6000.00
03739              -6.60    -6000.00
03740              -7.00    -6000.00
03741              -6.00    -6000.00
03742              -6.00    -6000.00
03743              -7.20    -6000.00
03744              -6.60    -6000.00
03745              -5.80    -6200.00
03746              -7.40    -6200.00
03747              -7.80    -6200.00
03748              -6.60    -6000.00
03749              -7.00    -6200.00
03750              -8.20    -6200.00
03751              -7.00    -6200.00
03752              -7.00    -6200.00
03753              -8.40    -6000.00
03754              -8.20    -6000.00
03755              -7.40    -6400.00
03756              -7.80    -6200.00
03757              -8.60    -6400.00
03758              -7.80    -6400.00
03759              -7.40    -6400.00
03760              -9.20    -6400.00
03761              -9.20    -6400.00
03762              -8.40    -6400.00
03763              -9.00    -6400.00
03764              -9.40    -6400.00
03765              -8.60    -6400.00
03766              -9.20    -6400.00
03767              -9.20    -6400.00
03768              -9.60    -6400.00
03769              -9.60    -6600.00
03770              -9.80    -6400.00
03771             -10.00    -6600.00
03772             -10.20    -6400.00
03773              -9.80    -6400.00
03774             -10.60    -6600.00
03775             -10.80    -6600.00
03776             -10.20    -6400.00
03777             -10.80    -6600.00
03778             -11.20    -6600.00
03779             -10.80    -6400.00
03780             -10.80    -6600.00
03781             -11.60    -6400.00
03782             -11.40    -6400.00
03783             -11.00    -6600.00
03784             -11.80    -6400.00
03785             -11.60    -6400.00
03786             -11.60    -6600.00
03787             -11.60    -6400.00
03788             -11.60    -6400.00
03789             -12.00    -6600.00
03790             -12.00    -6400.00
03791             -11.80    -6400.00
03792             -12.20    -6600.00
03793             -11.80    -6400.00
03794             -11.60    -6400.00
03795             -11.40    -6600.00
03796             -11.60    -6400.00
03797             -11.40    -6600.00
03798             -10.80    -6600.00
03799             -11.00    -6400.00
03800             -10.60    -6400.00
03801             -10.20    -6600.00
03802             -10.20    -6400.00
03803             -10.00    -6600.00
03804             -10.00    -6400.00
03805             -10.00    -6400.00
03806              -9.80    -6400.00
03807              -9.40    -6400.00
03808              -9.40    -6400.00
03809              -9.20    -6600.00
03810              -8.60    -6400.00
03811              -9.00    -6400.00
03812              -8.40    -6400.00
03813              -8.40    -6400.00
03814              -8.40    -6400.00
03815              -8.20    -6400.00
03816              -8.00    -6400.00
03817              -7.80    -6200.00
03818              -7.60    -6400.00
03819              -7.80    -6400.00
03820              -7.40    -6400.00
03821              -7.00    -6400.00
03822              -7.40    -6400.00
03823              -7.40    -6200.00
03824              -6.80    -6200.00
03825              -6.80    -6200.00
03826              -7.00    -6200.00
03827              -6.60    -6000.00
03828              -6.60    -6200.00
03829              -6.60    -6200.00
03830              -6.20    -6000.00
03831              -6.20    -6000.00
03832              -6.20    -6000.00
03833              -6.00    -6000.00
03834              -5.80    -6000.00
03835              -6.00    -6000.00
03836              -6.00    -6000.00
03837              -5.60    -5800.00
03838              -5.60    -5800.00
03839              -6.00    -6000.00
03840              -5.40    -6000.00
03841              -5.20    -5800.00
03842              -5.60    -5800.00
03843              -5.00    -5600.00
03844              -5.00    -5800.00
03845              -5.00    -5600.00
03846              -5.00    -5800.00
03847              -5.00    -5800.00
03848              -4.60    -5600.00
03849              -5.00    -5600.00
03850              -4.40    -5600.00
03851              -4.60    -5600.00
03852              -5.00    -5600.00
03853              -5.00    -5600.00
03854              -4.40    -5400.00
03855              -4.60    -5400.00
03856              -4.60    -5600.00
03857              -3.80    -5200.00
03858              -4.40    -5600.00
03859              -4.60    -5400.00
03860              -3.80    -5200.00
03861              -4.40    -5200.00
03862              -4.40    -5200.00
03863              -4.20    -5200.00
03864              -4.20    -5200.00
03865              -4.20    -5000.00
03866              -3.80    -5200.00
03867              -3.80    -5000.00
03868              -3.80    -5200.00
03869              -3.80    -5000.00
03870              -3.80    -5000.00
03871              -3.60    -5000.00
03872              -3.80    -4800.00
03873              -3.80    -4800.00
03874              -3.60    -5000.00
03875              -3.60    -4600.00
03876              -3.40    -4800.00
03877              -3.40    -4800.00
03878              -3.40    -4600.00
03879              -3.40    -4600.00
03880              -3.20    -4400.00
03881              -3.00    -4600.00
03882              -3.00    -4600.00
03883              -3.00    -4400.00
03884              -3.00    -4400.00
03885              -3.00    -4400.00
03886              -2.80    -4400.00
03887              -3.00    -4400.00
03888              -2.80    -4400.00
03889              -2.80    -4200.00
03890              -2.60    -4400.00
03891              -2.80    -4200.00
03892              -2.60    -4200.00
03893              -2.40    -4000.00
03894              -2.80    -4000.00
03895              -2.20    -4000.00
03896              -2.20    -4000.00
03897              -2.80    -4000.00
03898              -2.60    -4000.00
03899              -2.20    -3800.00
03900              -2.40    -3800.00
03901              -2.20    -3800.00
03902              -2.20    -3600.00
03903              -2.20    -3600.00
03904              -2.20    -3600.00
03905              -2.20    -3600.00
03906              -2.20    -3400.00
03907              -1.80    -3600.00
03908              -2.00    -3400.00
03909              -1.80    -3400.00
03910              -2.00    -3400.00
03911              -1.80    -3200.00
03912              -1.40    -3200.00
03913              -2.00    -3200.00
03914              -1.80    -3200.00
03915              -1.80    -3200.00
03916              -2.20    -3200.00
03917              -1.80    -2800.00
03918              -1.80    -3000.00
03919              -2.00    -2800.00
03920              -1.80    -2800.00
03921              -1.20    -2800.00
03922              -2.00    -2800.00
03923              -2.00    -2800.00
03924              -1.20    -2800.00
03925              -1.80    -2600.00
03926              -1.40    -2800.00
03927              -1.60    -2600.00
03928              -1.60    -2600.00
03929              -1.80    -2400.00
03930              -1.80    -2400.00
03931              -1.40    -2400.00
03932              -1.60    -2400.00
03933              -1.60    -2200.00
03934              -1.20    -2200.00
03935              -1.60    -2000.00
03936              -1.40    -2000.00
03937              -1.20    -2000.00
03938              -1.40    -2000.00
03939              -1.20    -2000.00
03940              -1.00    -1800.00
03941              -1.20    -1800.00
03942              -1.00    -1800.00
03943              -1.00    -1800.00
03944              -1.80    -1600.00
03945              -1.20    -1800.00
03946              -0.60    -1600.00
03947              -1.20    -1600.00
03948              -1.20    -1400.00
03949              -0.40    -1600.00
03950              -1.00    -1200.00
03951              -1.00    -1200.00
03952              -0.80    -1000.00
03953              -0.60    -1200.00
03954              -0.60    -1000.00
03955              -0.60    -1000.00
03956              -1.00    -1000.00
03957              -0.60    -1000.00
03958              -0.60     -800.00
03959              -0.60     -800.00
03960              -0.60     -800.00
03961              -0.60     -800.00
03962              -0.20     -800.00
03963              -0.80     -600.00
03964              -0.80     -600.00
03965              -0.40     -400.00
03966              -0.60     -400.00
03967              -0.60     -400.00
03968              -0.20     -200.00
03969              -0.40     -200.00
03970              -0.40     -200.00
03971               0.20     -200.00
03972              -0.60        0.00
03973              -0.60        0.00
03974               0.40        0.00
03975               0.20        0.00
03976              -0.20        0.00
03977               0.40      200.00
03978               0.20      200.00
03979              -0.40        0.00
03980               0.20      400.00
03981              -0.20      400.00
03982               0.20      400.00
03983               3.00      400.00
03984              12.40      600.00
03985              -0.60      800.00
03986             -25.00      600.00
03987             -19.60      400.00
03988              25.00      800.00
03989              25.00      800.00
03990             -25.00      800.00
03991             -19.80      600.00
03992              25.00     1400.00
03993               6.20      600.00
03994             -25.00     1600.00
03995              25.00      600.00
03996              25.00     1600.00
03997             -25.00      600.00
03998             -25.00     1800.00
03999              25.00     1000.00
04000               9.00     1600.00
04001             -25.00     1400.00
04002              25.00     1600.00
04003              25.00     1400.00
04004             -25.00     1800.00
04005              -5.00     1800.00
04006              25.00     1800.00
04007             -25.00     1600.00
04008             -25.00     2000.00
04009              25.00     1800.00
04010              25.00     2000.00
04011             -25.00     2200.00
04012               9.60     2000.00
04013              25.00     2000.00
04014             -25.00     2200.00
04015             -25.00     2400.00
04016              25.00     2000.00
04017              25.00     2600.00
04018             -25.00     2200.00
04019              25.00     2400.00
04020              25.00     2400.00
04021             -25.00     2600.00
04022             -24.60     2400.00
04023              25.00     2800.00
04024             -19.00     2600.00
04025             -25.00     2800.00
04026              25.00     2800.00
04027              22.80     3000.00
04028             -25.00     3000.00
04029              15.40     3000.00
04030              25.00     3000.00
04031             -25.00     3200.00
04032             -12.60     3000.00
04033              25.00     3200.00
04034              -2.00     3200.00
04035             -25.00     3200.00
04036              21.00     3200.00
04037              16.60     3400.00
04038             -23.40     3400.00
04039              -1.00     3400.00
04040              25.00     3600.00
04041             -10.60     3600.00
04042             -12.60     3600.00
04043              19.40     3600.00
04044               6.40     3800.00
04045             -17.20     3600.00
04046               9.00     4000.00
04047              13.40     3600.00
04048             -10.20     4000.00
04049              -2.20     3800.00
04050              15.40     3800.00
04051              -1.80     3800.00
04052              -7.60     4000.00
04053               9.80     4000.00
04054               6.00     4000.00
04055              -7.40     4000.00
04056               2.60     4200.00
04057              10.00     4400.00
04058              -2.80     4400.00
04059              -1.80     4200.00
04060               8.20     4200.00
04061               3.00     4400.00
04062              -3.40     4400.00
04063               5.20     4400.00
04064               5.40     4400.00
04065              -1.00     4600.00
04066               1.20     4400.00
04067               6.80     4600.00
04068               1.00     4600.00
04069               0.00     4600.00
04070               4.40     4800.00
04071               4.40     4800.00
04072              -0.20     4800.00
04073               3.00     4800.00
04074               5.00     4800.00
04075               1.80     4800.00
04076               1.60     4800.00
04077               4.60     4800.00
04078               3.40     5200.00
04079               2.00     5000.00
04080               4.20     5000.00
04081               3.80     5200.00
04082               2.60     5200.00
04083               3.20     5200.00
04084               4.20     5400.00
04085               3.00     5200.00
04086               3.40     5400.00
04087               3.80     5200.00
04088               4.00     5400.00
04089               3.00     5400.00
04090               4.20     5400.00
04091               4.20     5400.00
04092               4.00     5400.00
04093               4.20     5600.00
04094               4.80     5400.00
04095               4.20     5600.00
04096               4.40     5600.00
04097               4.60     5600.00
04098               4.60     5600.00
04099               3.80     5800.00
04100               5.00     5600.00
04101               5.20     5600.00
04102               3.80     5800.00
04103               5.20     5600.00
04104               5.80     5800.00
04105               4.60     5800.00
04106               4.80     6000.00
04107               6.60     6000.00
04108               5.20     6000.00
04109               4.80     6000.00
04110               6.20     5800.00
04111               6.00     6000.00
04112               4.60     6000.00
04113               6.00     6000.00
04114               6.60     6000.00
04115               5.80     6000.00
04116               5.20     6000.00
04117               7.00     6000.00
04118               6.60     6000.00
04119               5.80     6200.00
04120               6.60     6000.00
04121               7.40     6200.00
04122               6.00     6200.00
04123               6.60     6200.00
04124               7.80     6200.00
04125               6.80     6200.00
04126               6.80     6200.00
04127               7.80     6200.00
04128               7.80     6200.00
04129               7.60     6200.00
04130               8.00     6200.00
04131               8.00     6200.00
04132               7.80     6200.00
04133               7.80     6200.00
04134               8.40     6400.00
04135               8.60     6400.00
04136               7.80     6400.00
04137               9.00     6400.00
04138               9.00     6400.00
04139               8.60     6400.00
04140               9.20     6400.00
04141               9.80     6400.00
04142               9.40     6400.00
04143               9.60     6400.00
04144               9.80     6400.00
04145              10.20     6400.00
04146              10.20     6600.00
04147               9.80     6400.00
04148              10.40     6400.00
04149              10.20     6400.00
04150              10.60     6400.00
04151              10.80     6400.00
04152              10.60     6400.00
04153              11.00     6400.00
04154              11.60     6600.00
04155              11.00     6400.00
04156              11.00     6400.00
04157              11.40     6400.00
04158              11.60     6600.00
04159              11.60     6400.00
04160              11.60     6400.00
04161              11.80     6400.00
04162              11.60     6600.00
04163              11.40     6600.00
04164              11.00     6400.00
04165              11.60     6400.00
04166              10.60     6400.00
04167              11.00     6400.00
04168              11.40     6400.00
04169               9.80     6400.00
04170              10.60     6400.00
04171              11.40     6400.00
04172               9.00     6400.00
04173               9.20     6400.00
04174              10.60     6400.00
04175               9.00     6400.00
04176               8.60     6400.00
04177               9.40     6400.00
04178               9.00     6400.00
04179               8.20     6400.00
04180               8.60     6400.00
04181               8.40     6200.00
04182               7.60     6400.00
04183               8.20     6400.00
04184               8.20     6200.00
04185               7.60     6400.00
04186               7.40     6200.00
04187               7.80     6200.00
04188               7.40     6200.00
04189               7.00     6400.00
04190               7.40     6200.00
04191               7.40     6200.00
04192               6.20     6200.00
04193               6.20     6200.00
04194               6.80     6200.00
04195               6.60     6200.00
04196               6.20     6000.00
04197               6.20     6000.00
04198               5.80     6200.00
04199               6.20     6000.00
04200               5.80     6000.00
04201               6.00     6000.00
04202               6.00     6000.00
04203               5.40     6200.00
04204               5.80     6000.00
04205               5.80     6000.00
04206               5.20     6000.00
04207               5.20     6000.00
04208               5.60     6000.00
04209               5.20     6000.00
04210               5.00     6000.00
04211               5.00     5800.00
04212               5.80     5800.00
04213               4.80     6000.00
04214               3.80     5800.00
04215               5.20     5600.00
04216               5.00     5600.00
04217               3.60     5600.00
04218               5.80     5600.00
04219               4.60     5800.00
04220               3.60     5600.00
04221               5.00     5600.00
04222               4.20     5600.00
04223               3.20     5400.00
04224               4.60     5600.00
04225               4.40     5400.00
04226               4.00     5600.00
04227               3.60     5600.00
04228               4.20     5400.00
04229               4.40     5400.00
04230               3.40     5400.00
04231               3.00     5400.00
04232               4.20     5200.00
04233               3.60     5200.00
04234               3.00     5200.00
04235               3.60     5200.00
04236               3.80     5200.00
04237               3.00     5200.00
04238               3.40     5000.00
04239               3.60     5000.00
04240               2.60     4800.00
04241               2.80     5000.00
04242               3.60     4800.00
04243               3.00     4800.00
04244               2.60     4600.00
04245               3.40     4600.00
04246               2.80     4800.00
04247               2.00     4600.00
04248               3.00     4600.00
04249               2.80     4600.00
04250               2.20     4600.00
04251               2.60     4600.00
04252               2.60     4600.00
04253               2.20     4600.00
04254               2.20     4400.00
04255               2.60     4400.00
04256               2.60     4400.00
04257               2.20     4400.00
04258               2.00     4400.00
04259               2.20     4400.00
04260               2.00     4200.00
04261               2.00     4000.00
04262               2.00     4000.00
04263               2.20     4000.00
04264               2.00     4000.00
04265               1.80     4000.00
04266               1.80     4000.00
04267               1.80     4000.00
04268               1.40     3800.00
04269               1.40     3800.00
04270               2.00     3800.00
04271               1.80     3800.00
04272               1.40     3800.00
04273               1.80     3800.00
04274               1.80     3600.00
04275               1.40     3600.00
04276               1.80     3600.00
04277               1.80     3400.00
04278               1.20     3400.00
04279               1.60     3400.00
04280               1.40     3400.00
04281               1.20     3200.00
04282               1.60     3200.00
04283               1.20     3200.00
04284               1.40     3000.00
04285               1.80     3200.00
04286               1.40     3000.00
04287               1.20     3000.00
04288               1.40     3000.00
04289               1.00     3000.00
04290               1.20     2800.00
04291               1.20     3000.00
04292               1.20     2800.00
04293               1.40     2600.00
04294               1.00     2800.00
04295               1.00     2600.00
04296               1.20     2400.00
04297               1.00     2400.00
04298               0.80     2400.00
04299               1.20     2400.00
04300               0.60     2200.00
04301               0.60     2400.00
04302               0.60     2200.00
04303               1.00     2200.00
04304               1.00     2200.00
04305               0.40     2000.00
04306               0.80     2000.00
04307               1.00     2000.00
04308               0.40     2000.00
04309               1.00     1800.00
04310               1.00     2000.00
04311               0.20     1800.00
04312               0.40     1800.00
04313               0.40     1600.00
04314               0.20     1600.00
04315               0.20     1800.00
04316               0.40     1800.00
04317               0.40     1400.00
04318               0.00     1400.00
04319               0.60     1200.00
04320               0.20     1400.00
04321               0.20     1200.00
04322               0.40     1200.00
04323               0.20     1200.00
04324               0.20     1200.00
04325               0.20     1200.00
04326               0.20      800.00
04327              -0.20     1000.00
04328               0.20      800.00
04329               0.20      800.00
04330              -0.40      600.00
04331              -0.20      600.00
04332               0.20      600.00
04333              -0.20      600.00
04334              -0.20      600.00
04335              -0.20      400.00
04336              -0.20      400.00
04337              -0.40      400.00
04338               0.20      400.00
04339              -0.40      400.00
04340               0.20      200.00
04341              -0.20      200.00
04342              -0.40        0.00
04343               0.00      200.00
04344              -0.40        0.00
04345              -0.40        0.00
04346               0.20        0.00
04347              -0.40     -200.00
04348              -0.20     -200.00
04349               0.20     -200.00
04350              -0.40     -400.00
04351              -0.60     -200.00
04352               0.20     -200.00
04353               0.20     -400.00
04354               6.20     -400.00
04355              21.20     -800.00
04356             -19.20     -800.00
04357             -25.00     -800.00
04358              25.00     -400.00
04359              25.00     -800.00
04360             -20.40    -1200.00
04361             -25.00     -600.00
04362              25.00     -800.00
04363              25.00     -800.00
04364             -25.00    -1400.00
04365             -25.00     -800.00
04366              25.00    -1200.00
04367              25.00    -1600.00
04368             -25.00    -1000.00
04369             -25.00    -1400.00
04370              25.00    -1600.00
04371              20.40    -1800.00
04372             -25.00    -1000.00
04373              25.00    -2000.00
04374              25.00    -1600.00
04375             -25.00    -1400.00
04376             -14.80    -2000.00
04377              25.00    -2000.00
04378             -25.00    -1600.00
04379             -25.00    -2000.00
04380              25.00    -2000.00
04381              25.00    -2000.00
04382             -25.00    -1800.00
04383              25.00    -2400.00
04384              25.00    -2000.00
04385             -25.00    -2200.00
04386             -25.00    -2200.00
04387              25.00    -2400.00
04388               9.00    -2400.00
04389             -25.00    -2400.00
04390              25.00    -2600.00
04391              25.00    -2400.00
04392             -25.00    -2600.00
04393              -5.00    -2600.00
04394              25.00    -2800.00
04395             -25.00    -2600.00
04396             -25.00    -3000.00
04397              25.00    -2800.00
04398               4.40    -2800.00
04399             -25.00    -2800.00
04400              25.00    -3000.00
04401              25.00    -3200.00
04402             -25.00    -3200.00
04403              -9.40    -3000.00
04404              25.00    -3200.00
04405             -16.60    -3000.00
04406             -25.00    -3400.00
04407              25.00    -3200.00
04408              13.60    -3400.00
04409             -25.00    -3400.00
04410               3.40    -3400.00
04411              25.00    -3400.00
04412             -22.80    -3600.00
04413             -16.60    -3600.00
04414              24.20    -3600.00
04415              -3.20    -3600.00
04416             -24.80    -3600.00
04417              11.00    -3600.00
04418              10.60    -3800.00
04419             -21.80    -4000.00
04420              -2.00    -4000.00
04421              15.00    -4000.00
04422             -11.80    -4000.00
04423             -13.00    -4000.00
04424              11.40    -4000.00
04425              -1.00    -4200.00
04426             -16.00    -4200.00
04427               2.80    -4200.00
04428               6.80    -4200.00
04429             -12.40    -4200.00
04430              -5.20    -4400.00
04431               6.80    -4400.00
04432              -5.40    -4400.00
04433              -9.80    -4400.00
04434               3.40    -4400.00
04435               0.40    -4400.00
04436              -9.40    -4400.00
04437              -2.80    -4400.00
04438               2.40    -4600.00
04439              -6.00    -4800.00
04440              -7.20    -4600.00
04441               0.60    -4600.00
04442              -2.40    -4800.00
04443              -7.40    -4800.00
04444              -2.80    -4800.00
04445              -0.40    -5000.00
04446              -5.80    -5000.00
04447              -5.00    -4800.00
04448              -1.80    -5000.00
04449              -3.80    -5000.00
04450              -5.20    -5000.00
04451              -3.00    -5000.00
04452              -3.60    -5200.00
04453              -4.40    -5200.00
04454              -3.80    -5200.00
04455              -4.40    -5200.00
04456              -4.40    -5200.00
04457              -4.20    -5400.00
04458              -4.40    -5200.00
04459              -4.60    -5400.00
04460              -4.40    -5600.00
04461              -4.20    -5400.00
04462              -4.80    -5600.00
04463              -4.60    -5600.00
04464              -3.80    -5600.00
04465              -5.00    -5600.00
04466              -5.20    -5600.00
04467              -4.60    -5800.00
04468              -4.60    -5800.00
04469              -6.00    -5600.00
04470              -5.00    -5600.00
04471              -4.60    -5800.00
04472              -5.60    -5600.00
04473              -5.40    -5800.00
04474              -4.60    -5800.00
04475              -5.40    -5800.00
04476              -6.20    -6000.00
04477              -5.20    -6000.00
04478              -5.00    -6000.00
04479              -6.20    -6000.00
04480              -6.00    -6000.00
04481              -5.40    -5800.00
04482              -6.20    -6000.00
04483              -7.00    -6000.00
04484              -6.00    -6000.00
04485              -6.20    -6000.00
04486              -7.20    -6000.00
04487              -6.00    -6000.00
04488              -5.80    -6000.00
04489              -7.40    -6000.00
04490              -7.00    -6000.00
04491              -6.00    -6200.00
04492              -7.00    -6200.00
04493              -8.20    -6200.00
04494              -7.00    -6000.00
04495              -6.80    -6200.00
04496              -7.80    -6200.00
04497              -8.60    -6200.00
04498              -7.20    -6400.00
04499              -7.80    -6400.00
04500              -8.60    -6400.00
04501              -7.60    -6400.00
04502              -7.60    -6400.00
04503              -9.40    -6400.00
04504              -8.60    -6400.00
04505              -8.40    -6400.00
04506              -9.40    -6400.00
04507              -9.20    -6400.00
04508              -8.60    -6400.00
04509              -9.40    -6400.00
04510              -9.40    -6400.00
04511              -9.80    -6400.00
04512              -9.60    -6400.00
04513              -9.80    -6400.00
04514             -10.80    -6600.00
04515             -10.20    -6600.00
04516             -10.00    -6400.00
04517             -10.80    -6400.00
04518             -10.60    -6600.00
04519             -10.60    -6400.00
04520             -11.00    -6600.00
04521             -11.40    -6400.00
04522             -11.00    -6600.00
04523             -11.00    -6400.00
04524             -11.60    -6400.00
04525             -11.60    -6400.00
04526             -11.00    -6600.00
04527             -11.80    -6600.00
04528             -12.00    -6600.00
04529             -11.60    -6400.00
04530             -11.80    -6400.00
04531             -12.40    -6400.00
04532             -11.80    -6600.00
04533             -11.60    -6600.00
04534             -12.20    -6600.00
04535             -12.20    -6600.00
04536             -11.60    -6600.00
04537             -11.60    -6400.00
04538             -11.60    -6600.00
04539             -11.40    -6600.00
04540             -11.00    -6400.00
04541             -11.00    -6400.00
04542             -10.80    -6600.00
04543             -10.20    -6400.00
04544             -10.60    -6600.00
04545              -9.80    -6400.00
04546              -9.80    -6400.00
04547             -10.20    -6600.00
04548              -9.20    -6400.00
04549              -9.40    -6400.00
04550             -10.20    -6400.00
04551              -8.60    -6400.00
04552              -8.40    -6600.00
04553              -9.40    -6400.00
04554              -8.40    -6400.00
04555              -7.60    -6400.00
04556              -8.80    -6400.00
04557              -8.40    -6400.00
04558              -7.40    -6400.00
04559              -8.20    -6400.00
04560              -8.40    -6200.00
04561              -7.20    -6400.00
04562              -7.40    -6400.00
04563              -8.20    -6200.00
04564              -7.20    -6400.00
04565              -7.00    -6200.00
04566              -7.40    -6200.00
04567              -7.00    -6200.00
04568              -6.40    -6000.00
04569              -7.00    -6400.00
04570              -6.60    -6200.00
04571              -6.20    -6000.00
04572              -6.80    -6000.00
04573              -6.60    -6000.00
04574              -6.00    -6000.00
04575              -6.40    -6200.00
04576              -6.20    -6000.00
04577              -6.20    -6000.00
04578              -6.20    -6000.00
04579              -6.00    -6000.00
04580              -6.00    -6000.00
04581              -5.60    -6000.00
04582              -5.80    -6000.00
04583              -5.60    -6000.00
04584              -5.40    -5800.00
04585              -5.40    -6000.00
04586              -5.20    -5800.00
04587              -5.40    -5800.00
04588              -5.40    -5800.00
04589              -4.60    -5800.00
04590              -5.40    -5800.00
04591              -5.00    -5600.00
04592              -4.60    -5600.00
04593              -5.20    -5600.00
04594              -5.20    -5600.00
04595              -4.40    -5600.00
04596              -5.00    -5600.00
04597              -5.00    -5600.00
04598              -4.40    -5600.00
04599              -4.20    -5400.00
04600              -4.60    -5400.00
04601              -4.20    -5200.00
04602              -3.80    -5400.00
04603              -4.20    -5200.00
04604              -4.40    -5200.00
04605              -4.00    -5200.00
04606              -3.80    -5200.00
04607              -4.40    -5200.00
04608              -4.20    -5200.00
04609              -3.40    -5000.00
04610              -4.00    -5000.00
04611              -4.20    -5000.00
04612              -2.80    -5000.00
04613              -3.40    -4600.00
04614              -4.20    -5000.00
04615              -3.00    -4800.00
04616              -2.80    -4800.00
04617              -3.80    -4600.00
04618              -3.60    -4800.00
04619              -2.80    -4600.00
04620              -3.20    -4800.00
04621              -3.40    -4600.00
04622              -2.80    -4600.00
04623              -3.00    -4600.00
04624              -3.20    -4400.00
04625              -2.80    -4400.00
04626              -2.80    -4400.00
04627              -3.00    -4400.00
04628              -2.80    -4400.00
04629              -2.60    -4400.00
04630              -2.80    -4200.00
04631              -2.80    -4200.00
04632              -2.40    -4200.00
04633              -2.60    -4200.00
04634              -2.80    -4200.00
04635              -2.80    -4000.00
04636              -2.60    -4000.00
04637              -2.60    -4000.00
04638              -2.80    -4000.00
04639              -2.60    -4000.00
04640              -2.60    -4000.00
04641              -2.80    -3800.00
04642              -2.20    -4000.00
04643              -2.40    -4000.00
04644              -2.60    -3600.00
04645              -2.00    -3600.00
04646              -2.00    -3600.00
04647              -2.60    -3600.00
04648              -2.00    -3400.00
04649              -2.00    -3400.00
04650              -2.20    -3400.00
04651              -2.20    -3400.00
04652              -2.00    -3400.00
04653              -2.00    -3400.00
04654              -2.00    -3200.00
04655              -2.20    -3200.00
04656              -2.00    -3200.00
04657              -2.00    -3200.00
04658              -1.80    -3200.00
04659              -2.00    -3000.00
04660              -2.20    -3000.00
04661              -1.80    -2800.00
04662              -1.40    -2800.00
04663              -1.80    -2800.00
04664              -1.60    -2800.00
04665              -1.20    -2800.00
04666              -1.40    -2600.00
04667              -1.40    -2600.00
04668              -1.40    -2600.00
04669              -1.80    -2400.00
04670              -1.20    -2600.00
04671              -1.20    -2400.00
04672              -1.60    -2400.00
04673              -1.20    -2400.00
04674              -1.00    -2200.00
04675              -1.20    -2400.00
04676              -1.20    -2200.00
04677              -1.20    -2000.00
04678              -1.00    -2200.00
04679              -1.00    -2000.00
04680              -1.20    -2000.00
04681              -0.80    -1800.00
04682              -1.00    -2000.00
04683              -1.20    -1800.00
04684              -1.00    -1800.00
04685              -1.00    -1800.00
04686              -1.20    -1600.00
04687              -0.60    -1600.00
04688              -1.20    -1600.00
04689              -0.60    -1600.00
04690              -1.00    -1400.00
04691              -0.60    -1600.00
04692              -0.40    -1200.00
04693              -1.00    -1200.00
04694              -0.80    -1200.00
04695              -0.20    -1200.00
04696              -1.00    -1200.00
04697              -0.80    -1000.00
04698              -0.20    -1000.00
04699              -1.00    -1000.00
04700              -0.60    -1000.00
04701              -0.40     -800.00
04702              -1.20     -800.00
04703              -0.60     -800.00
04704              -0.40     -800.00
04705              -0.80     -600.00
04706              -0.60     -800.00
04707              -1.00     -600.00
04708              -0.40     -400.00
04709              -0.20     -400.00
04710              -1.00     -400.00
04711              -0.40     -400.00
04712               0.20     -200.00
04713              -0.80     -200.00
04714              -1.00     -200.00
04715               0.20        0.00
04716              -0.60        0.00
04717              -0.60        0.00
04718               0.40        0.00
04719              -0.40        0.00
04720              -0.20        0.00
04721               0.80      200.00
04722              -1.20      200.00
04723              -0.40      400.00
04724               0.60      400.00
04725               0.40      400.00
04726               3.60      400.00
04727              13.00      600.00
04728              -8.40      800.00
04729             -25.00      400.00
04730              -2.80      600.00
04731              25.00     1000.00
04732               5.80      800.00
04733             -25.00     1000.00
04734              24.40      400.00
04735              25.00     1600.00
04736             -25.00      600.00
04737             -25.00     1400.00
04738              25.00      800.00
04739              25.00     1400.00
04740             -25.00     1200.00
04741               9.40     1400.00
04742              25.00     1200.00
04743             -25.00     1400.00
04744             -25.00     1600.00
04745              25.00     1800.00
04746              25.00     1400.00
04747             -25.00     2000.00
04748              25.00     1600.00
04749              25.00     1800.00
04750             -25.00     1800.00
04751             -25.00     2200.00
04752              25.00     1600.00
04753              -0.40     2000.00
04754             -25.00     2000.00
04755              25.00     2000.00
04756              25.00     2000.00
04757             -25.00     2200.00
04758             -21.40     2200.00
04759              25.00     2000.00
04760             -11.80     2400.00
04761             -25.00     2200.00
04762              25.00     2400.00
04763              25.00     2400.00
04764             -25.00     2400.00
04765              10.40     2400.00
04766              25.00     2800.00
04767             -25.00     2600.00
04768             -25.00     2800.00
04769              25.00     2600.00
04770              -4.60     3000.00
04771             -25.00     2800.00
04772              25.00     3000.00
04773              22.80     2800.00
04774             -25.00     3200.00
04775               3.40     3000.00
04776              25.00     3000.00
04777             -17.60     3200.00
04778             -17.00     3200.00
04779              25.00     3200.00
04780               4.60     3200.00
04781             -24.40     3400.00
04782              11.40     3200.00
04783              19.80     3600.00
04784             -18.00     3400.00
04785              -3.60     3600.00
04786              20.60     3600.00
04787              -3.00     3800.00
04788             -13.40     3600.00
04789              14.80     3600.00
04790               6.80     3600.00
04791             -11.80     3800.00
04792               4.20     3800.00
04793              13.40     4000.00
04794              -7.00     3800.00
04795              -2.80     4000.00
04796              11.60     4000.00
04797               1.80     4000.00
04798              -7.00     4000.00
04799               7.40     4200.00
04800               7.20     4200.00
04801              -4.40     4400.00
04802               1.40     4400.00
04803               8.40     4400.00
04804              -0.20     4400.00
04805              -1.80     4400.00
04806               6.80     4400.00
04807               3.40     4400.00
04808              -1.40     4400.00
04809               3.40     4600.00
04810               5.80     4600.00
04811               0.20     4600.00
04812               1.80     4600.00
04813               5.00     4800.00
04814               3.20     4800.00
04815               0.60     4800.00
04816               4.40     4800.00
04817               3.80     5000.00
04818               2.00     5000.00
04819               2.60     5000.00
04820               5.00     5200.00
04821               2.60     5000.00
04822               2.60     5200.00
04823               4.20     5000.00
04824               3.60     5200.00
04825               2.60     5200.00
04826               4.20     5200.00
04827               3.60     5400.00
04828               3.20     5200.00
04829               3.80     5400.00
04830               3.80     5200.00
04831               3.80     5400.00
04832               3.80     5400.00
04833               4.40     5400.00
04834               3.60     5400.00
04835               4.00     5400.00
04836               4.40     5400.00
04837               4.60     5600.00
04838               3.60     5400.00
04839               4.80     5600.00
04840               4.40     5600.00
04841               4.20     5800.00
04842               4.20     5600.00
04843               5.20     5600.00
04844               4.20     5800.00
04845               4.60     5600.00
04846               5.40     5800.00
04847               5.20     5800.00
04848               4.20     5800.00
04849               5.40     5800.00
04850               6.00     5800.00
04851               5.00     6000.00
04852               5.20     6000.00
04853               6.20     6000.00
04854               5.80     6000.00
04855               5.00     6000.00
04856               6.20     6000.00
04857               6.60     6000.00
04858               5.60     6000.00
04859               6.00     6000.00
04860               7.20     6200.00
04861               6.20     6200.00
04862               6.20     6000.00
04863               7.00     6200.00
04864               6.80     6200.00
04865               6.00     6200.00
04866               7.40     6200.00
04867               7.80     6200.00
04868               6.60     6200.00
04869               7.40     6200.00
04870               8.40     6200.00
04871               7.40     6200.00
04872               6.60     6200.00
04873               8.40     6200.00
04874               8.40     6400.00
04875               7.80     6400.00
04876               8.20     6200.00
04877               9.00     6400.00
04878               8.40     6400.00
04879               8.40     6400.00
04880               9.40     6400.00
04881               9.00     6400.00
04882               8.60     6200.00
04883               9.80     6400.00
04884               9.20     6400.00
04885               9.40     6200.00
04886               9.80     6400.00
04887              10.00     6400.00
04888              10.00     6200.00
04889              10.00     6400.00
04890              10.00     6400.00
04891              11.00     6400.00
04892              10.00     6400.00
04893              10.60     6400.00
04894              11.20     6400.00
04895              11.00     6400.00
04896              10.40     6400.00
04897              10.80     6400.00
04898              11.40     6600.00
04899              10.80     6400.00
04900              11.00     6400.00
04901              11.60     6400.00
04902              11.60     6400.00
04903              11.40     6400.00
04904              12.20     6400.00
04905              13.00     6400.00
04906               6.60     6400.00
04907              13.80     6400.00
04908              11.80     6400.00
04909               2.80     6400.00
04910              16.40     6400.00
04911              10.20     6400.00
04912              14.00     6400.00
04913              11.60     6400.00
04914               8.60     6400.00
04915               9.80     6400.00
04916               7.60     6400.00
04917               7.00     6400.00
04918               7.00     6400.00
04919               8.40     6400.00
04920              13.20     6400.00
04921              11.80     6400.00
04922               7.60     6400.00
04923              11.00     6200.00
04924               4.60     6400.00
04925               8.60     6200.00
04926               3.40     6400.00
04927               6.20     6400.00
04928              12.20     6200.00
04929               7.80     6400.00
04930               7.80     6200.00
04931               9.80     6200.00
04932               6.80     6400.00
04933               5.20     6200.00
04934               6.00     6200.00
04935               6.60     6200.00
04936               6.80     6200.00
04937               5.80     6000.00
04938               7.80     6200.00
04939               6.80     6000.00
04940               7.40     6200.00
04941               5.80     6200.00
04942               7.40     6200.00
04943               5.20     6000.00
04944               5.20     6200.00
04945               6.60     6000.00
04946               5.00     6000.00
04947               5.20     6000.00
04948               6.00     6000.00
04949               6.00     6000.00
04950               5.80     6000.00
04951               6.60     6000.00
04952               4.40     5800.00
04953               4.40     5800.00
04954               6.20     5800.00
04955               3.60     5800.00
04956               4.20     5800.00
04957               5.60     5600.00
04958               5.20     5600.00
04959               4.60     6000.00
04960               5.60     5600.00
04961               4.60     5600.00
04962               4.20     5600.00
04963               4.40     5400.00
04964               3.40     5600.00
04965               4.00     5600.00
04966               3.80     5600.00
04967               3.80     5400.00
04968               3.80     5600.00
04969               4.40     5400.00
04970               3.80     5400.00
04971               4.20     5400.00
04972               3.60     5400.00
04973               3.40     5200.00
04974               3.00     5200.00
04975               3.00     5200.00
04976               3.60     5400.00
04977               3.60     5200.00
04978               3.40     5200.00
04979               3.60     5000.00
04980               3.40     5200.00
04981               3.00     5000.00
04982               2.60     4800.00
04983               2.80     5000.00
04984               2.60     4800.00
04985               2.80     5000.00
04986               3.00     4800.00
04987               3.00     4800.00
04988               3.00     4800.00
04989               2.60     4600.00
04990               3.00     4600.00
04991               2.60     4600.00
04992               2.20     4600.00
04993               2.60     4600.00
04994               2.80     4600.00
04995               2.20     4400.00
04996               2.60     4600.00
04997               2.60     4400.00
04998               2.40     4400.00
04999               2.60     4400.00
05000               2.80     4400.00
