Unit:(mV)
                     CH1         CH2
Frequency              ? 134.773 kHz
00001              -4.00    -6600.00
00002              -4.40    -6600.00
00003              -4.60    -6600.00
00004              -4.00    -6600.00
00005              -4.20    -6800.00
00006              -5.00    -6800.00
00007              -4.60    -6800.00
00008              -4.40    -6800.00
00009              -5.00    -6800.00
00010              -5.20    -7000.00
00011              -4.40    -7000.00
00012              -4.60    -7000.00
00013              -5.40    -7000.00
00014              -5.20    -7200.00
00015              -5.20    -7200.00
00016              -5.40    -7200.00
00017              -5.40    -7200.00
00018              -5.20    -7200.00
00019              -5.80    -7200.00
00020              -5.80    -7400.00
00021              -5.80    -7200.00
00022              -5.40    -7400.00
00023              -6.20    -7400.00
00024              -6.40    -7400.00
00025              -5.80    -7400.00
00026              -6.20    -7400.00
00027              -7.00    -7400.00
00028              -6.20    -7600.00
00029              -6.20    -7600.00
00030              -7.60    -7600.00
00031              -7.20    -7600.00
00032              -6.60    -7600.00
00033              -7.40    -7800.00
00034              -7.60    -7800.00
00035              -6.80    -7600.00
00036              -7.00    -7600.00
00037              -8.60    -7800.00
00038              -7.60    -7800.00
00039              -7.40    -7600.00
00040              -8.60    -8000.00
00041              -8.40    -8000.00
00042              -7.60    -8000.00
00043              -9.00    -8000.00
00044              -9.20    -7800.00
00045              -8.60    -8000.00
00046              -8.60    -8000.00
00047              -9.80    -8000.00
00048              -9.40    -8000.00
00049              -9.40    -8000.00
00050             -10.00    -8000.00
00051             -10.00    -8000.00
00052              -9.40    -8200.00
00053             -10.80    -8000.00
00054             -11.40    -8000.00
00055             -10.20    -8200.00
00056             -10.40    -8200.00
00057             -12.20    -8000.00
00058             -11.20    -8200.00
00059             -11.00    -8200.00
00060             -12.40    -8000.00
00061             -12.40    -8000.00
00062             -11.40    -8200.00
00063             -12.60    -8200.00
00064             -13.40    -8200.00
00065             -12.20    -8200.00
00066             -13.20    -8200.00
00067             -14.20    -8200.00
00068             -13.60    -8200.00
00069             -13.80    -8200.00
00070             -14.80    -8200.00
00071             -14.60    -8400.00
00072             -14.00    -8200.00
00073             -15.00    -8200.00
00074             -15.20    -8400.00
00075             -14.60    -8400.00
00076             -15.20    -8200.00
00077             -15.60    -8200.00
00078             -15.00    -8200.00
00079             -15.40    -8200.00
00080             -15.60    -8200.00
00081             -15.60    -8200.00
00082             -15.60    -8200.00
00083             -15.40    -8400.00
00084             -14.80    -8200.00
00085             -14.60    -8200.00
00086             -14.20    -8200.00
00087             -14.00    -8200.00
00088             -13.40    -8200.00
00089             -13.40    -8400.00
00090             -13.00    -8200.00
00091             -12.60    -8200.00
00092             -12.00    -8000.00
00093             -12.20    -8200.00
00094             -11.80    -8200.00
00095             -11.60    -8200.00
00096             -11.20    -8200.00
00097             -10.80    -8000.00
00098             -11.00    -8000.00
00099             -10.60    -8200.00
00100             -10.20    -8200.00
00101             -10.20    -8200.00
00102             -10.00    -8200.00
00103              -9.80    -8000.00
00104              -9.60    -8000.00
00105              -9.20    -8000.00
00106              -9.00    -8000.00
00107              -8.80    -8200.00
00108              -9.00    -8000.00
00109              -8.60    -8000.00
00110              -8.40    -8000.00
00111              -8.20    -8000.00
00112              -8.60    -8000.00
00113              -8.20    -7600.00
00114              -7.40    -8000.00
00115              -8.40    -8000.00
00116              -7.80    -7800.00
00117              -7.00    -7800.00
00118              -7.20    -7600.00
00119              -7.60    -7800.00
00120              -6.60    -7600.00
00121              -6.80    -7800.00
00122              -7.20    -7600.00
00123              -6.60    -7600.00
00124              -6.20    -7600.00
00125              -6.80    -7600.00
00126              -6.80    -7600.00
00127              -5.80    -7400.00
00128              -6.20    -7400.00
00129              -6.20    -7400.00
00130              -5.80    -7400.00
00131              -5.80    -7200.00
00132              -6.00    -7400.00
00133              -5.60    -7400.00
00134              -5.40    -7200.00
00135              -5.40    -7200.00
00136              -5.40    -7200.00
00137              -5.40    -7200.00
00138              -5.40    -7200.00
00139              -5.40    -7200.00
00140              -5.20    -7200.00
00141              -5.20    -7200.00
00142              -5.00    -7000.00
00143              -5.00    -7000.00
00144              -4.60    -7000.00
00145              -4.60    -6800.00
00146              -5.00    -7000.00
00147              -4.40    -6800.00
00148              -4.60    -6800.00
00149              -4.40    -6800.00
00150              -4.40    -6600.00
00151              -4.60    -6600.00
00152              -4.40    -6600.00
00153              -3.80    -6600.00
00154              -4.40    -6600.00
00155              -4.20    -6400.00
00156              -3.80    -6400.00
00157              -4.40    -6400.00
00158              -3.80    -6400.00
00159              -4.00    -6400.00
00160              -3.80    -6400.00
00161              -3.80    -6200.00
00162              -4.20    -6000.00
00163              -2.80    -6200.00
00164              -3.80    -6200.00
00165              -3.80    -6000.00
00166              -2.60    -6000.00
00167              -3.40    -6000.00
00168              -3.80    -5800.00
00169              -2.80    -5800.00
00170              -3.20    -5800.00
00171              -3.00    -5800.00
00172              -3.00    -5600.00
00173              -3.00    -5800.00
00174              -2.20    -5600.00
00175              -2.80    -5600.00
00176              -3.60    -5600.00
00177              -2.00    -5600.00
00178              -2.60    -5600.00
00179              -4.40    -5200.00
00180              -2.20    -5200.00
00181              -1.80    -5200.00
00182              -4.00    -5200.00
00183              -2.20    -5000.00
00184              -0.40    -5000.00
00185              -3.00    -5000.00
00186              -3.20    -5000.00
00187              -1.60    -5000.00
00188              -2.00    -4600.00
00189              -2.60    -4800.00
00190              -3.60    -4600.00
00191              -0.80    -4600.00
00192              -1.20    -4600.00
00193              -5.20    -4400.00
00194              -1.80    -4400.00
00195              -0.40    -4400.00
00196              -3.40    -4400.00
00197              -2.00    -4400.00
00198              -1.60    -4400.00
00199              -0.60    -4200.00
00200              -3.60    -4200.00
00201              -2.00    -4200.00
00202              -0.20    -4200.00
00203              -4.00    -4000.00
00204              -2.00    -4000.00
00205              -0.80    -4000.00
00206              -1.80    -3800.00
00207              -3.40    -3600.00
00208              -1.20    -3800.00
00209               0.60    -3600.00
00210              -4.40    -3600.00
00211              -1.60    -3400.00
00212               0.20    -3400.00
00213              -2.00    -3400.00
00214              -2.40    -3400.00
00215              -2.00    -3200.00
00216              -0.20    -3200.00
00217              -2.00    -3000.00
00218              -2.80    -3000.00
00219               0.60    -3000.00
00220              -1.80    -3000.00
00221              -2.80    -2800.00
00222              -0.40    -2800.00
00223              -0.60    -2800.00
00224              -2.80    -2600.00
00225              -1.20    -2600.00
00226              -0.60    -2400.00
00227              -2.20    -2400.00
00228              -1.20    -2400.00
00229              -0.20    -2400.00
00230              -1.20    -2400.00
00231              -1.80    -2400.00
00232              -0.20    -2200.00
00233              -0.60    -2000.00
00234              -2.00    -2000.00
00235              -0.40    -2000.00
00236              -0.20    -1800.00
00237              -2.00    -1800.00
00238              -1.20    -1800.00
00239              -0.40    -1600.00
00240              -1.20    -1600.00
00241              -1.00    -1600.00
00242               0.00    -1400.00
00243              -1.00    -1200.00
00244              -1.20    -1400.00
00245              -0.40    -1200.00
00246              -0.40    -1200.00
00247              -0.80    -1200.00
00248              -0.60    -1000.00
00249              -0.60    -1000.00
00250              -0.40    -1000.00
00251              -0.60    -1000.00
00252              -1.00     -800.00
00253              -0.60     -800.00
00254              -0.60     -600.00
00255              -0.40     -400.00
00256              -0.40     -400.00
00257               0.40     -400.00
00258               0.20     -400.00
00259              -1.20     -200.00
00260              -1.00     -200.00
00261               0.60     -200.00
00262              -0.40     -200.00
00263              -1.40        0.00
00264               0.60        0.00
00265               0.60        0.00
00266              -1.20        0.00
00267               0.60      200.00
00268               1.40      200.00
00269              -2.00      400.00
00270              -0.80      400.00
00271               1.80      400.00
00272               0.20      400.00
00273               1.20      600.00
00274              14.20      800.00
00275               2.20      800.00
00276             -25.00      800.00
00277             -21.00      800.00
00278              25.00      800.00
00279              25.00     1400.00
00280             -25.00     1000.00
00281             -25.00     1200.00
00282              25.00     1400.00
00283              25.00     1400.00
00284             -25.00     1400.00
00285              19.60     1400.00
00286              25.00     2000.00
00287             -25.00     1200.00
00288             -25.00     2000.00
00289              25.00     1800.00
00290              17.20     1600.00
00291             -25.00     2000.00
00292              25.00     2200.00
00293              25.00     1800.00
00294             -25.00     2200.00
00295              -2.80     2200.00
00296              25.00     2000.00
00297             -25.00     2200.00
00298             -25.00     2400.00
00299              25.00     2200.00
00300              25.00     2400.00
00301             -25.00     2800.00
00302             -25.00     2400.00
00303              25.00     2600.00
00304             -13.80     3000.00
00305             -25.00     3000.00
00306              25.00     2800.00
00307              25.00     3000.00
00308             -25.00     3000.00
00309              25.00     3000.00
00310              25.00     3200.00
00311             -25.00     3200.00
00312             -16.20     3200.00
00313              25.00     3400.00
00314             -12.20     3400.00
00315             -25.00     3600.00
00316              25.00     3600.00
00317              20.20     3600.00
00318             -25.00     3800.00
00319               6.60     3600.00
00320              25.00     3800.00
00321             -21.00     3800.00
00322             -11.20     4000.00
00323              25.00     3800.00
00324              -0.20     4000.00
00325             -20.20     4000.00
00326              15.40     4000.00
00327              13.40     4200.00
00328             -17.00     4400.00
00329              -0.40     4400.00
00330              18.80     4400.00
00331              -6.80     4400.00
00332              -8.60     4400.00
00333              14.20     4600.00
00334               4.20     4800.00
00335             -11.00     4600.00
00336               6.20     4800.00
00337              10.00     4800.00
00338              -6.80     4800.00
00339              -0.40     4800.00
00340              10.60     5000.00
00341              -0.40     4800.00
00342              -4.60     5200.00
00343               7.20     5200.00
00344               4.20     5200.00
00345              -3.80     5400.00
00346               2.20     5400.00
00347               7.40     5400.00
00348              -0.80     5400.00
00349              -0.40     5400.00
00350               5.20     5600.00
00351               3.00     5600.00
00352              -0.60     5600.00
00353               3.60     5600.00
00354               5.00     5800.00
00355               0.80     5600.00
00356               1.00     5800.00
00357               5.00     5800.00
00358               2.60     6000.00
00359               0.80     6000.00
00360               3.60     6000.00
00361               4.20     6000.00
00362               1.80     6200.00
00363               2.60     6200.00
00364               4.20     6200.00
00365               2.60     6400.00
00366               3.00     6400.00
00367               3.80     6200.00
00368               3.60     6400.00
00369               3.40     6400.00
00370               3.40     6600.00
00371               3.60     6800.00
00372               3.80     6600.00
00373               3.40     6600.00
00374               3.80     6800.00
00375               4.20     6800.00
00376               3.80     6800.00
00377               3.80     6800.00
00378               4.20     6800.00
00379               4.20     7000.00
00380               4.40     6800.00
00381               4.20     7000.00
00382               4.40     6800.00
00383               5.20     7000.00
00384               4.60     7000.00
00385               4.40     7000.00
00386               5.20     7200.00
00387               5.00     7200.00
00388               4.60     7200.00
00389               5.40     7200.00
00390               5.20     7200.00
00391               5.00     7200.00
00392               5.40     7200.00
00393               5.60     7400.00
00394               5.40     7200.00
00395               5.40     7600.00
00396               5.80     7400.00
00397               6.00     7600.00
00398               6.00     7600.00
00399               6.00     7600.00
00400               6.20     7600.00
00401               6.60     7800.00
00402               6.20     7600.00
00403               6.60     7600.00
00404               6.80     7600.00
00405               6.60     7600.00
00406               6.60     7600.00
00407               7.40     7800.00
00408               7.40     7800.00
00409               7.00     7800.00
00410               7.60     7800.00
00411               7.80     7800.00
00412               7.80     7800.00
00413               7.80     8000.00
00414               8.60     8200.00
00415               8.20     8000.00
00416               8.40     8000.00
00417               9.00     7800.00
00418               8.60     8000.00
00419               8.60     8000.00
00420               9.00     8000.00
00421               9.40     8200.00
00422               9.80     8200.00
00423              10.00     8000.00
00424               9.80     8000.00
00425              10.20     8200.00
00426              10.80     8000.00
00427              10.80     8200.00
00428              10.80     8000.00
00429              11.60     8200.00
00430              10.80     8200.00
00431              11.80     8200.00
00432              11.80     8000.00
00433              11.80     8200.00
00434              13.00     8000.00
00435              12.80     8200.00
00436              12.40     8200.00
00437              13.20     8200.00
00438              13.40     8200.00
00439              13.00     8400.00
00440              13.40     8200.00
00441              14.20     8200.00
00442              14.60     8400.00
00443              13.60     8200.00
00444              14.80     8200.00
00445              15.40     8200.00
00446              14.40     8200.00
00447              14.20     8400.00
00448              16.00     8200.00
00449              15.00     8200.00
00450              14.60     8400.00
00451              15.80     8400.00
00452              15.00     8400.00
00453              14.20     8200.00
00454              14.80     8200.00
00455              14.80     8200.00
00456              13.20     8200.00
00457              13.60     8400.00
00458              14.00     8200.00
00459              12.60     8200.00
00460              12.20     8200.00
00461              12.60     8200.00
00462              11.80     8000.00
00463              11.80     8200.00
00464              11.60     8200.00
00465              11.00     8200.00
00466              11.00     8200.00
00467              10.60     8000.00
00468              10.00     8200.00
00469              10.00     8200.00
00470               9.80     8000.00
00471               9.80     8200.00
00472               9.40     8000.00
00473               9.20     8200.00
00474               9.40     8000.00
00475               9.00     8000.00
00476               9.00     8000.00
00477               8.40     8000.00
00478               8.40     8000.00
00479               8.40     8000.00
00480               8.20     8200.00
00481               7.80     7800.00
00482               7.60     7800.00
00483               7.60     7800.00
00484               7.20     7800.00
00485               6.80     7800.00
00486               7.40     7800.00
00487               7.20     7800.00
00488               7.00     7800.00
00489               6.80     7800.00
00490               6.60     7800.00
00491               6.80     7600.00
00492               6.60     7600.00
00493               6.20     7600.00
00494               6.60     7600.00
00495               5.80     7600.00
00496               5.80     7600.00
00497               6.80     7600.00
00498               5.40     7600.00
00499               5.60     7400.00
00500               6.60     7400.00
00501               5.20     7200.00
00502               5.00     7600.00
00503               5.80     7200.00
00504               5.40     7400.00
00505               5.00     7200.00
00506               5.40     7200.00
00507               5.20     7200.00
00508               4.60     7200.00
00509               5.00     7200.00
00510               4.80     7200.00
00511               4.40     7000.00
00512               4.40     7000.00
00513               4.60     7000.00
00514               4.20     6800.00
00515               4.20     6800.00
00516               4.40     6800.00
00517               4.40     6800.00
00518               4.00     6800.00
00519               3.60     6800.00
00520               4.60     6800.00
00521               4.20     6800.00
00522               3.40     6600.00
00523               3.80     6600.00
00524               4.40     6600.00
00525               3.20     6400.00
00526               2.80     6400.00
00527               4.20     6400.00
00528               3.00     6400.00
00529               2.60     6400.00
00530               3.60     6400.00
00531               3.40     6200.00
00532               2.60     6400.00
00533               3.00     6200.00
00534               3.60     6200.00
00535               2.60     6200.00
00536               2.60     6200.00
00537               3.00     6000.00
00538               3.00     6000.00
00539               2.60     6000.00
00540               2.60     5800.00
00541               2.60     5600.00
00542               2.60     5600.00
00543               2.40     5600.00
00544               2.00     5600.00
00545               2.80     5600.00
00546               2.60     5400.00
00547               2.20     5600.00
00548               1.80     5400.00
00549               2.60     5400.00
00550               2.40     5400.00
00551               2.00     5400.00
00552               2.20     5200.00
00553               2.60     5200.00
00554               2.20     5000.00
00555               2.00     5200.00
00556               2.00     5000.00
00557               2.20     4800.00
00558               1.80     4800.00
00559               1.80     4800.00
00560               2.00     4800.00
00561               2.00     4600.00
00562               1.60     4600.00
00563               1.80     4600.00
00564               2.00     4600.00
00565               1.80     4600.00
00566               2.00     4400.00
00567               2.00     4400.00
00568               1.80     4400.00
00569               1.40     4400.00
00570               1.40     4200.00
00571               1.80     4000.00
00572               1.40     3800.00
00573               1.00     4000.00
00574               1.40     4000.00
00575               1.80     4000.00
00576               1.20     3800.00
00577               1.20     3800.00
00578               1.40     3800.00
00579               1.20     3600.00
00580               1.00     3600.00
00581               1.20     3600.00
00582               1.40     3400.00
00583               1.20     3400.00
00584               1.00     3200.00
00585               1.00     3200.00
00586               1.00     3200.00
00587               1.00     3200.00
00588               1.00     3200.00
00589               1.00     3000.00
00590               0.60     3000.00
00591               0.40     3000.00
00592               0.40     2800.00
00593               0.60     2800.00
00594               0.40     2800.00
00595               0.40     2800.00
00596               1.00     2600.00
00597               1.00     2600.00
00598               0.40     2400.00
00599               0.40     2400.00
00600               0.60     2400.00
00601               0.40     2200.00
00602               0.40     2200.00
00603               0.40     2000.00
00604               0.40     2200.00
00605               0.20     2000.00
00606               0.20     1800.00
00607               0.40     2000.00
00608               0.20     1800.00
00609               0.20     1600.00
00610               0.40     1400.00
00611               0.40     1400.00
00612               0.20     1400.00
00613               0.20     1400.00
00614               0.20     1400.00
00615              -0.20     1200.00
00616               0.20     1400.00
00617               0.40     1200.00
00618              -0.20     1000.00
00619               0.20     1000.00
00620               0.40     1200.00
00621              -0.60     1000.00
00622              -0.20      800.00
00623               0.40      800.00
00624              -1.00      600.00
00625               0.20      600.00
00626               0.60      600.00
00627              -0.60      600.00
00628              -0.40      400.00
00629               0.40      400.00
00630              -0.60      400.00
00631              -0.40      200.00
00632               0.40      200.00
00633              -0.40        0.00
00634              -0.60        0.00
00635              -0.20     -200.00
00636              -0.20     -200.00
00637              -0.20     -200.00
00638               0.60     -200.00
00639              -0.20     -200.00
00640              -1.20     -400.00
00641               0.40     -400.00
00642               0.00     -400.00
00643               0.20     -400.00
00644              15.00     -800.00
00645              17.40    -1000.00
00646             -25.00    -1200.00
00647             -25.00    -1000.00
00648              25.00     -800.00
00649              25.00    -1000.00
00650             -25.00    -1600.00
00651             -25.00     -800.00
00652              25.00    -1400.00
00653              25.00    -1400.00
00654             -25.00    -1600.00
00655             -25.00    -1200.00
00656              25.00    -1600.00
00657              25.00    -2000.00
00658             -25.00    -1000.00
00659              25.00    -2200.00
00660              25.00    -1800.00
00661             -25.00    -1800.00
00662             -25.00    -2000.00
00663              25.00    -2000.00
00664              13.20    -2000.00
00665             -25.00    -2000.00
00666              25.00    -2400.00
00667              25.00    -2200.00
00668             -25.00    -2200.00
00669              -1.40    -2600.00
00670              25.00    -2400.00
00671             -25.00    -2400.00
00672             -25.00    -2600.00
00673              25.00    -2800.00
00674              25.00    -2800.00
00675             -25.00    -2800.00
00676              19.60    -3000.00
00677              25.00    -2800.00
00678             -25.00    -2800.00
00679             -25.00    -3200.00
00680              25.00    -3200.00
00681             -19.00    -3200.00
00682             -25.00    -3400.00
00683              25.00    -3400.00
00684              25.00    -3400.00
00685             -25.00    -3400.00
00686               3.00    -3600.00
00687              25.00    -3600.00
00688             -25.00    -3600.00
00689             -25.00    -3800.00
00690              25.00    -3800.00
00691               0.60    -3800.00
00692             -25.00    -4000.00
00693              19.80    -4000.00
00694              25.00    -4000.00
00695             -25.00    -4000.00
00696              -8.20    -4200.00
00697              25.00    -4200.00
00698             -13.40    -4200.00
00699             -24.80    -4400.00
00700              21.00    -4400.00
00701               5.40    -4400.00
00702             -25.00    -4600.00
00703               4.60    -4800.00
00704              15.80    -4600.00
00705             -17.00    -4800.00
00706             -10.20    -4600.00
00707              15.40    -4800.00
00708              -5.20    -4600.00
00709             -16.20    -5000.00
00710               9.00    -5000.00
00711               4.20    -5000.00
00712             -15.60    -5000.00
00713              -1.00    -5000.00
00714               8.20    -5200.00
00715              -9.60    -5200.00
00716              -8.40    -5200.00
00717               6.80    -5400.00
00718              -2.00    -5400.00
00719             -10.80    -5600.00
00720               1.00    -5600.00
00721               2.00    -5600.00
00722              -8.60    -5600.00
00723              -4.60    -5600.00
00724               3.00    -5600.00
00725              -3.80    -5800.00
00726              -7.80    -5800.00
00727              -0.40    -5800.00
00728              -0.60    -6000.00
00729              -7.00    -6000.00
00730              -4.20    -6000.00
00731              -0.40    -6000.00
00732              -4.60    -6000.00
00733              -5.40    -6200.00
00734              -1.80    -6200.00
00735              -3.00    -6400.00
00736              -5.40    -6400.00
00737              -3.80    -6400.00
00738              -2.60    -6400.00
00739              -3.80    -6400.00
00740              -4.40    -6600.00
00741              -3.80    -6600.00
00742              -4.00    -6600.00
00743              -4.20    -6600.00
00744              -4.40    -6800.00
00745              -4.40    -6800.00
00746              -4.20    -6600.00
00747              -4.40    -6800.00
00748              -5.00    -6800.00
00749              -4.40    -6800.00
00750              -4.20    -6800.00
00751              -5.20    -7000.00
00752              -5.00    -7000.00
00753              -3.80    -7000.00
00754              -5.00    -7000.00
00755              -5.40    -7200.00
00756              -5.00    -7200.00
00757              -5.00    -7200.00
00758              -5.40    -7200.00
00759              -5.80    -7200.00
00760              -5.20    -7200.00
00761              -5.20    -7400.00
00762              -6.20    -7400.00
00763              -5.40    -7200.00
00764              -5.40    -7400.00
00765              -6.20    -7400.00
00766              -6.00    -7400.00
00767              -5.40    -7400.00
00768              -6.00    -7600.00
00769              -6.60    -7400.00
00770              -6.20    -7400.00
00771              -6.00    -7600.00
00772              -7.60    -7600.00
00773              -7.20    -7800.00
00774              -6.00    -7600.00
00775              -7.40    -7600.00
00776              -7.80    -7800.00
00777              -6.40    -7600.00
00778              -7.00    -7600.00
00779              -8.40    -7600.00
00780              -7.40    -8000.00
00781              -7.00    -7800.00
00782              -8.60    -8000.00
00783              -8.40    -8000.00
00784              -7.60    -8000.00
00785              -8.60    -8000.00
00786              -9.40    -8000.00
00787              -9.00    -8000.00
00788              -8.60    -8000.00
00789              -9.80    -8000.00
00790              -9.60    -8000.00
00791              -9.20    -8000.00
00792             -10.60    -8000.00
00793             -10.00    -8200.00
00794              -9.80    -8200.00
00795             -11.40    -8200.00
00796             -10.80    -8000.00
00797             -10.80    -8200.00
00798             -11.00    -8200.00
00799             -11.60    -8200.00
00800             -11.40    -8200.00
00801             -12.00    -8200.00
00802             -11.80    -8200.00
00803             -12.20    -8200.00
00804             -12.60    -8400.00
00805             -12.40    -8200.00
00806             -13.40    -8200.00
00807             -13.20    -8200.00
00808             -13.40    -8400.00
00809             -13.80    -8200.00
00810             -13.80    -8200.00
00811             -14.00    -8400.00
00812             -14.00    -8200.00
00813             -14.60    -8200.00
00814             -14.80    -8200.00
00815             -14.80    -8200.00
00816             -15.00    -8200.00
00817             -15.00    -8200.00
00818             -14.80    -8200.00
00819             -15.00    -8200.00
00820             -15.60    -8400.00
00821             -15.60    -8200.00
00822             -15.00    -8400.00
00823             -15.40    -8400.00
00824             -15.60    -8200.00
00825             -14.80    -8200.00
00826             -14.80    -8200.00
00827             -14.40    -8200.00
00828             -13.80    -8200.00
00829             -14.00    -8400.00
00830             -13.60    -8200.00
00831             -13.20    -8200.00
00832             -12.80    -8200.00
00833             -12.60    -8200.00
00834             -12.20    -8200.00
00835             -12.00    -8000.00
00836             -11.60    -8200.00
00837             -11.40    -8200.00
00838             -11.40    -8200.00
00839             -10.80    -8200.00
00840             -10.60    -8200.00
00841             -10.80    -8000.00
00842             -10.40    -8000.00
00843              -9.80    -8200.00
00844             -10.00    -8000.00
00845             -10.00    -8000.00
00846              -9.20    -8000.00
00847              -9.20    -8000.00
00848              -9.40    -8000.00
00849              -8.80    -8000.00
00850              -8.60    -8000.00
00851              -9.20    -8000.00
00852              -8.80    -8000.00
00853              -8.40    -8000.00
00854              -8.40    -8000.00
00855              -8.40    -7800.00
00856              -8.20    -8000.00
00857              -7.80    -7800.00
00858              -7.60    -8000.00
00859              -7.60    -7800.00
00860              -7.60    -7800.00
00861              -7.00    -7600.00
00862              -7.40    -7600.00
00863              -7.00    -7600.00
00864              -6.80    -7600.00
00865              -7.00    -7600.00
00866              -7.00    -7600.00
00867              -6.60    -7600.00
00868              -6.60    -7400.00
00869              -6.60    -7400.00
00870              -6.20    -7400.00
00871              -6.20    -7400.00
00872              -5.80    -7400.00
00873              -6.20    -7200.00
00874              -6.00    -7400.00
00875              -5.40    -7400.00
00876              -5.40    -7200.00
00877              -5.80    -7200.00
00878              -5.40    -7400.00
00879              -5.20    -7200.00
00880              -5.80    -7200.00
00881              -4.60    -7200.00
00882              -4.40    -7200.00
00883              -6.00    -7000.00
00884              -6.00    -7200.00
00885              -4.40    -6800.00
00886              -4.40    -7000.00
00887              -4.60    -6800.00
00888              -4.40    -6800.00
00889              -4.40    -6800.00
00890              -4.40    -6800.00
00891              -4.40    -6800.00
00892              -4.40    -6600.00
00893              -3.80    -6800.00
00894              -4.20    -6600.00
00895              -4.20    -6600.00
00896              -3.80    -6600.00
00897              -3.80    -6600.00
00898              -5.20    -6400.00
00899              -4.20    -6400.00
00900              -2.60    -6400.00
00901              -3.40    -6400.00
00902              -3.80    -6200.00
00903              -3.40    -6400.00
00904              -3.80    -6400.00
00905              -3.80    -6200.00
00906              -2.80    -6000.00
00907              -3.40    -6000.00
00908              -3.40    -6200.00
00909              -3.00    -6000.00
00910              -3.00    -5800.00
00911              -3.40    -5800.00
00912              -2.80    -6000.00
00913              -3.00    -5800.00
00914              -3.00    -5600.00
00915              -2.80    -5800.00
00916              -2.80    -5600.00
00917              -2.80    -5600.00
00918              -3.00    -5600.00
00919              -3.00    -5400.00
00920              -2.80    -5400.00
00921              -2.80    -5400.00
00922              -2.60    -5400.00
00923              -2.80    -5200.00
00924              -2.60    -5200.00
00925              -2.60    -5200.00
00926              -2.60    -5000.00
00927              -2.20    -5000.00
00928              -2.20    -4600.00
00929              -2.60    -4800.00
00930              -2.20    -4600.00
00931              -2.20    -4800.00
00932              -2.60    -4600.00
00933              -2.20    -4600.00
00934              -2.40    -4600.00
00935              -2.60    -4600.00
00936              -2.20    -4600.00
00937              -2.00    -4400.00
00938              -2.20    -4400.00
00939              -2.20    -4200.00
00940              -2.00    -4400.00
00941              -2.00    -4200.00
00942              -2.40    -4200.00
00943              -1.80    -4000.00
00944              -2.00    -4000.00
00945              -2.20    -4000.00
00946              -1.40    -4000.00
00947              -1.40    -3800.00
00948              -2.20    -4000.00
00949              -2.20    -3800.00
00950              -1.20    -3600.00
00951              -2.00    -3600.00
00952              -2.20    -3600.00
00953              -1.00    -3600.00
00954              -1.20    -3400.00
00955              -1.80    -3400.00
00956              -1.40    -3200.00
00957              -1.00    -3400.00
00958              -1.20    -3200.00
00959              -1.80    -3200.00
00960              -1.20    -3000.00
00961              -1.20    -3000.00
00962              -2.20    -2800.00
00963              -1.20    -2800.00
00964              -0.60    -2800.00
00965              -1.80    -2800.00
00966              -1.00    -2600.00
00967              -0.60    -2600.00
00968              -1.40    -2600.00
00969              -1.20    -2400.00
00970              -0.40    -2400.00
00971              -1.00    -2400.00
00972              -1.80    -2400.00
00973              -1.00    -2200.00
00974              -0.60    -2400.00
00975              -1.20    -2200.00
00976              -1.40    -2000.00
00977              -0.60    -2000.00
00978              -1.00    -2000.00
00979              -1.20    -1800.00
00980              -0.60    -1800.00
00981              -0.80    -1600.00
00982              -1.40    -1800.00
00983              -0.60    -1600.00
00984              -0.60    -1600.00
00985              -1.40    -1600.00
00986              -1.00    -1400.00
00987              -0.20    -1400.00
00988              -1.00    -1200.00
00989              -1.20    -1200.00
00990              -0.40    -1000.00
00991              -0.60    -1000.00
00992              -1.40     -800.00
00993              -0.60     -800.00
00994              -0.40     -800.00
00995              -1.00     -800.00
00996              -1.00     -800.00
00997               0.20     -600.00
00998              -0.80     -600.00
00999              -1.00     -400.00
01000               0.00     -400.00
01001              -0.60     -200.00
01002              -1.00     -400.00
01003              -0.40     -200.00
01004              -0.20        0.00
01005              -1.20        0.00
01006              -0.20        0.00
01007               0.20        0.00
01008              -0.20        0.00
01009               1.20      200.00
01010               0.00      400.00
01011              -1.00      400.00
01012               1.00      400.00
01013               1.00      600.00
01014              -1.20      600.00
01015               2.80      600.00
01016              14.80      800.00
01017               0.40     1200.00
01018             -25.00      800.00
01019             -19.60      800.00
01020              25.00      800.00
01021              25.00     1400.00
01022             -25.00     1200.00
01023             -25.00     1200.00
01024              25.00     1200.00
01025              25.00     1400.00
01026             -25.00     1400.00
01027              20.40     1400.00
01028              25.00     2000.00
01029             -25.00     1200.00
01030             -25.00     2000.00
01031              25.00     1600.00
01032              16.40     1800.00
01033             -25.00     2000.00
01034              25.00     2000.00
01035              25.00     2000.00
01036             -25.00     2200.00
01037              -2.80     2400.00
01038              25.00     2000.00
01039             -25.00     2400.00
01040             -25.00     2400.00
01041              25.00     2200.00
01042              25.00     2400.00
01043             -25.00     2800.00
01044             -25.00     2400.00
01045              25.00     2800.00
01046             -14.80     2800.00
01047             -25.00     2800.00
01048              25.00     2800.00
01049              25.00     3000.00
01050             -25.00     3000.00
01051              25.00     3000.00
01052              25.00     3200.00
01053             -25.00     3200.00
01054             -15.60     3200.00
01055              25.00     3200.00
01056             -12.80     3400.00
01057             -25.00     3400.00
01058              25.00     3400.00
01059              19.60     3600.00
01060             -25.00     3800.00
01061               7.00     3600.00
01062              25.00     3800.00
01063             -21.20     3800.00
01064             -10.80     3800.00
01065              25.00     3800.00
01066              -1.00     4000.00
01067             -20.20     4000.00
01068              15.60     4000.00
01069              13.20     4200.00
01070             -16.80     4400.00
01071               0.00     4400.00
01072              18.80     4400.00
01073              -7.00     4400.00
01074              -8.60     4600.00
01075              14.20     4400.00
01076               4.40     4600.00
01077             -10.60     4600.00
01078               6.20     4800.00
01079              10.20     4800.00
01080              -6.60     4800.00
01081              -0.80     4800.00
01082              10.00     5000.00
01083               0.20     5000.00
01084              -3.80     5200.00
01085               7.60     5200.00
01086               5.00     5200.00
01087              -3.80     5400.00
01088               2.00     5400.00
01089               7.60     5200.00
01090              -0.20     5600.00
01091               0.20     5600.00
01092               6.20     5600.00
01093               3.40     5600.00
01094              -1.80     5600.00
01095               3.60     5600.00
01096               5.20     5600.00
01097               0.20     6000.00
01098               2.00     5800.00
01099               7.00     6000.00
01100               1.20     6000.00
01101              -0.60     6000.00
01102               5.20     6000.00
01103               3.80     6200.00
01104               1.20     6200.00
01105               4.20     6200.00
01106               5.00     6200.00
01107               1.80     6400.00
01108               2.60     6400.00
01109               3.80     6200.00
01110               3.00     6400.00
01111               3.20     6400.00
01112               4.40     6400.00
01113               3.60     6400.00
01114               3.60     6600.00
01115               3.40     6400.00
01116               3.40     6400.00
01117               3.60     6800.00
01118               4.20     6800.00
01119               3.80     6800.00
01120               4.20     6800.00
01121               4.20     6800.00
01122               3.80     7000.00
01123               3.80     6800.00
01124               4.40     7000.00
01125               4.40     7000.00
01126               4.40     7000.00
01127               4.80     7200.00
01128               4.60     7000.00
01129               4.60     7200.00
01130               4.60     7200.00
01131               5.00     7200.00
01132               4.60     7200.00
01133               5.40     7200.00
01134               5.20     7200.00
01135               5.40     7400.00
01136               5.80     7200.00
01137               5.80     7400.00
01138               5.20     7200.00
01139               6.00     7400.00
01140               6.00     7600.00
01141               5.80     7400.00
01142               6.00     7600.00
01143               6.60     7600.00
01144               6.00     7600.00
01145               6.20     7800.00
01146               7.00     7800.00
01147               6.80     7800.00
01148               6.80     7800.00
01149               7.40     7600.00
01150               7.20     7600.00
01151               7.00     7800.00
01152               7.80     7800.00
01153               8.20     7600.00
01154               7.60     7800.00
01155               8.20     8000.00
01156               8.40     7800.00
01157               8.40     8200.00
01158               8.40     8000.00
01159               8.80     8000.00
01160               9.00     7800.00
01161               9.20     8200.00
01162               9.20     8000.00
01163              10.00     8000.00
01164               9.60     8200.00
01165               9.80     8000.00
01166              10.00     8000.00
01167              10.60     8200.00
01168              10.20     8200.00
01169              10.80     8200.00
01170              11.40     8200.00
01171              11.40     8200.00
01172              11.40     8200.00
01173              11.80     8000.00
01174              11.80     8200.00
01175              11.80     8200.00
01176              12.20     8200.00
01177              12.60     8000.00
01178              12.80     8200.00
01179              12.80     8400.00
01180              13.20     8000.00
01181              13.20     8200.00
01182              13.60     8400.00
01183              13.80     8200.00
01184              14.00     8400.00
01185              14.20     8200.00
01186              14.60     8200.00
01187              14.60     8200.00
01188              14.80     8200.00
01189              14.80     8400.00
01190              14.60     8200.00
01191              15.60     8200.00
01192              15.00     8400.00
01193              14.00     8400.00
01194              16.00     8200.00
01195              14.80     8200.00
01196              13.00     8200.00
01197              15.40     8200.00
01198              14.60     8200.00
01199              11.60     8200.00
01200              13.40     8200.00
01201              14.60     8200.00
01202              11.00     8400.00
01203              11.60     8200.00
01204              13.00     8000.00
01205              11.80     8200.00
01206              10.60     8200.00
01207              11.40     8200.00
01208              11.80     8200.00
01209              10.20     8000.00
01210               9.40     8400.00
01211              11.00     8000.00
01212              10.80     8200.00
01213               8.20     8200.00
01214              10.00     8200.00
01215              11.00     8200.00
01216               8.20     8000.00
01217               8.20     8200.00
01218              10.60     8000.00
01219               8.40     7800.00
01220               7.00     8000.00
01221               9.20     8200.00
01222               8.40     8000.00
01223               7.40     7800.00
01224               8.20     8000.00
01225               8.40     8000.00
01226               7.40     7800.00
01227               7.80     7800.00
01228               7.00     7800.00
01229               7.00     7800.00
01230               7.40     7800.00
01231               6.60     7800.00
01232               6.80     7600.00
01233               7.40     7600.00
01234               6.40     7800.00
01235               6.00     7600.00
01236               6.80     7800.00
01237               6.20     7600.00
01238               5.20     7600.00
01239               6.60     7600.00
01240               6.20     7600.00
01241               5.20     7200.00
01242               5.80     7400.00
01243               5.80     7400.00
01244               5.00     7200.00
01245               5.00     7200.00
01246               5.80     7200.00
01247               5.60     7200.00
01248               4.40     7200.00
01249               4.80     7200.00
01250               5.40     7200.00
01251               4.60     7000.00
01252               3.80     7000.00
01253               4.40     7000.00
01254               5.20     7000.00
01255               3.80     7000.00
01256               3.80     7000.00
01257               5.20     6800.00
01258               4.20     6800.00
01259               3.40     6800.00
01260               4.80     6800.00
01261               4.40     6800.00
01262               3.00     6800.00
01263               4.20     6600.00
01264               4.20     6600.00
01265               3.60     6600.00
01266               3.40     6600.00
01267               3.40     6600.00
01268               4.00     6400.00
01269               3.60     6400.00
01270               3.00     6400.00
01271               3.60     6400.00
01272               4.20     6400.00
01273               2.80     6200.00
01274               2.20     6200.00
01275               4.80     6200.00
01276               2.60     6200.00
01277               2.00     6000.00
01278               3.80     6200.00
01279               3.20     6000.00
01280               2.20     6000.00
01281               3.00     6000.00
01282               3.40     5800.00
01283               2.40     5800.00
01284               2.60     5600.00
01285               3.40     5600.00
01286               2.60     5600.00
01287               2.20     5600.00
01288               2.60     5600.00
01289               2.60     5600.00
01290               2.20     5400.00
01291               2.60     5400.00
01292               2.80     5200.00
01293               2.20     5200.00
01294               1.80     5200.00
01295               2.60     5200.00
01296               2.60     5000.00
01297               1.60     5200.00
01298               2.00     4800.00
01299               2.60     4800.00
01300               1.80     5000.00
01301               1.40     4800.00
01302               2.80     4800.00
01303               2.00     4600.00
01304               1.00     4600.00
01305               2.40     4600.00
01306               2.40     4600.00
01307               1.00     4400.00
01308               1.80     4400.00
01309               2.20     4400.00
01310               1.00     4200.00
01311               1.20     4400.00
01312               1.80     4200.00
01313               1.00     4000.00
01314               1.20     4000.00
01315               1.80     3800.00
01316               1.20     4000.00
01317               1.00     4000.00
01318               1.40     3800.00
01319               1.20     3800.00
01320               1.00     3800.00
01321               1.20     3600.00
01322               1.40     3600.00
01323               0.60     3600.00
01324               1.20     3200.00
01325               1.20     3400.00
01326               0.40     3400.00
01327               0.40     3200.00
01328               1.20     3400.00
01329               0.80     3200.00
01330               0.40     3000.00
01331               1.00     3000.00
01332               0.60     3000.00
01333               0.40     3000.00
01334               1.00     3000.00
01335               1.00     2800.00
01336               0.60     2800.00
01337               1.00     2600.00
01338               0.80     2600.00
01339               0.60     2400.00
01340               0.60     2400.00
01341               0.40     2400.00
01342               0.40     2200.00
01343               0.40     2200.00
01344               0.40     2400.00
01345               0.60     2200.00
01346               0.40     2200.00
01347               0.40     2000.00
01348               0.40     2000.00
01349               0.60     1800.00
01350               0.40     1800.00
01351               0.20     1600.00
01352               0.60     1800.00
01353               0.40     1600.00
01354               0.40     1400.00
01355               0.20     1600.00
01356               0.40     1400.00
01357               0.40     1400.00
01358               0.20     1200.00
01359               0.20     1200.00
01360               0.20     1200.00
01361               0.20     1200.00
01362              -0.20     1000.00
01363               0.20      800.00
01364               0.20      800.00
01365              -0.20      800.00
01366               0.20      600.00
01367               0.20      600.00
01368              -0.20      400.00
01369               0.20      400.00
01370              -0.20      400.00
01371              -0.40      400.00
01372               0.00      400.00
01373              -0.40      200.00
01374              -0.20        0.00
01375              -0.40        0.00
01376              -0.60        0.00
01377              -0.60     -200.00
01378               0.20     -200.00
01379               0.20     -200.00
01380               0.20     -200.00
01381              -0.20     -400.00
01382              -0.80     -400.00
01383              -0.20     -400.00
01384              -0.40     -400.00
01385               0.40     -600.00
01386              14.60     -600.00
01387              17.00    -1000.00
01388             -25.00    -1200.00
01389             -25.00     -800.00
01390              25.00     -800.00
01391              25.00    -1000.00
01392             -25.00    -1600.00
01393             -25.00     -600.00
01394              25.00    -1400.00
01395              25.00    -1600.00
01396             -25.00    -1600.00
01397             -25.00    -1200.00
01398              25.00    -1800.00
01399              25.00    -2000.00
01400             -25.00    -1000.00
01401              25.00    -2000.00
01402              25.00    -1800.00
01403             -25.00    -1800.00
01404             -25.00    -2000.00
01405              25.00    -2400.00
01406              10.60    -2000.00
01407             -25.00    -2000.00
01408              25.00    -2400.00
01409              25.00    -2200.00
01410             -25.00    -2400.00
01411               0.00    -2600.00
01412              25.00    -2400.00
01413             -25.00    -2400.00
01414             -25.00    -2400.00
01415              25.00    -2800.00
01416              25.00    -2600.00
01417             -25.00    -2800.00
01418              21.60    -2800.00
01419              25.00    -3000.00
01420             -25.00    -3000.00
01421             -25.00    -3200.00
01422              25.00    -3200.00
01423             -20.00    -3200.00
01424             -25.00    -3400.00
01425              25.00    -3200.00
01426              25.00    -3400.00
01427             -25.00    -3400.00
01428               3.60    -3600.00
01429              25.00    -3600.00
01430             -25.00    -3400.00
01431             -25.00    -3800.00
01432              25.00    -3800.00
01433               0.20    -3800.00
01434             -25.00    -4000.00
01435              20.00    -4000.00
01436              24.60    -4000.00
01437             -25.00    -4000.00
01438              -7.80    -4200.00
01439              25.00    -4200.00
01440             -13.40    -4200.00
01441             -24.60    -4200.00
01442              20.40    -4400.00
01443               5.20    -4400.00
01444             -25.00    -4400.00
01445               4.40    -4600.00
01446              15.20    -4800.00
01447             -17.40    -4600.00
01448             -10.20    -4800.00
01449              15.20    -4800.00
01450              -5.80    -4800.00
01451             -16.40    -4800.00
01452               9.20    -5000.00
01453               3.60    -5000.00
01454             -15.60    -5000.00
01455              -1.20    -5000.00
01456               8.00    -5200.00
01457              -9.60    -5200.00
01458              -8.60    -5200.00
01459               6.60    -5400.00
01460              -2.00    -5400.00
01461             -10.80    -5600.00
01462               0.60    -5400.00
01463               2.00    -5600.00
01464              -8.60    -5600.00
01465              -4.80    -5600.00
01466               3.00    -5800.00
01467              -3.40    -5600.00
01468              -7.80    -5800.00
01469              -0.60    -6000.00
01470              -0.20    -6000.00
01471              -7.40    -6000.00
01472              -4.20    -6000.00
01473               0.40    -6200.00
01474              -4.40    -6000.00
01475              -5.80    -6200.00
01476              -1.40    -6400.00
01477              -2.80    -6200.00
01478              -5.80    -6400.00
01479              -3.40    -6400.00
01480              -2.80    -6400.00
01481              -3.80    -6600.00
01482              -4.00    -6600.00
01483              -3.80    -6600.00
01484              -3.80    -6600.00
01485              -3.80    -6600.00
01486              -4.40    -6800.00
01487              -4.40    -6600.00
01488              -3.80    -6600.00
01489              -4.40    -6800.00
01490              -4.60    -6800.00
01491              -4.40    -6800.00
01492              -4.20    -6800.00
01493              -5.00    -6800.00
01494              -4.60    -7000.00
01495              -4.40    -7000.00
01496              -4.60    -7000.00
01497              -5.20    -7000.00
01498              -5.40    -7200.00
01499              -5.00    -7200.00
01500              -5.40    -7200.00
01501              -6.00    -7200.00
01502              -5.40    -7200.00
01503              -5.40    -7200.00
01504              -5.80    -7400.00
01505              -5.60    -7400.00
01506              -5.80    -7200.00
01507              -6.20    -7400.00
01508              -6.20    -7400.00
01509              -6.00    -7600.00
01510              -6.20    -7600.00
01511              -6.80    -7400.00
01512              -6.40    -7600.00
01513              -6.60    -7400.00
01514              -7.60    -7600.00
01515              -7.00    -7400.00
01516              -6.60    -7800.00
01517              -7.60    -7600.00
01518              -7.80    -7800.00
01519              -7.00    -8000.00
01520              -7.60    -7600.00
01521              -8.40    -8000.00
01522              -7.60    -8000.00
01523              -7.60    -7800.00
01524              -8.40    -8000.00
01525              -8.60    -8000.00
01526              -8.20    -7800.00
01527              -8.60    -8000.00
01528              -9.80    -8000.00
01529              -9.00    -8000.00
01530              -8.60    -8000.00
01531             -10.00    -8000.00
01532              -9.20    -8000.00
01533              -9.20    -8000.00
01534             -10.20    -8000.00
01535              -9.40    -8200.00
01536              -9.80    -8200.00
01537             -11.40    -8000.00
01538             -10.60    -8000.00
01539             -10.60    -8000.00
01540             -11.60    -8200.00
01541             -11.00    -8200.00
01542             -11.60    -8200.00
01543             -11.60    -8200.00
01544             -11.80    -8200.00
01545             -12.40    -8000.00
01546             -12.40    -8200.00
01547             -12.40    -8200.00
01548             -13.40    -8200.00
01549             -12.40    -8200.00
01550             -13.20    -8200.00
01551             -13.40    -8200.00
01552             -14.00    -8400.00
01553             -13.40    -8200.00
01554             -14.20    -8200.00
01555             -14.80    -8200.00
01556             -14.20    -8400.00
01557             -15.00    -8200.00
01558             -15.40    -8400.00
01559             -15.00    -8200.00
01560             -14.80    -8200.00
01561             -15.20    -8200.00
01562             -15.60    -8200.00
01563             -15.00    -8200.00
01564             -15.40    -8400.00
01565             -15.80    -8200.00
01566             -15.40    -8400.00
01567             -14.80    -8200.00
01568             -15.00    -8200.00
01569             -14.60    -8200.00
01570             -14.00    -8400.00
01571             -14.20    -8200.00
01572             -13.40    -8200.00
01573             -13.40    -8200.00
01574             -13.40    -8200.00
01575             -12.40    -8200.00
01576             -12.20    -8200.00
01577             -12.40    -8400.00
01578             -11.60    -8400.00
01579             -11.20    -8200.00
01580             -11.80    -8200.00
01581             -11.00    -8200.00
01582             -10.40    -8200.00
01583             -11.00    -8200.00
01584             -10.60    -8200.00
01585              -9.20    -8200.00
01586             -10.20    -8200.00
01587             -10.40    -8000.00
01588              -9.00    -8000.00
01589              -9.40    -8000.00
01590             -10.20    -8200.00
01591              -8.80    -8000.00
01592              -8.00    -8000.00
01593              -9.00    -8000.00
01594              -9.20    -8000.00
01595              -8.20    -8000.00
01596              -7.00    -7800.00
01597              -9.00    -8000.00
01598              -9.20    -7800.00
01599              -6.20    -7800.00
01600              -7.00    -7800.00
01601              -9.20    -7800.00
01602              -7.00    -7800.00
01603              -5.80    -7800.00
01604              -9.20    -7600.00
01605              -7.80    -7600.00
01606              -3.60    -7600.00
01607              -7.40    -7600.00
01608             -10.00    -7600.00
01609              -4.40    -7600.00
01610              -3.60    -7600.00
01611              -9.20    -7400.00
01612              -7.00    -7600.00
01613              -2.80    -7400.00
01614              -6.60    -7400.00
01615              -8.40    -7400.00
01616              -3.80    -7400.00
01617              -4.20    -7200.00
01618              -7.40    -7400.00
01619              -5.60    -7200.00
01620              -4.20    -7200.00
01621              -5.80    -7200.00
01622              -6.00    -7200.00
01623              -4.80    -7200.00
01624              -4.40    -7200.00
01625              -5.20    -7200.00
01626              -5.40    -7000.00
01627              -4.40    -7000.00
01628              -4.40    -6800.00
01629              -4.40    -6800.00
01630              -3.80    -6800.00
01631              -4.60    -6800.00
01632              -5.20    -6800.00
01633              -3.80    -6800.00
01634              -4.20    -6600.00
01635              -5.60    -6600.00
01636              -3.80    -6800.00
01637              -3.40    -6600.00
01638              -5.40    -6400.00
01639              -4.20    -6600.00
01640              -2.20    -6400.00
01641              -4.60    -6400.00
01642              -5.40    -6400.00
01643              -2.40    -6400.00
01644              -2.80    -6400.00
01645              -5.40    -6400.00
01646              -3.60    -6200.00
01647              -2.60    -6000.00
01648              -4.60    -6200.00
01649              -3.80    -6200.00
01650              -2.20    -6000.00
01651              -3.60    -6000.00
01652              -4.40    -6000.00
01653              -2.80    -5800.00
01654              -2.80    -5800.00
01655              -3.80    -6000.00
01656              -3.00    -5800.00
01657              -2.60    -5600.00
01658              -3.60    -5800.00
01659              -3.00    -5600.00
01660              -2.20    -5400.00
01661              -3.00    -5600.00
01662              -2.60    -5600.00
01663              -2.80    -5600.00
01664              -2.80    -5200.00
01665              -2.80    -5200.00
01666              -3.00    -5200.00
01667              -2.20    -5200.00
01668              -2.60    -5000.00
01669              -2.80    -5000.00
01670              -2.20    -5000.00
01671              -2.20    -5000.00
01672              -2.20    -4800.00
01673              -2.20    -4600.00
01674              -1.80    -4600.00
01675              -2.00    -4600.00
01676              -2.20    -4600.00
01677              -0.20    -4600.00
01678              -6.80    -4400.00
01679              -0.60    -4400.00
01680               0.40    -4400.00
01681             -13.40    -4200.00
01682               5.80    -4400.00
01683              -3.00    -4000.00
01684               4.80    -4200.00
01685               1.80    -4000.00
01686              -7.60    -4000.00
01687              -0.20    -3800.00
01688              -5.40    -4000.00
01689              -5.40    -4000.00
01690              -3.00    -4000.00
01691               0.40    -3600.00
01692               0.40    -3600.00
01693               3.60    -3600.00
01694              -3.00    -3600.00
01695               3.60    -3600.00
01696              -9.20    -3400.00
01697              -3.80    -3400.00
01698              -2.60    -3400.00
01699              -5.60    -3200.00
01700               6.20    -3200.00
01701              -0.40    -3000.00
01702              -2.20    -3200.00
01703               2.00    -3000.00
01704              -2.00    -3000.00
01705              -6.00    -2800.00
01706              -1.80    -2800.00
01707              -2.80    -2600.00
01708              -0.20    -2800.00
01709              -1.40    -2600.00
01710               0.60    -2600.00
01711               0.40    -2600.00
01712              -1.80    -2400.00
01713              -2.00    -2400.00
01714              -1.20    -2400.00
01715              -2.00    -2400.00
01716              -2.20    -2200.00
01717              -2.00    -2200.00
01718               0.40    -2000.00
01719              -0.60    -2000.00
01720              -0.60    -1800.00
01721               0.20    -1800.00
01722              -1.20    -1800.00
01723              -1.80    -1600.00
01724              -2.00    -1600.00
01725              -1.20    -1600.00
01726               0.40    -1600.00
01727              -2.00    -1400.00
01728              -1.00    -1400.00
01729               1.00    -1200.00
01730              -0.60    -1200.00
01731              -0.80    -1200.00
01732              -1.00    -1000.00
01733              -1.00    -1000.00
01734              -1.20    -1000.00
01735              -0.60     -800.00
01736              -0.60     -800.00
01737               0.20     -800.00
01738              -0.60     -800.00
01739               0.40     -400.00
01740              -1.00     -400.00
01741              -0.20     -400.00
01742              -0.40     -400.00
01743              -0.60     -200.00
01744              -0.60     -200.00
01745              -0.60     -200.00
01746              -0.20     -200.00
01747              -0.60     -200.00
01748              -0.20        0.00
01749               0.60        0.00
01750               0.40      200.00
01751               0.40      200.00
01752               0.40      200.00
01753              -0.60      400.00
01754               0.20      400.00
01755               0.20      400.00
01756               0.40      600.00
01757               3.20      600.00
01758              13.80     1000.00
01759               0.40     1000.00
01760             -25.00      800.00
01761             -20.40      800.00
01762              25.00      800.00
01763              25.00     1400.00
01764             -25.00     1000.00
01765             -25.00     1200.00
01766              25.00     1400.00
01767              25.00     1200.00
01768             -25.00     1400.00
01769              22.40     1200.00
01770              25.00     1800.00
01771             -25.00     1200.00
01772             -25.00     2000.00
01773              25.00     1800.00
01774              13.80     1600.00
01775             -25.00     2000.00
01776              25.00     2000.00
01777              25.00     2000.00
01778             -25.00     2000.00
01779              -1.20     2400.00
01780              25.00     2000.00
01781             -25.00     2400.00
01782             -25.00     2400.00
01783              25.00     2200.00
01784              25.00     2400.00
01785             -25.00     2800.00
01786             -24.60     2600.00
01787              25.00     2800.00
01788             -15.40     2800.00
01789             -25.00     2800.00
01790              25.00     2800.00
01791              25.00     3000.00
01792             -25.00     3000.00
01793              25.00     3200.00
01794              25.00     3000.00
01795             -25.00     3200.00
01796             -15.00     3200.00
01797              25.00     3200.00
01798             -13.40     3400.00
01799             -25.00     3600.00
01800              25.00     3400.00
01801              19.40     3800.00
01802             -25.00     3600.00
01803               8.40     3800.00
01804              25.00     3800.00
01805             -22.20     4000.00
01806             -10.00     3800.00
01807              25.00     3800.00
01808              -1.20     4000.00
01809             -19.40     4000.00
01810              16.20     4200.00
01811              13.20     4400.00
01812             -17.00     4400.00
01813               0.40     4200.00
01814              18.60     4400.00
01815              -6.20     4400.00
01816              -8.20     4400.00
01817              13.80     4600.00
01818               4.20     4600.00
01819             -10.20     4800.00
01820               6.20     4800.00
01821              10.00     4800.00
01822              -7.00     4800.00
01823               0.20     5000.00
01824              11.00     4800.00
01825              -0.60     5200.00
01826              -4.60     5000.00
01827               8.80     5200.00
01828               4.40     5200.00
01829              -4.60     5400.00
01830               3.60     5400.00
01831               7.20     5400.00
01832              -2.20     5600.00
01833               0.60     5600.00
01834               6.20     5400.00
01835               2.00     5600.00
01836              -1.40     5600.00
01837               5.20     5600.00
01838               4.60     5600.00
01839               0.20     5800.00
01840               2.00     5800.00
01841               5.80     6000.00
01842               1.40     6000.00
01843               0.80     6000.00
01844               4.60     6000.00
01845               4.20     6000.00
01846               1.00     6200.00
01847               3.40     6200.00
01848               4.60     6000.00
01849               1.80     6400.00
01850               2.60     6200.00
01851               4.20     6200.00
01852               2.80     6400.00
01853               2.60     6400.00
01854               4.40     6400.00
01855               3.60     6800.00
01856               2.60     6600.00
01857               4.20     6600.00
01858               4.20     6600.00
01859               3.40     6800.00
01860               4.20     6800.00
01861               4.40     6800.00
01862               3.80     6800.00
01863               3.60     6800.00
01864               4.60     6800.00
01865               4.20     7000.00
01866               3.80     7000.00
01867               5.60     7000.00
01868               4.20     7000.00
01869               3.80     7200.00
01870               5.80     7000.00
01871               4.60     7200.00
01872               4.20     7200.00
01873               6.00     7400.00
01874               5.20     7200.00
01875               5.00     7200.00
01876               5.60     7200.00
01877               5.40     7400.00
01878               5.40     7200.00
01879               5.80     7200.00
01880               5.80     7600.00
01881               5.80     7400.00
01882               6.00     7600.00
01883               6.20     7600.00
01884               6.00     7600.00
01885               6.80     7600.00
01886               6.60     7600.00
01887               6.60     7800.00
01888               6.80     7600.00
01889               7.00     7800.00
01890               6.60     7800.00
01891               7.40     7800.00
01892               7.20     7800.00
01893               7.00     7800.00
01894               7.80     7800.00
01895               7.80     7800.00
01896               7.60     7800.00
01897               8.00     7800.00
01898               8.40     8200.00
01899               8.20     8000.00
01900               8.20     8200.00
01901               8.60     8000.00
01902               9.00     8200.00
01903               9.00     8000.00
01904               9.00     8200.00
01905               9.80     8000.00
01906               9.20     8000.00
01907               9.80     8000.00
01908              10.60     8200.00
01909              10.20     8200.00
01910               9.80     8000.00
01911              11.00     8200.00
01912              10.80     8200.00
01913              10.80     8200.00
01914              11.00     8200.00
01915              11.60     8200.00
01916              11.60     8200.00
01917              11.80     8200.00
01918              12.20     8200.00
01919              12.60     8000.00
01920              12.80     8200.00
01921              13.20     8400.00
01922              13.20     8000.00
01923              13.40     8400.00
01924              13.40     8200.00
01925              14.00     8000.00
01926              14.00     8400.00
01927              14.40     8200.00
01928              14.20     8400.00
01929              14.80     8200.00
01930              14.80     8200.00
01931              15.00     8400.00
01932              15.00     8200.00
01933              15.40     8200.00
01934              15.40     8200.00
01935              15.20     8200.00
01936              15.40     8200.00
01937              14.80     8200.00
01938              14.60     8200.00
01939              14.60     8200.00
01940              14.00     8200.00
01941              13.80     8000.00
01942              13.20     8400.00
01943              13.00     8400.00
01944              12.60     8200.00
01945              12.20     8200.00
01946              12.20     8400.00
01947              12.00     8400.00
01948              11.60     8200.00
01949              11.40     8400.00
01950              11.00     8200.00
01951              10.60     8200.00
01952              10.60     8200.00
01953              10.60     8000.00
01954              10.00     8200.00
01955               9.80     8200.00
01956              10.00     8000.00
01957               9.40     8200.00
01958               8.60     8000.00
01959               9.00     8000.00
01960               9.00     8000.00
01961               8.40     7800.00
01962               8.40     8000.00
01963               8.60     7800.00
01964               8.20     8000.00
01965               8.20     7800.00
01966               8.20     7800.00
01967               7.80     7800.00
01968               7.40     7800.00
01969               7.60     7800.00
01970               7.40     7800.00
01971               7.00     7600.00
01972               6.80     7800.00
01973               6.80     7600.00
01974               6.80     7600.00
01975               6.60     7600.00
01976               6.60     7600.00
01977               6.60     7600.00
01978               6.20     7600.00
01979               6.00     7600.00
01980               6.20     7600.00
01981               5.80     7600.00
01982               5.40     7600.00
01983               6.00     7200.00
01984               5.80     7200.00
01985               5.20     7400.00
01986               5.40     7200.00
01987               5.80     7200.00
01988               5.00     7200.00
01989               4.60     7200.00
01990               5.80     7000.00
01991               5.20     7200.00
01992               4.20     7200.00
01993               5.00     7000.00
01994               5.40     7200.00
01995               4.20     7000.00
01996               4.20     7000.00
01997               5.20     6800.00
01998               4.60     7000.00
01999               3.80     7000.00
02000               4.40     6800.00
02001               4.60     6800.00
02002               4.00     6800.00
02003               3.60     6800.00
02004               4.40     6800.00
02005               4.20     6800.00
02006               3.40     6800.00
02007               3.80     6800.00
02008               4.40     6800.00
02009               3.60     6400.00
02010               3.00     6400.00
02011               3.60     6400.00
02012               3.80     6400.00
02013               3.40     6200.00
02014               3.40     6200.00
02015               3.80     6200.00
02016               3.20     6200.00
02017               2.80     6200.00
02018               3.40     6200.00
02019               3.40     6000.00
02020               2.60     6000.00
02021               2.80     6000.00
02022               3.00     6000.00
02023               2.60     6000.00
02024               2.60     6000.00
02025               2.60     5800.00
02026               2.60     5800.00
02027               2.60     5600.00
02028               2.60     5600.00
02029               2.60     5600.00
02030               2.60     5600.00
02031               2.00     5400.00
02032               2.40     5400.00
02033               2.20     5400.00
02034               1.60     5200.00
02035               2.20     5200.00
02036               2.60     5200.00
02037               1.80     5200.00
02038               1.80     5200.00
02039               2.20     5200.00
02040               2.00     5000.00
02041               1.80     4800.00
02042               1.80     4800.00
02043               1.80     4800.00
02044               1.40     4800.00
02045               1.80     4600.00
02046               2.00     4600.00
02047               1.80     4600.00
02048               1.40     4600.00
02049               1.80     4400.00
02050               1.60     4600.00
02051               1.20     4400.00
02052               1.40     4200.00
02053               1.80     4200.00
02054               1.80     4000.00
02055               1.80     4200.00
02056               1.80     4000.00
02057               1.20     4000.00
02058               1.20     3800.00
02059               1.40     3800.00
02060               1.20     3600.00
02061               1.20     3800.00
02062               1.20     3600.00
02063               1.40     3600.00
02064               1.00     3600.00
02065               1.40     3400.00
02066               1.40     3600.00
02067               0.60     3400.00
02068               1.00     3200.00
02069               1.40     3200.00
02070               1.20     3200.00
02071              -0.40     3200.00
02072               1.80     3200.00
02073               2.60     3000.00
02074              -1.20     3000.00
02075               1.00     3000.00
02076               3.40     2800.00
02077              -1.00     2800.00
02078               0.40     2800.00
02079               1.40     2600.00
02080               1.00     2600.00
02081              -0.60     2400.00
02082               0.40     2400.00
02083               2.60     2400.00
02084              -0.40     2400.00
02085               0.20     2400.00
02086               1.80     2200.00
02087               1.20     2200.00
02088              -1.20     2200.00
02089               0.40     2000.00
02090               2.80     2000.00
02091              -1.40     1800.00
02092              -1.20     1800.00
02093               2.60     1800.00
02094              -0.20     1600.00
02095              -1.00     1600.00
02096               0.60     1600.00
02097               1.40     1400.00
02098              -1.00     1400.00
02099              -1.00     1400.00
02100               1.20     1200.00
02101               0.40     1200.00
02102              -1.40     1200.00
02103               0.60     1000.00
02104               1.80      800.00
02105              -2.00      800.00
02106              -0.60      800.00
02107               1.80      600.00
02108              -0.60      600.00
02109              -1.00      600.00
02110               0.80      400.00
02111               0.00      600.00
02112              -1.80      400.00
02113               0.40      400.00
02114               0.40      200.00
02115              -1.20      200.00
02116               0.00        0.00
02117               0.40        0.00
02118              -0.80        0.00
02119              -0.60        0.00
02120               0.40     -200.00
02121               0.40     -200.00
02122               0.60     -400.00
02123               0.20     -200.00
02124              -1.00     -400.00
02125              -0.60     -400.00
02126               0.20     -400.00
02127               0.40     -600.00
02128              15.00     -800.00
02129              17.00    -1000.00
02130             -25.00    -1200.00
02131             -25.00    -1000.00
02132              25.00     -800.00
02133              25.00    -1200.00
02134             -25.00    -1600.00
02135             -25.00     -600.00
02136              25.00    -1200.00
02137              25.00    -1600.00
02138             -25.00    -1600.00
02139             -25.00    -1200.00
02140              25.00    -1800.00
02141              25.00    -1800.00
02142             -25.00    -1000.00
02143              25.00    -2000.00
02144              25.00    -2000.00
02145             -25.00    -1800.00
02146             -25.00    -2000.00
02147              25.00    -2200.00
02148               8.40    -2000.00
02149             -25.00    -2200.00
02150              25.00    -2400.00
02151              25.00    -2400.00
02152             -25.00    -2200.00
02153               3.40    -2600.00
02154              25.00    -2600.00
02155             -25.00    -2400.00
02156             -25.00    -2600.00
02157              25.00    -2800.00
02158              25.00    -2800.00
02159             -25.00    -2800.00
02160              24.40    -3000.00
02161              25.00    -2800.00
02162             -25.00    -2800.00
02163             -25.00    -3200.00
02164              25.00    -3200.00
02165             -23.60    -3200.00
02166             -25.00    -3400.00
02167              25.00    -3400.00
02168              25.00    -3400.00
02169             -25.00    -3400.00
02170               5.20    -3600.00
02171              25.00    -3600.00
02172             -25.00    -3600.00
02173             -25.00    -3800.00
02174              25.00    -4000.00
02175              -0.60    -4000.00
02176             -25.00    -4000.00
02177              21.00    -4000.00
02178              24.20    -4000.00
02179             -25.00    -4000.00
02180              -7.40    -4000.00
02181              25.00    -4200.00
02182             -13.80    -4200.00
02183             -23.60    -4400.00
02184              21.00    -4400.00
02185               4.20    -4400.00
02186             -25.00    -4400.00
02187               5.40    -4600.00
02188              14.60    -4600.00
02189             -17.60    -4800.00
02190              -8.60    -4600.00
02191              15.00    -4800.00
02192              -7.20    -4600.00
02193             -15.60    -5000.00
02194              10.20    -5000.00
02195               2.60    -5000.00
02196             -15.40    -5000.00
02197               0.60    -5200.00
02198               7.60    -5200.00
02199             -10.60    -5200.00
02200              -7.60    -5200.00
02201               6.80    -5400.00
02202              -3.00    -5400.00
02203             -10.20    -5600.00
02204               1.60    -5600.00
02205               1.20    -5600.00
02206              -9.20    -5600.00
02207              -3.80    -5600.00
02208               3.00    -5800.00
02209              -4.40    -5800.00
02210              -6.80    -5800.00
02211               0.20    -5800.00
02212              -1.40    -6000.00
02213              -6.60    -6000.00
02214              -3.20    -6000.00
02215              -0.40    -6000.00
02216              -4.60    -6200.00
02217              -4.60    -6200.00
02218              -2.00    -6400.00
02219              -3.80    -6200.00
02220              -5.40    -6400.00
02221              -3.00    -6400.00
02222              -3.00    -6400.00
02223              -4.20    -6400.00
02224              -3.60    -6600.00
02225              -4.20    -6600.00
02226              -4.60    -6600.00
02227              -3.80    -6600.00
02228              -4.40    -6600.00
02229              -5.00    -6800.00
02230              -4.20    -6800.00
02231              -4.20    -6800.00
02232              -4.80    -6800.00
02233              -4.40    -6800.00
02234              -4.40    -6800.00
02235              -5.20    -7000.00
02236              -5.40    -6800.00
02237              -4.40    -7000.00
02238              -4.60    -6800.00
02239              -5.80    -7200.00
02240              -5.00    -7200.00
02241              -4.60    -7200.00
02242              -6.00    -7200.00
02243              -5.80    -7200.00
02244              -5.00    -7400.00
02245              -5.80    -7200.00
02246              -6.40    -7200.00
02247              -5.40    -7200.00
02248              -5.40    -7400.00
02249              -6.60    -7400.00
02250              -6.00    -7400.00
02251              -5.40    -7400.00
02252              -6.40    -7600.00
02253              -7.40    -7600.00
02254              -5.80    -7600.00
02255              -6.20    -7600.00
02256              -8.20    -7600.00
02257              -6.20    -7400.00
02258              -6.20    -7600.00
02259              -8.20    -7600.00
02260              -7.40    -7600.00
02261              -6.20    -7600.00
02262              -7.80    -7800.00
02263              -8.60    -7600.00
02264              -7.40    -7600.00
02265              -7.40    -7800.00
02266              -8.60    -7800.00
02267              -8.40    -8000.00
02268              -7.60    -8000.00
02269              -8.60    -8000.00
02270              -9.40    -8000.00
02271              -8.60    -8000.00
02272              -8.40    -8000.00
02273             -10.00    -8000.00
02274              -9.20    -8000.00
02275              -9.20    -8000.00
02276             -10.20    -8000.00
02277              -9.40    -8000.00
02278              -9.20    -8000.00
02279             -11.40    -8200.00
02280             -10.80    -8200.00
02281             -10.60    -8000.00
02282             -11.40    -8200.00
02283             -11.40    -8200.00
02284             -11.80    -8200.00
02285             -11.60    -8200.00
02286             -11.80    -8200.00
02287             -12.40    -8200.00
02288             -12.40    -8200.00
02289             -12.60    -8200.00
02290             -13.20    -8400.00
02291             -12.60    -8200.00
02292             -13.20    -8200.00
02293             -13.60    -8200.00
02294             -14.00    -8200.00
02295             -14.00    -8400.00
02296             -14.60    -8400.00
02297             -14.80    -8200.00
02298             -14.60    -8400.00
02299             -15.00    -8400.00
02300             -15.40    -8400.00
02301             -15.00    -8200.00
02302             -15.00    -8200.00
02303             -15.40    -8200.00
02304             -15.60    -8200.00
02305             -15.40    -8200.00
02306             -15.60    -8400.00
02307             -15.60    -8400.00
02308             -15.40    -8400.00
02309             -15.00    -8200.00
02310             -14.80    -8400.00
02311             -14.60    -8200.00
02312             -13.80    -8200.00
02313             -13.80    -8400.00
02314             -13.40    -8200.00
02315             -13.20    -8200.00
02316             -12.60    -8200.00
02317             -12.60    -8200.00
02318             -12.20    -8200.00
02319             -11.60    -8200.00
02320             -11.60    -8200.00
02321             -11.40    -8000.00
02322             -11.40    -8200.00
02323             -11.00    -8200.00
02324             -10.80    -8200.00
02325             -10.60    -8200.00
02326             -10.20    -8200.00
02327              -9.80    -8000.00
02328             -10.20    -8000.00
02329              -9.40    -8000.00
02330              -9.00    -8000.00
02331              -9.80    -8000.00
02332              -8.60    -8000.00
02333              -7.80    -8000.00
02334              -9.40    -8000.00
02335              -8.60    -8000.00
02336              -7.60    -8000.00
02337              -9.00    -8000.00
02338              -8.20    -8000.00
02339              -7.40    -8000.00
02340              -8.20    -8000.00
02341              -8.20    -8000.00
02342              -7.00    -7600.00
02343              -7.60    -7800.00
02344              -7.60    -7600.00
02345              -6.80    -7800.00
02346              -6.80    -7600.00
02347              -7.20    -7600.00
02348              -6.80    -7600.00
02349              -6.40    -7600.00
02350              -7.00    -7600.00
02351              -6.80    -7600.00
02352              -6.20    -7600.00
02353              -6.60    -7600.00
02354              -6.60    -7400.00
02355              -6.00    -7400.00
02356              -6.00    -7400.00
02357              -6.00    -7400.00
02358              -5.80    -7200.00
02359              -5.80    -7200.00
02360              -5.60    -7400.00
02361              -5.80    -7400.00
02362              -5.60    -7200.00
02363              -5.20    -7200.00
02364              -5.40    -7200.00
02365              -5.20    -7200.00
02366              -5.20    -7200.00
02367              -5.00    -7000.00
02368              -5.00    -6800.00
02369              -5.00    -7200.00
02370              -5.00    -7000.00
02371              -5.00    -6800.00
02372              -5.00    -6800.00
02373              -4.40    -6800.00
02374              -4.60    -6800.00
02375              -4.60    -6600.00
02376              -4.40    -6600.00
02377              -4.20    -6800.00
02378              -4.20    -6600.00
02379              -4.20    -6600.00
02380              -4.00    -6600.00
02381              -4.20    -6400.00
02382              -3.80    -6400.00
02383              -3.80    -6400.00
02384              -3.80    -6400.00
02385              -3.60    -6400.00
02386              -3.80    -6400.00
02387              -3.60    -6400.00
02388              -3.60    -6200.00
02389              -3.60    -6200.00
02390              -3.60    -6000.00
02391              -3.00    -6000.00
02392              -3.60    -6000.00
02393              -3.60    -6000.00
02394              -2.80    -6000.00
02395              -3.00    -6000.00
02396              -3.60    -6000.00
02397              -2.40    -5600.00
02398              -2.80    -5600.00
02399              -3.40    -5600.00
02400              -2.60    -5600.00
02401              -2.80    -5600.00
02402              -3.60    -5600.00
02403              -2.80    -5400.00
02404              -2.80    -5600.00
02405              -3.40    -5400.00
02406              -2.80    -5200.00
02407              -2.20    -5400.00
02408              -2.80    -5200.00
02409              -2.80    -5200.00
02410              -2.20    -5000.00
02411              -2.20    -5000.00
02412              -2.80    -5000.00
02413              -2.20    -4800.00
02414              -2.20    -4800.00
02415              -2.80    -4600.00
02416              -2.20    -4600.00
02417              -2.20    -4800.00
02418              -2.60    -4600.00
02419              -2.20    -4600.00
02420              -2.20    -4400.00
02421              -2.40    -4400.00
02422              -2.00    -4400.00
02423              -2.00    -4400.00
02424              -2.00    -4200.00
02425              -2.00    -4200.00
02426              -2.00    -4200.00
02427              -1.80    -4000.00
02428              -2.00    -4000.00
02429              -2.00    -4000.00
02430              -2.00    -4000.00
02431              -2.00    -4000.00
02432              -2.20    -3800.00
02433              -1.80    -3600.00
02434              -2.00    -3600.00
02435              -2.00    -3600.00
02436              -2.00    -3600.00
02437              -1.40    -3600.00
02438              -1.40    -3400.00
02439              -1.80    -3400.00
02440              -1.40    -3400.00
02441              -1.20    -3400.00
02442              -1.40    -3200.00
02443              -1.20    -3000.00
02444              -1.40    -3200.00
02445              -1.20    -3200.00
02446              -1.40    -2800.00
02447              -1.40    -3000.00
02448              -1.40    -2800.00
02449              -1.20    -2800.00
02450              -1.80    -2800.00
02451              -1.20    -2600.00
02452              -0.60    -2600.00
02453              -1.40    -2400.00
02454              -1.20    -2400.00
02455              -0.60    -2400.00
02456              -0.60    -2400.00
02457              -1.20    -2000.00
02458              -1.00    -2200.00
02459              -0.60    -2000.00
02460              -1.20    -2000.00
02461              -1.20    -2000.00
02462              -0.60    -1800.00
02463              -0.40    -1800.00
02464              -1.40    -1800.00
02465              -1.00    -1600.00
02466              -0.40    -1600.00
02467              -1.00    -1600.00
02468              -1.00    -1600.00
02469              -0.60    -1200.00
02470              -0.60    -1200.00
02471              -0.60    -1200.00
02472              -0.60    -1200.00
02473              -0.60    -1200.00
02474              -0.40    -1000.00
02475              -0.80    -1000.00
02476              -0.60     -800.00
02477              -0.20     -800.00
02478              -0.20     -800.00
02479              -0.60     -800.00
02480              -0.60     -800.00
02481              -0.20     -600.00
02482              -0.60     -600.00
02483              -0.60     -400.00
02484              -0.60     -400.00
02485              -0.20     -200.00
02486              -0.40     -200.00
02487              -0.60     -200.00
02488              -0.40     -200.00
02489              -0.40        0.00
02490              -0.40        0.00
02491              -0.20        0.00
02492               0.40      200.00
02493               1.20      200.00
02494              -0.20      200.00
02495              -1.20      400.00
02496               0.60      400.00
02497               0.40      400.00
02498              -0.60      600.00
02499               3.40      600.00
02500              14.20      800.00
02501              -0.40     1000.00
02502             -25.00      800.00
02503             -19.40      800.00
02504              25.00      800.00
02505              25.00     1600.00
02506             -25.00     1000.00
02507             -25.00     1200.00
02508              25.00     1200.00
02509              25.00     1400.00
02510             -25.00     1400.00
02511              25.00     1400.00
02512              25.00     2000.00
02513             -25.00     1200.00
02514             -25.00     2000.00
02515              25.00     1600.00
02516              10.80     1800.00
02517             -25.00     2000.00
02518              25.00     2000.00
02519              25.00     2000.00
02520             -25.00     2400.00
02521               1.60     2200.00
02522              25.00     2000.00
02523             -25.00     2400.00
02524             -25.00     2600.00
02525              25.00     2200.00
02526              25.00     2400.00
02527             -25.00     2800.00
02528             -22.20     2400.00
02529              25.00     2800.00
02530             -17.80     2800.00
02531             -25.00     2800.00
02532              25.00     2800.00
02533              25.00     3000.00
02534             -25.00     3000.00
02535              25.00     3000.00
02536              25.00     3200.00
02537             -25.00     3400.00
02538             -13.40     3200.00
02539              25.00     3200.00
02540             -15.00     3400.00
02541             -25.00     3600.00
02542              25.00     3400.00
02543              18.20     3600.00
02544             -25.00     3600.00
02545               9.00     3600.00
02546              25.00     3800.00
02547             -22.80     3800.00
02548              -9.60     4000.00
02549              25.00     4000.00
02550              -2.20     4000.00
02551             -19.80     4000.00
02552              16.60     4200.00
02553              12.40     4000.00
02554             -17.80     4400.00
02555               1.20     4400.00
02556              18.60     4400.00
02557              -8.20     4400.00
02558              -8.00     4400.00
02559              14.60     4600.00
02560               3.40     4600.00
02561             -11.00     4800.00
02562               6.80     4800.00
02563               9.80     4800.00
02564              -7.60     4800.00
02565              -0.40     4800.00
02566              11.40     4800.00
02567              -1.20     5200.00
02568              -4.60     5000.00
02569               8.40     5200.00
02570               4.20     5200.00
02571              -4.40     5400.00
02572               3.00     5200.00
02573               7.40     5600.00
02574              -0.60     5400.00
02575              -0.40     5600.00
02576               6.00     5400.00
02577               3.40     5600.00
02578              -1.20     5600.00
02579               3.80     5600.00
02580               5.40     5600.00
02581               0.40     5800.00
02582               1.20     5800.00
02583               5.80     6000.00
02584               2.00     6000.00
02585               1.00     6000.00
02586               4.20     6000.00
02587               3.80     6200.00
02588               1.40     6200.00
02589               3.40     6200.00
02590               4.20     6200.00
02591               2.60     6400.00
02592               3.00     6400.00
02593               3.80     6400.00
02594               3.40     6400.00
02595               3.40     6400.00
02596               4.20     6400.00
02597               3.60     6800.00
02598               3.40     6400.00
02599               3.80     6600.00
02600               3.80     6800.00
02601               3.60     6800.00
02602               4.20     6800.00
02603               4.20     6800.00
02604               3.80     7000.00
02605               4.20     6800.00
02606               4.40     6800.00
02607               4.00     7000.00
02608               4.20     6800.00
02609               4.60     7000.00
02610               4.60     7000.00
02611               4.40     7000.00
02612               5.00     7200.00
02613               5.00     7000.00
02614               4.60     7200.00
02615               5.00     7200.00
02616               5.20     7200.00
02617               5.20     7200.00
02618               5.20     7200.00
02619               5.40     7200.00
02620               5.60     7400.00
02621               5.20     7200.00
02622               5.40     7600.00
02623               6.00     7600.00
02624               5.80     7600.00
02625               6.00     7600.00
02626               6.60     7400.00
02627               6.80     7600.00
02628               6.00     7600.00
02629               6.60     7800.00
02630               7.00     7800.00
02631               6.60     7800.00
02632               6.80     7600.00
02633               7.60     7800.00
02634               6.80     7600.00
02635               7.20     7800.00
02636               8.20     7800.00
02637               7.60     7800.00
02638               7.80     8000.00
02639               8.40     8000.00
02640               8.40     8000.00
02641               8.60     8000.00
02642               8.60     8200.00
02643               8.80     8000.00
02644               9.00     8200.00
02645               9.40     8000.00
02646               9.00     8200.00
02647               9.40     8000.00
02648              10.00     8000.00
02649               9.80     8200.00
02650              10.00     8200.00
02651              10.80     8000.00
02652              10.80     8200.00
02653              10.20     8000.00
02654              11.40     8000.00
02655              12.20     8200.00
02656              11.00     8200.00
02657              11.60     8200.00
02658              12.40     8000.00
02659              12.00     8200.00
02660              12.20     8200.00
02661              13.20     8400.00
02662              13.20     8000.00
02663              13.00     8200.00
02664              13.00     8200.00
02665              13.80     8200.00
02666              13.60     8400.00
02667              13.60     8200.00
02668              14.60     8200.00
02669              15.00     8200.00
02670              14.20     8400.00
02671              14.60     8400.00
02672              15.40     8200.00
02673              14.80     8200.00
02674              14.80     8200.00
02675              15.40     8200.00
02676              15.40     8200.00
02677              15.20     8200.00
02678              14.60     8200.00
02679              14.80     8200.00
02680              14.60     8200.00
02681              14.20     8000.00
02682              13.80     8200.00
02683              14.00     8200.00
02684              13.40     8400.00
02685              12.60     8200.00
02686              12.40     8200.00
02687              12.40     8200.00
02688              11.80     8000.00
02689              12.00     8400.00
02690              11.80     8200.00
02691              11.00     8200.00
02692              10.60     8200.00
02693              10.80     8200.00
02694              10.20     8000.00
02695               9.80     8200.00
02696              10.00     8000.00
02697              10.00     8200.00
02698               9.40     8200.00
02699               9.00     8000.00
02700               9.60     8200.00
02701               9.20     8000.00
02702               8.40     8000.00
02703               9.00     8000.00
02704               9.20     8200.00
02705               8.20     8000.00
02706               7.80     8000.00
02707               8.40     7800.00
02708               7.80     8000.00
02709               7.00     7800.00
02710               7.60     7800.00
02711               7.80     7800.00
02712               7.40     7800.00
02713               7.20     7800.00
02714               7.00     7800.00
02715               7.40     7800.00
02716               6.60     7800.00
02717               6.60     7800.00
02718               7.20     7600.00
02719               6.60     7600.00
02720               5.80     7600.00
02721               6.80     7600.00
02722               6.20     7600.00
02723               5.00     7600.00
02724               6.60     7600.00
02725               6.60     7400.00
02726               5.20     7400.00
02727               5.80     7600.00
02728               5.80     7200.00
02729               5.20     7200.00
02730               5.20     7200.00
02731               5.60     7200.00
02732               5.00     7200.00
02733               5.00     7200.00
02734               5.40     7200.00
02735               5.00     7200.00
02736               4.80     7200.00
02737               4.60     7000.00
02738               4.60     7000.00
02739               4.60     7000.00
02740               4.20     6800.00
02741               4.20     6800.00
02742               4.20     6800.00
02743               3.80     6800.00
02744               4.20     6800.00
02745               4.20     6800.00
02746               3.80     6600.00
02747               3.80     6800.00
02748               3.80     6800.00
02749               3.60     6600.00
02750               3.40     6600.00
02751               3.60     6400.00
02752               3.60     6400.00
02753               3.40     6400.00
02754               3.20     6400.00
02755               3.20     6400.00
02756               3.40     6200.00
02757               3.00     6200.00
02758               3.00     6200.00
02759               3.00     6200.00
02760               3.00     6200.00
02761               2.80     6200.00
02762               2.80     6200.00
02763               2.80     6000.00
02764               2.80     5800.00
02765               2.80     6000.00
02766               2.60     6000.00
02767               2.40     5600.00
02768               2.60     5800.00
02769               2.60     5800.00
02770               2.60     5600.00
02771               2.60     5600.00
02772               2.40     5600.00
02773               2.20     5400.00
02774               2.60     5400.00
02775               2.00     5400.00
02776               2.00     5400.00
02777               2.60     5400.00
02778               2.20     5400.00
02779               2.00     5200.00
02780               2.60     5000.00
02781               2.00     5000.00
02782               1.80     4800.00
02783               2.20     4800.00
02784               2.00     4800.00
02785               1.80     4800.00
02786               2.20     4600.00
02787               2.00     4600.00
02788               1.60     4600.00
02789               2.00     4600.00
02790               2.00     4600.00
02791               1.40     4600.00
02792               1.80     4600.00
02793               2.00     4400.00
02794               1.80     4400.00
02795               1.40     4400.00
02796               1.80     4200.00
02797               1.80     4000.00
02798               1.20     4000.00
02799               1.40     4000.00
02800               1.60     4000.00
02801               1.20     3800.00
02802               1.20     4000.00
02803               1.40     3600.00
02804               1.20     3600.00
02805               1.00     3600.00
02806               1.00     3600.00
02807               1.20     3400.00
02808               1.00     3600.00
02809               1.00     3200.00
02810               1.20     3200.00
02811               1.00     3200.00
02812               0.60     3200.00
02813               1.20     3200.00
02814               1.20     3200.00
02815               0.60     3000.00
02816               1.00     3000.00
02817               0.60     3000.00
02818               0.40     2800.00
02819               0.60     2800.00
02820               0.60     2800.00
02821               0.80     2600.00
02822               0.60     2600.00
02823               0.60     2400.00
02824               1.00     2400.00
02825               0.40     2200.00
02826               0.40     2200.00
02827               0.60     2400.00
02828               0.40     2200.00
02829               0.40     2000.00
02830               0.40     2200.00
02831               0.60     2000.00
02832               0.20     2000.00
02833               0.20     1800.00
02834               0.60     2000.00
02835               0.40     1800.00
02836               0.40     1600.00
02837               0.40     1800.00
02838               0.40     1600.00
02839               0.20     1600.00
02840               0.20     1400.00
02841               0.40     1400.00
02842               0.00     1200.00
02843               0.20     1200.00
02844               0.20     1200.00
02845               0.40     1000.00
02846               0.40     1000.00
02847               0.20      800.00
02848              -0.20      800.00
02849               0.20      600.00
02850               0.00      600.00
02851              -0.20      600.00
02852              -0.20      400.00
02853               0.20      400.00
02854              -0.20      400.00
02855               0.20      200.00
02856               0.20      400.00
02857               0.20        0.00
02858              -0.40        0.00
02859               0.20        0.00
02860              -0.20     -200.00
02861              -0.20        0.00
02862              -0.20     -200.00
02863               0.20     -200.00
02864               0.60     -200.00
02865              -0.20     -200.00
02866              -1.20     -400.00
02867               0.20     -200.00
02868               0.40     -400.00
02869               0.20     -600.00
02870              15.00     -800.00
02871              16.40    -1000.00
02872             -25.00    -1200.00
02873             -25.00    -1000.00
02874              25.00     -800.00
02875              25.00    -1200.00
02876             -25.00    -1400.00
02877             -25.00     -800.00
02878              25.00    -1200.00
02879              25.00    -1400.00
02880             -25.00    -1600.00
02881             -25.00    -1200.00
02882              25.00    -1800.00
02883              25.00    -1800.00
02884             -25.00    -1000.00
02885              25.00    -2200.00
02886              25.00    -1800.00
02887             -25.00    -1800.00
02888             -25.00    -2000.00
02889              25.00    -2200.00
02890               3.00    -1800.00
02891             -25.00    -2000.00
02892              25.00    -2400.00
02893              25.00    -2200.00
02894             -25.00    -2200.00
02895               5.00    -2600.00
02896              25.00    -2400.00
02897             -25.00    -2400.00
02898             -25.00    -2600.00
02899              25.00    -2600.00
02900              25.00    -2600.00
02901             -25.00    -2800.00
02902              25.00    -3000.00
02903              25.00    -3000.00
02904             -25.00    -2800.00
02905             -25.00    -3200.00
02906              25.00    -3200.00
02907             -25.00    -3000.00
02908             -25.00    -3200.00
02909              25.00    -3400.00
02910              25.00    -3400.00
02911             -25.00    -3400.00
02912               7.20    -3600.00
02913              25.00    -3600.00
02914             -25.00    -3600.00
02915             -25.00    -3600.00
02916              25.00    -3800.00
02917              -3.40    -3800.00
02918             -25.00    -4000.00
02919              22.20    -4000.00
02920              22.80    -4000.00
02921             -25.00    -4000.00
02922              -5.80    -4200.00
02923              25.00    -4200.00
02924             -15.00    -4200.00
02925             -23.20    -4200.00
02926              21.20    -4400.00
02927               4.20    -4400.00
02928             -25.00    -4400.00
02929               5.60    -4600.00
02930              14.80    -4600.00
02931             -17.80    -4600.00
02932              -9.20    -4800.00
02933              15.00    -4600.00
02934              -6.60    -4800.00
02935             -15.80    -5000.00
02936               9.60    -5000.00
02937               3.00    -5000.00
02938             -15.60    -5000.00
02939              -0.60    -5200.00
02940               7.60    -5200.00
02941             -10.00    -5200.00
02942              -8.40    -5400.00
02943               6.60    -5600.00
02944              -2.60    -5400.00
02945             -10.80    -5600.00
02946               0.80    -5600.00
02947               1.80    -5600.00
02948              -8.60    -5800.00
02949              -4.40    -5600.00
02950               3.00    -5800.00
02951              -3.80    -5800.00
02952              -7.60    -5800.00
02953              -0.40    -5800.00
02954              -1.00    -6000.00
02955              -7.40    -5800.00
02956              -3.80    -6000.00
02957              -0.20    -6000.00
02958              -4.80    -6200.00
02959              -5.40    -6000.00
02960              -1.80    -6200.00
02961              -2.80    -6200.00
02962              -5.80    -6200.00
02963              -3.80    -6400.00
02964              -2.20    -6400.00
02965              -4.40    -6400.00
02966              -4.60    -6600.00
02967              -3.40    -6600.00
02968              -3.80    -6600.00
02969              -4.60    -6600.00
02970              -4.20    -6600.00
02971              -4.40    -6600.00
02972              -4.60    -6600.00
02973              -4.00    -6800.00
02974              -4.20    -6800.00
02975              -5.00    -6800.00
02976              -4.20    -6800.00
02977              -4.60    -6800.00
02978              -5.20    -7000.00
02979              -4.20    -7000.00
02980              -4.20    -7000.00
02981              -5.40    -7200.00
02982              -5.00    -7200.00
02983              -4.60    -7200.00
02984              -5.60    -7200.00
02985              -5.80    -7200.00
02986              -5.20    -7200.00
02987              -5.40    -7400.00
02988              -5.80    -7200.00
02989              -5.40    -7400.00
02990              -5.40    -7400.00
02991              -6.00    -7400.00
02992              -6.20    -7400.00
02993              -5.40    -7400.00
02994              -6.00    -7400.00
02995              -6.80    -7600.00
02996              -6.00    -7600.00
02997              -6.20    -7600.00
02998              -7.60    -7600.00
02999              -7.00    -7600.00
03000              -6.20    -7600.00
03001              -7.60    -7600.00
03002              -7.80    -7800.00
03003              -6.60    -7800.00
03004              -7.40    -7800.00
03005              -8.60    -8000.00
03006              -7.60    -7800.00
03007              -7.00    -8000.00
03008              -8.60    -8000.00
03009              -8.60    -8000.00
03010              -7.60    -8000.00
03011              -9.00    -8000.00
03012              -9.20    -8000.00
03013              -8.60    -8000.00
03014              -8.60    -8000.00
03015             -10.00    -8000.00
03016              -9.40    -8000.00
03017              -9.20    -8200.00
03018             -10.20    -8000.00
03019              -9.80    -8200.00
03020              -9.60    -8200.00
03021             -11.20    -8200.00
03022             -11.00    -8200.00
03023             -10.60    -8200.00
03024             -10.80    -8200.00
03025             -11.40    -8200.00
03026             -11.40    -8200.00
03027             -11.60    -8200.00
03028             -11.80    -8200.00
03029             -12.40    -8200.00
03030             -12.60    -8200.00
03031             -12.20    -8200.00
03032             -13.20    -8400.00
03033             -13.00    -8200.00
03034             -13.00    -8200.00
03035             -13.40    -8200.00
03036             -14.00    -8200.00
03037             -13.80    -8400.00
03038             -13.80    -8200.00
03039             -14.80    -8200.00
03040             -14.80    -8200.00
03041             -14.20    -8400.00
03042             -15.40    -8200.00
03043             -15.40    -8200.00
03044             -14.60    -8400.00
03045             -15.40    -8400.00
03046             -15.60    -8200.00
03047             -15.40    -8200.00
03048             -15.00    -8200.00
03049             -15.60    -8200.00
03050             -15.20    -8400.00
03051             -14.80    -8200.00
03052             -14.80    -8200.00
03053             -14.80    -8200.00
03054             -14.00    -8200.00
03055             -13.40    -8200.00
03056             -13.40    -8200.00
03057             -13.20    -8200.00
03058             -12.40    -8200.00
03059             -12.60    -8400.00
03060             -12.20    -8200.00
03061             -11.60    -8200.00
03062             -11.80    -8200.00
03063             -11.40    -8400.00
03064             -11.20    -8200.00
03065             -11.20    -8200.00
03066             -11.00    -8200.00
03067             -10.80    -8200.00
03068             -10.40    -8200.00
03069             -10.20    -8200.00
03070             -10.00    -8000.00
03071              -9.40    -8200.00
03072              -9.40    -8000.00
03073              -9.40    -8200.00
03074              -9.00    -8000.00
03075              -9.20    -8200.00
03076              -9.00    -8000.00
03077              -8.80    -8000.00
03078              -8.80    -8000.00
03079              -8.60    -8000.00
03080              -8.20    -8000.00
03081              -8.20    -8000.00
03082              -7.80    -7800.00
03083              -7.80    -7800.00
03084              -7.80    -8000.00
03085              -7.40    -8000.00
03086              -7.60    -7600.00
03087              -7.40    -7800.00
03088              -7.00    -7800.00
03089              -7.00    -7600.00
03090              -6.80    -7600.00
03091              -6.80    -7600.00
03092              -6.60    -7600.00
03093              -6.80    -7400.00
03094              -6.20    -7600.00
03095              -6.20    -7600.00
03096              -6.60    -7600.00
03097              -6.20    -7400.00
03098              -6.00    -7600.00
03099              -6.00    -7400.00
03100              -6.00    -7400.00
03101              -5.40    -7400.00
03102              -5.40    -7400.00
03103              -5.80    -7200.00
03104              -5.60    -7200.00
03105              -4.40    -7400.00
03106              -5.40    -7200.00
03107              -6.00    -7200.00
03108              -4.40    -7000.00
03109              -4.60    -7200.00
03110              -6.00    -7000.00
03111              -4.60    -7200.00
03112              -3.40    -6800.00
03113              -5.40    -7000.00
03114              -5.00    -7000.00
03115              -3.80    -6800.00
03116              -4.40    -6800.00
03117              -4.80    -6800.00
03118              -4.40    -6800.00
03119              -3.60    -6600.00
03120              -3.80    -6600.00
03121              -5.40    -6600.00
03122              -3.80    -6400.00
03123              -2.60    -6600.00
03124              -5.40    -6600.00
03125              -4.40    -6400.00
03126              -1.80    -6400.00
03127              -4.40    -6400.00
03128              -5.20    -6200.00
03129              -2.00    -6400.00
03130              -3.00    -6200.00
03131              -5.20    -6200.00
03132              -3.00    -6000.00
03133              -2.80    -6000.00
03134              -4.40    -6000.00
03135              -3.60    -6000.00
03136              -2.60    -6000.00
03137              -3.20    -6000.00
03138              -3.40    -5800.00
03139              -3.40    -5800.00
03140              -3.00    -5800.00
03141              -2.80    -5600.00
03142              -3.60    -5600.00
03143              -3.00    -5600.00
03144              -2.60    -5600.00
03145              -3.20    -5600.00
03146              -3.40    -5600.00
03147              -2.60    -5600.00
03148              -2.80    -5200.00
03149              -3.40    -5200.00
03150              -2.60    -5200.00
03151              -2.20    -5200.00
03152              -2.20    -5000.00
03153              -3.20    -5200.00
03154              -2.60    -4800.00
03155              -1.80    -5000.00
03156              -3.60    -5000.00
03157              -2.80    -4600.00
03158              -1.40    -4600.00
03159              -2.20    -4600.00
03160              -3.40    -4600.00
03161              -1.80    -4600.00
03162              -0.60    -4600.00
03163              -3.60    -4400.00
03164              -2.60    -4400.00
03165              -0.60    -4400.00
03166              -2.20    -4200.00
03167              -2.80    -4200.00
03168              -0.80    -4200.00
03169              -1.40    -4200.00
03170              -2.60    -4200.00
03171              -1.40    -4000.00
03172              -1.40    -4000.00
03173              -2.00    -4000.00
03174              -2.00    -3800.00
03175              -1.40    -3800.00
03176              -1.20    -3800.00
03177              -2.20    -3600.00
03178              -1.60    -3600.00
03179              -0.60    -3600.00
03180              -1.80    -3400.00
03181              -2.00    -3400.00
03182              -0.40    -3400.00
03183              -1.20    -3400.00
03184              -2.40    -3200.00
03185              -1.20    -3200.00
03186              -0.40    -3200.00
03187              -2.20    -3000.00
03188              -1.40    -3200.00
03189              -0.60    -2800.00
03190              -2.00    -2800.00
03191              -1.20    -2800.00
03192              -0.60    -2800.00
03193              -1.20    -2800.00
03194              -1.20    -2600.00
03195              -0.60    -2400.00
03196              -1.00    -2600.00
03197              -1.80    -2400.00
03198              -1.00    -2400.00
03199              -1.00    -2400.00
03200              -1.40    -2200.00
03201              -1.20    -2000.00
03202              -1.20    -2000.00
03203              -0.80    -2000.00
03204              -1.00    -2000.00
03205              -1.20    -1800.00
03206              -1.00    -1800.00
03207              -0.80    -1800.00
03208              -0.60    -1600.00
03209              -1.00    -1600.00
03210              -1.00    -1600.00
03211              -0.60    -1400.00
03212              -1.00    -1200.00
03213              -1.00    -1200.00
03214              -0.60    -1200.00
03215              -0.40    -1200.00
03216              -1.00    -1200.00
03217              -0.60    -1000.00
03218              -0.60    -1000.00
03219              -1.00     -800.00
03220              -0.60     -800.00
03221              -0.20     -800.00
03222              -0.60     -600.00
03223              -0.60     -600.00
03224               0.40     -600.00
03225              -0.40     -400.00
03226              -0.80     -200.00
03227              -0.20     -400.00
03228              -0.20     -400.00
03229              -0.80     -200.00
03230              -0.60     -200.00
03231              -0.20        0.00
03232              -0.20        0.00
03233               0.20        0.00
03234               0.40      200.00
03235               1.20        0.00
03236              -0.60      200.00
03237              -0.80      400.00
03238               0.60      400.00
03239               0.60      400.00
03240              -0.40      600.00
03241               3.60      800.00
03242              14.60      800.00
03243              -0.60     1000.00
03244             -25.00      800.00
03245             -19.40      600.00
03246              25.00      800.00
03247              25.00     1400.00
03248             -25.00     1000.00
03249             -25.00     1200.00
03250              25.00     1400.00
03251              25.00     1400.00
03252             -25.00     1200.00
03253              25.00     1200.00
03254              25.00     1800.00
03255             -25.00     1200.00
03256             -25.00     2000.00
03257              25.00     1600.00
03258               7.60     1800.00
03259             -25.00     2000.00
03260              25.00     2200.00
03261              25.00     2000.00
03262             -25.00     2200.00
03263               3.80     2400.00
03264              25.00     2000.00
03265             -25.00     2400.00
03266             -25.00     2400.00
03267              25.00     2200.00
03268              25.00     2400.00
03269             -25.00     2800.00
03270             -21.00     2400.00
03271              25.00     2800.00
03272             -19.40     2800.00
03273             -25.00     2800.00
03274              25.00     3000.00
03275              25.00     3000.00
03276             -25.00     3000.00
03277              25.00     3000.00
03278              25.00     3000.00
03279             -25.00     3400.00
03280             -13.00     3200.00
03281              25.00     3200.00
03282             -15.80     3200.00
03283             -25.00     3600.00
03284              25.00     3400.00
03285              17.80     3600.00
03286             -25.00     3600.00
03287              10.00     3600.00
03288              25.00     3800.00
03289             -23.60     3800.00
03290              -8.40     4000.00
03291              25.00     4000.00
03292              -3.40     4000.00
03293             -19.00     4000.00
03294              17.00     4200.00
03295              11.40     4000.00
03296             -17.40     4400.00
03297               1.80     4400.00
03298              18.20     4400.00
03299              -7.80     4400.00
03300              -7.40     4600.00
03301              14.80     4600.00
03302               3.40     4800.00
03303             -10.60     4600.00
03304               7.40     4800.00
03305               9.40     4800.00
03306              -7.60     4800.00
03307               0.40     4800.00
03308              11.00     4800.00
03309              -1.20     5200.00
03310              -4.20     5200.00
03311               8.20     5200.00
03312               4.20     5200.00
03313              -3.80     5400.00
03314               2.80     5400.00
03315               7.40     5400.00
03316              -0.60     5400.00
03317              -0.20     5400.00
03318               6.00     5600.00
03319               3.00     5600.00
03320              -1.00     5600.00
03321               4.20     5600.00
03322               5.00     5800.00
03323               0.40     5800.00
03324               1.60     6000.00
03325               5.40     6000.00
03326               2.00     6000.00
03327               0.80     6000.00
03328               4.20     6000.00
03329               3.80     6200.00
03330               1.40     6000.00
03331               3.40     6200.00
03332               4.40     6200.00
03333               2.60     6200.00
03334               2.80     6200.00
03335               3.80     6400.00
03336               3.00     6400.00
03337               3.00     6400.00
03338               4.00     6600.00
03339               3.00     6600.00
03340               3.40     6600.00
03341               4.00     6600.00
03342               3.40     6800.00
03343               3.40     6800.00
03344               4.60     6800.00
03345               3.60     6800.00
03346               3.60     6800.00
03347               4.60     6800.00
03348               4.40     6800.00
03349               3.60     6800.00
03350               4.60     6800.00
03351               5.00     7000.00
03352               4.20     7000.00
03353               4.60     7000.00
03354               5.00     7000.00
03355               4.60     7200.00
03356               4.40     7200.00
03357               5.00     7200.00
03358               5.20     7200.00
03359               5.40     7200.00
03360               4.80     7200.00
03361               5.40     7400.00
03362               6.20     7400.00
03363               5.20     7200.00
03364               5.60     7600.00
03365               6.80     7600.00
03366               6.00     7600.00
03367               5.80     7400.00
03368               6.60     7600.00
03369               6.80     7600.00
03370               6.00     7600.00
03371               6.80     7600.00
03372               7.20     7600.00
03373               6.80     7800.00
03374               6.80     7800.00
03375               7.80     7600.00
03376               7.60     7800.00
03377               7.00     7600.00
03378               7.80     7800.00
03379               8.20     7800.00
03380               7.60     7800.00
03381               8.20     7800.00
03382               9.00     7800.00
03383               8.40     8000.00
03384               8.40     7800.00
03385               9.40     8000.00
03386               9.20     8000.00
03387               9.00     8200.00
03388               9.20     8000.00
03389               9.80     8200.00
03390               9.20     8200.00
03391               9.60     8000.00
03392              10.20     8200.00
03393              10.80     8000.00
03394              10.00     8000.00
03395              10.80     8200.00
03396              11.20     8200.00
03397              11.20     8200.00
03398              11.00     8200.00
03399              11.80     8000.00
03400              11.60     8200.00
03401              11.60     8200.00
03402              12.20     8000.00
03403              12.40     8200.00
03404              12.60     8200.00
03405              13.20     8200.00
03406              13.20     8200.00
03407              13.40     8200.00
03408              13.40     8400.00
03409              13.80     8200.00
03410              14.20     8200.00
03411              14.00     8400.00
03412              14.20     8400.00
03413              14.80     8400.00
03414              14.80     8200.00
03415              14.60     8400.00
03416              15.00     8200.00
03417              15.40     8200.00
03418              15.00     8400.00
03419              15.40     8400.00
03420              14.80     8200.00
03421              14.80     8200.00
03422              14.60     8400.00
03423              14.40     8400.00
03424              13.80     8200.00
03425              13.80     8200.00
03426              13.40     8400.00
03427              13.00     8400.00
03428              12.40     8200.00
03429              12.60     8400.00
03430              12.20     8000.00
03431              11.60     8000.00
03432              11.80     8200.00
03433              11.40     8200.00
03434              10.80     8200.00
03435              10.60     8000.00
03436              10.60     8200.00
03437              10.00     8200.00
03438              10.00     8000.00
03439              10.00     8200.00
03440               9.80     8000.00
03441               9.80     8000.00
03442               9.20     8000.00
03443               9.20     8000.00
03444               9.00     8200.00
03445               8.60     8000.00
03446               8.60     7800.00
03447               8.60     8000.00
03448               8.20     8000.00
03449               8.20     7800.00
03450               8.20     7800.00
03451               7.80     8000.00
03452               7.40     8000.00
03453               7.60     7800.00
03454               7.40     7800.00
03455               7.00     7800.00
03456               7.00     7800.00
03457               6.80     7800.00
03458               6.80     7600.00
03459               6.60     7600.00
03460               6.60     7600.00
03461               6.40     7600.00
03462               6.20     7800.00
03463               6.20     7600.00
03464               5.80     7600.00
03465               5.80     7600.00
03466               5.80     7400.00
03467               5.20     7600.00
03468               5.40     7400.00
03469               5.80     7600.00
03470               5.20     7200.00
03471               5.00     7400.00
03472               5.40     7200.00
03473               4.60     7200.00
03474               5.80     7200.00
03475               5.20     7200.00
03476               4.20     7000.00
03477               5.40     7200.00
03478               4.60     7200.00
03479               3.60     7200.00
03480               5.00     7000.00
03481               4.60     7000.00
03482               3.60     7000.00
03483               4.40     7000.00
03484               5.00     6800.00
03485               3.80     6800.00
03486               4.20     6800.00
03487               4.60     6800.00
03488               3.60     6800.00
03489               3.60     6600.00
03490               4.20     6800.00
03491               3.60     6600.00
03492               3.20     6600.00
03493               4.20     6600.00
03494               3.60     6400.00
03495               3.00     6400.00
03496               3.60     6200.00
03497               3.60     6400.00
03498               3.20     6400.00
03499               3.40     6200.00
03500               3.60     6200.00
03501               2.60     6200.00
03502               3.40     6200.00
03503               3.60     6000.00
03504               3.00     6200.00
03505               2.60     6000.00
03506               3.20     6000.00
03507               3.60     6000.00
03508               2.80     6000.00
03509               2.00     5800.00
03510               3.20     6000.00
03511               3.60     5600.00
03512               1.00     5600.00
03513               2.00     5600.00
03514               4.40     5600.00
03515               2.20     5400.00
03516               1.00     5400.00
03517               4.00     5400.00
03518               3.00     5400.00
03519              -0.60     5400.00
03520               3.00     5200.00
03521               5.00     5200.00
03522              -0.20     5200.00
03523              -0.60     5000.00
03524               5.20     5000.00
03525               3.00     4800.00
03526              -1.80     4800.00
03527               2.60     4800.00
03528               4.40     4800.00
03529              -0.40     4600.00
03530               0.20     4600.00
03531               4.60     4600.00
03532               2.00     4600.00
03533              -0.80     4400.00
03534               2.20     4400.00
03535               3.00     4400.00
03536               0.20     4400.00
03537               1.00     4400.00
03538               2.80     4000.00
03539               1.20     4000.00
03540               0.60     4000.00
03541               1.60     4000.00
03542               1.00     4000.00
03543               1.00     3800.00
03544               2.00     3800.00
03545               1.20     3800.00
03546               0.40     3600.00
03547               1.20     3600.00
03548               1.80     3600.00
03549               0.20     3400.00
03550               1.20     3600.00
03551               2.00     3400.00
03552               0.80     3400.00
03553              -0.20     3200.00
03554               2.20     3200.00
03555               1.60     3200.00
03556              -1.00     3000.00
03557               0.60     3000.00
03558               2.60     3000.00
03559               0.40     2800.00
03560              -0.40     2800.00
03561               2.00     2800.00
03562               1.20     2800.00
03563              -0.20     2800.00
03564               1.20     2600.00
03565               1.80     2400.00
03566               0.00     2400.00
03567               0.40     2400.00
03568               1.40     2200.00
03569               0.40     2200.00
03570               0.20     2000.00
03571               0.80     2000.00
03572               1.00     2000.00
03573               0.00     2000.00
03574               0.40     1800.00
03575               0.60     2000.00
03576               0.40     1800.00
03577               0.20     1800.00
03578               0.60     1600.00
03579               0.40     1600.00
03580              -0.20     1400.00
03581               0.60     1400.00
03582               0.60     1400.00
03583               0.20     1400.00
03584               0.00     1200.00
03585               0.40     1200.00
03586               0.20     1000.00
03587              -0.40     1000.00
03588              -0.20      800.00
03589               0.20      800.00
03590               0.20      800.00
03591              -0.40      800.00
03592              -0.40      400.00
03593               0.20      400.00
03594              -0.40      600.00
03595              -0.40      600.00
03596              -0.20      400.00
03597               0.20      400.00
03598              -0.40      200.00
03599              -0.40      200.00
03600              -0.40        0.00
03601              -0.40        0.00
03602              -0.60        0.00
03603              -0.60        0.00
03604               0.00     -200.00
03605               0.20     -200.00
03606               0.40     -200.00
03607              -0.20     -200.00
03608              -1.00     -400.00
03609              -0.20     -400.00
03610              -0.20     -400.00
03611               0.40     -400.00
03612              15.60     -400.00
03613              15.80    -1000.00
03614             -25.00    -1200.00
03615             -25.00     -800.00
03616              25.00     -800.00
03617              25.00    -1000.00
03618             -25.00    -1400.00
03619             -25.00     -800.00
03620              25.00    -1400.00
03621              25.00    -1200.00
03622             -25.00    -1600.00
03623             -25.00    -1200.00
03624              25.00    -1600.00
03625              25.00    -1800.00
03626             -25.00    -1000.00
03627              25.00    -2000.00
03628              25.00    -1800.00
03629             -25.00    -1600.00
03630             -25.00    -2000.00
03631              25.00    -2200.00
03632              -1.00    -2000.00
03633             -25.00    -2000.00
03634              25.00    -2400.00
03635              25.00    -2000.00
03636             -25.00    -2400.00
03637               8.40    -2400.00
03638              25.00    -2600.00
03639             -25.00    -2400.00
03640             -25.00    -2600.00
03641              25.00    -2800.00
03642              25.00    -2600.00
03643             -25.00    -2800.00
03644              25.00    -3000.00
03645              25.00    -2800.00
03646             -25.00    -2800.00
03647             -25.00    -3200.00
03648              25.00    -3200.00
03649             -25.00    -3200.00
03650             -25.00    -3400.00
03651              25.00    -3400.00
03652              25.00    -3400.00
03653             -25.00    -3400.00
03654               8.40    -3400.00
03655              25.00    -3600.00
03656             -25.00    -3600.00
03657             -25.00    -3600.00
03658              25.00    -3600.00
03659              -4.20    -3600.00
03660             -25.00    -4000.00
03661              22.60    -4000.00
03662              22.00    -4000.00
03663             -25.00    -4000.00
03664              -4.60    -4200.00
03665              25.00    -4200.00
03666             -15.80    -4200.00
03667             -22.80    -4400.00
03668              21.20    -4400.00
03669               2.80    -4400.00
03670             -25.00    -4400.00
03671               6.60    -4600.00
03672              13.80    -4400.00
03673             -18.20    -4600.00
03674              -8.20    -4800.00
03675              14.80    -4800.00
03676              -7.00    -4600.00
03677             -15.00    -5000.00
03678               9.40    -5000.00
03679               2.80    -5000.00
03680             -15.60    -5000.00
03681              -0.20    -5200.00
03682               7.60    -5200.00
03683             -10.60    -5200.00
03684              -7.80    -5400.00
03685               7.00    -5400.00
03686              -3.00    -5400.00
03687             -10.40    -5600.00
03688               1.80    -5600.00
03689               1.20    -5600.00
03690              -8.60    -5600.00
03691              -3.80    -5600.00
03692               2.80    -5600.00
03693              -4.40    -5600.00
03694              -7.00    -6000.00
03695              -0.20    -5800.00
03696              -1.00    -5800.00
03697              -7.00    -6000.00
03698              -3.00    -6000.00
03699              -0.40    -6000.00
03700              -4.40    -6000.00
03701              -4.80    -6200.00
03702              -1.80    -6200.00
03703              -3.00    -6200.00
03704              -5.20    -6200.00
03705              -3.60    -6400.00
03706              -2.80    -6400.00
03707              -3.60    -6400.00
03708              -3.80    -6600.00
03709              -3.60    -6600.00
03710              -4.20    -6600.00
03711              -3.80    -6600.00
03712              -4.40    -6600.00
03713              -4.60    -6800.00
03714              -4.20    -6800.00
03715              -3.80    -6800.00
03716              -4.60    -6800.00
03717              -4.40    -6800.00
03718              -4.00    -6800.00
03719              -5.00    -7000.00
03720              -5.00    -7000.00
03721              -4.40    -7000.00
03722              -4.60    -7000.00
03723              -5.40    -7000.00
03724              -5.40    -7200.00
03725              -4.80    -7200.00
03726              -5.40    -7200.00
03727              -6.20    -7200.00
03728              -5.20    -7400.00
03729              -5.20    -7200.00
03730              -6.20    -7400.00
03731              -6.00    -7400.00
03732              -5.20    -7200.00
03733              -6.40    -7400.00
03734              -6.80    -7400.00
03735              -5.40    -7400.00
03736              -6.00    -7400.00
03737              -7.00    -7800.00
03738              -6.20    -7600.00
03739              -6.20    -7600.00
03740              -7.60    -7600.00
03741              -7.40    -7600.00
03742              -6.60    -7600.00
03743              -7.40    -7600.00
03744              -7.80    -7800.00
03745              -6.80    -7600.00
03746              -7.00    -8000.00
03747              -8.40    -7800.00
03748              -7.80    -8000.00
03749              -7.40    -8000.00
03750              -8.40    -8000.00
03751              -8.60    -7800.00
03752              -7.40    -8000.00
03753              -9.20    -8000.00
03754              -9.00    -8000.00
03755              -8.40    -8000.00
03756              -9.20    -8000.00
03757              -9.80    -8200.00
03758              -9.00    -8000.00
03759              -9.20    -8000.00
03760             -10.80    -8000.00
03761              -9.20    -8200.00
03762              -9.00    -8000.00
03763             -11.80    -8200.00
03764             -11.40    -8000.00
03765              -9.20    -8000.00
03766             -11.00    -8200.00
03767             -12.20    -8200.00
03768             -10.80    -8200.00
03769             -11.00    -8200.00
03770             -12.40    -8200.00
03771             -12.60    -8000.00
03772             -11.60    -8200.00
03773             -11.80    -8200.00
03774             -13.60    -8200.00
03775             -13.20    -8200.00
03776             -12.00    -8200.00
03777             -14.00    -8200.00
03778             -14.80    -8200.00
03779             -12.60    -8400.00
03780             -13.40    -8200.00
03781             -15.80    -8200.00
03782             -14.80    -8400.00
03783             -13.80    -8400.00
03784             -15.80    -8200.00
03785             -15.80    -8200.00
03786             -14.20    -8400.00
03787             -15.00    -8200.00
03788             -16.20    -8400.00
03789             -15.60    -8200.00
03790             -15.00    -8400.00
03791             -15.80    -8200.00
03792             -15.60    -8200.00
03793             -14.60    -8200.00
03794             -14.80    -8400.00
03795             -14.80    -8200.00
03796             -14.00    -8400.00
03797             -13.40    -8200.00
03798             -14.00    -8200.00
03799             -13.40    -8200.00
03800             -12.40    -8200.00
03801             -12.40    -8200.00
03802             -12.60    -8200.00
03803             -12.20    -8200.00
03804             -11.60    -8000.00
03805             -11.40    -8200.00
03806             -11.60    -8200.00
03807             -10.60    -8000.00
03808             -10.80    -8200.00
03809             -10.80    -8000.00
03810             -10.20    -8200.00
03811              -9.80    -8200.00
03812             -10.00    -8200.00
03813              -9.40    -8000.00
03814              -9.40    -8200.00
03815              -9.40    -8000.00
03816              -9.20    -8000.00
03817              -9.00    -8000.00
03818              -8.60    -8000.00
03819              -8.60    -8000.00
03820              -8.60    -8000.00
03821              -8.20    -8000.00
03822              -8.20    -8000.00
03823              -8.20    -8000.00
03824              -7.60    -7800.00
03825              -7.60    -7600.00
03826              -7.60    -7800.00
03827              -7.20    -8000.00
03828              -7.60    -7800.00
03829              -7.00    -7800.00
03830              -7.00    -7600.00
03831              -7.40    -7600.00
03832              -6.60    -7600.00
03833              -6.80    -7600.00
03834              -7.00    -7600.00
03835              -6.60    -7600.00
03836              -6.20    -7400.00
03837              -6.60    -7400.00
03838              -6.20    -7400.00
03839              -6.00    -7400.00
03840              -5.80    -7400.00
03841              -6.00    -7200.00
03842              -5.80    -7400.00
03843              -5.40    -7200.00
03844              -5.20    -7200.00
03845              -6.00    -7200.00
03846              -5.40    -7200.00
03847              -5.00    -7200.00
03848              -6.00    -7200.00
03849              -6.00    -7200.00
03850              -4.40    -7200.00
03851              -5.20    -7000.00
03852              -5.80    -7000.00
03853              -4.20    -7000.00
03854              -4.60    -7000.00
03855              -5.40    -6800.00
03856              -4.40    -6800.00
03857              -3.80    -6800.00
03858              -5.20    -6800.00
03859              -4.60    -6800.00
03860              -3.80    -6600.00
03861              -4.60    -6600.00
03862              -4.60    -6600.00
03863              -3.80    -6600.00
03864              -4.20    -6400.00
03865              -4.40    -6400.00
03866              -4.00    -6600.00
03867              -3.80    -6400.00
03868              -3.80    -6400.00
03869              -3.80    -6400.00
03870              -3.40    -6400.00
03871              -3.60    -6400.00
03872              -3.80    -6400.00
03873              -3.40    -6000.00
03874              -3.40    -6000.00
03875              -3.60    -6200.00
03876              -3.20    -6000.00
03877              -3.20    -6000.00
03878              -3.60    -6000.00
03879              -3.00    -5800.00
03880              -3.00    -6000.00
03881              -3.40    -5800.00
03882              -3.00    -5600.00
03883              -2.60    -5600.00
03884              -2.80    -5600.00
03885              -2.80    -5600.00
03886              -2.60    -5600.00
03887              -2.80    -5600.00
03888              -2.40    -5400.00
03889              -2.60    -5400.00
03890              -2.60    -5200.00
03891              -2.60    -5200.00
03892              -2.80    -5200.00
03893              -2.40    -5200.00
03894              -2.60    -5000.00
03895              -2.40    -5000.00
03896              -2.20    -4800.00
03897              -2.20    -5000.00
03898              -2.40    -4600.00
03899              -2.20    -4600.00
03900              -2.20    -4600.00
03901              -2.00    -4600.00
03902              -2.00    -4600.00
03903              -2.20    -4600.00
03904              -1.80    -4400.00
03905              -2.00    -4400.00
03906              -2.20    -4400.00
03907              -2.00    -4200.00
03908              -1.80    -4200.00
03909              -2.20    -4200.00
03910              -1.80    -4200.00
03911              -1.80    -4200.00
03912              -2.20    -4000.00
03913              -2.00    -4000.00
03914              -1.80    -4000.00
03915              -2.00    -4000.00
03916              -2.00    -3800.00
03917              -1.40    -3800.00
03918              -2.00    -3600.00
03919              -2.00    -3600.00
03920              -1.20    -3600.00
03921              -1.60    -3400.00
03922              -2.20    -3600.00
03923              -1.20    -3400.00
03924              -1.40    -3200.00
03925              -2.00    -3200.00
03926              -1.20    -3200.00
03927              -1.20    -3200.00
03928              -2.20    -3200.00
03929              -1.80    -3000.00
03930              -0.60    -2800.00
03931              -1.40    -2800.00
03932              -2.00    -2800.00
03933              -0.60    -2800.00
03934              -1.00    -2800.00
03935              -2.00    -2600.00
03936              -1.20    -2600.00
03937              -0.40    -2400.00
03938              -1.40    -2400.00
03939              -2.00    -2400.00
03940              -0.60    -2400.00
03941              -1.00    -2400.00
03942              -2.00    -2200.00
03943              -1.00    -2000.00
03944              -0.40    -2000.00
03945              -1.20    -2000.00
03946              -1.80    -1800.00
03947              -0.20    -1800.00
03948              -0.40    -1800.00
03949              -1.40    -1600.00
03950              -0.60    -1800.00
03951              -0.40    -1600.00
03952              -1.40    -1400.00
03953              -1.00    -1400.00
03954              -0.20    -1400.00
03955              -0.60    -1200.00
03956              -1.20    -1200.00
03957              -0.40    -1000.00
03958              -0.60    -1200.00
03959              -1.40    -1000.00
03960              -0.60     -800.00
03961               0.00     -800.00
03962              -0.60     -800.00
03963              -0.60     -800.00
03964               0.20     -600.00
03965              -0.40     -600.00
03966              -1.00     -400.00
03967              -0.20     -400.00
03968               0.40     -400.00
03969              -1.60     -400.00
03970               0.20     -200.00
03971               0.40     -200.00
03972              -2.20     -200.00
03973               0.20        0.00
03974               0.80        0.00
03975              -1.20        0.00
03976               0.60      200.00
03977               0.40      200.00
03978               0.20      200.00
03979              -1.80      400.00
03980               1.00      400.00
03981               1.20      400.00
03982              -1.20      600.00
03983               3.40      600.00
03984              14.80      800.00
03985              -0.80     1000.00
03986             -25.00      800.00
03987             -18.20      800.00
03988              25.00      800.00
03989              25.00     1400.00
03990             -25.00     1000.00
03991             -25.00     1200.00
03992              25.00     1400.00
03993              25.00     1200.00
03994             -25.00     1400.00
03995              25.00     1400.00
03996              25.00     1800.00
03997             -25.00     1200.00
03998             -25.00     2000.00
03999              25.00     1800.00
04000               2.00     1800.00
04001             -25.00     2000.00
04002              25.00     2000.00
04003              25.00     2000.00
04004             -25.00     2200.00
04005               7.40     2400.00
04006              25.00     2000.00
04007             -25.00     2400.00
04008             -25.00     2400.00
04009              25.00     2200.00
04010              25.00     2400.00
04011             -25.00     2800.00
04012             -18.80     2400.00
04013              25.00     2800.00
04014             -22.00     2800.00
04015             -25.00     3000.00
04016              25.00     2800.00
04017              23.60     3000.00
04018             -25.00     3000.00
04019              25.00     3000.00
04020              25.00     3200.00
04021             -25.00     3400.00
04022             -11.00     3200.00
04023              25.00     3400.00
04024             -17.40     3400.00
04025             -25.00     3600.00
04026              25.00     3600.00
04027              16.60     3600.00
04028             -25.00     3600.00
04029              11.40     3600.00
04030              25.00     3800.00
04031             -25.00     4000.00
04032              -8.40     3800.00
04033              25.00     4000.00
04034              -5.00     4000.00
04035             -19.80     4000.00
04036              19.60     4200.00
04037              10.80     4200.00
04038             -19.40     4200.00
04039               3.40     4400.00
04040              19.60     4400.00
04041              -9.40     4600.00
04042              -7.20     4400.00
04043              16.20     4400.00
04044               1.40     4800.00
04045             -10.80     4800.00
04046               8.60     4800.00
04047               8.40     4800.00
04048              -8.20     4800.00
04049               1.20     5000.00
04050              11.60     4800.00
04051              -2.20     5200.00
04052              -4.60     5000.00
04053               9.00     5200.00
04054               4.20     5200.00
04055              -5.40     5400.00
04056               3.00     5200.00
04057               8.40     5400.00
04058              -1.80     5400.00
04059              -0.60     5600.00
04060               6.80     5600.00
04061               2.60     5400.00
04062              -2.20     5800.00
04063               4.20     5600.00
04064               5.40     5600.00
04065              -0.40     5800.00
04066               1.40     5800.00
04067               5.40     6000.00
04068               1.80     6000.00
04069               1.20     6000.00
04070               4.00     6000.00
04071               3.80     6000.00
04072               2.00     6200.00
04073               3.40     6200.00
04074               3.60     6200.00
04075               2.80     6400.00
04076               3.40     6200.00
04077               3.20     6200.00
04078               3.40     6400.00
04079               3.60     6400.00
04080               3.60     6400.00
04081               3.40     6600.00
04082               4.20     6400.00
04083               3.40     6600.00
04084               3.60     6600.00
04085               5.00     6800.00
04086               4.20     6800.00
04087               3.40     6800.00
04088               4.20     6800.00
04089               3.60     6800.00
04090               3.60     6800.00
04091               4.20     7000.00
04092               5.60     7000.00
04093               5.20     7000.00
04094               4.60     7000.00
04095               5.60     7200.00
04096               5.80     7200.00
04097               4.40     7200.00
04098               3.80     7200.00
04099               4.20     7200.00
04100               4.20     7200.00
04101               4.20     7400.00
04102               5.00     7200.00
04103               7.00     7200.00
04104               7.00     7400.00
04105               6.60     7400.00
04106               6.80     7600.00
04107               5.80     7400.00
04108               4.20     7400.00
04109               4.20     7600.00
04110               4.60     7600.00
04111               6.80     7600.00
04112               6.80     7600.00
04113               8.40     7800.00
04114               9.00     7800.00
04115               6.60     7800.00
04116               6.00     7800.00
04117               6.60     7800.00
04118               5.20     7800.00
04119               5.80     8000.00
04120               8.40     7800.00
04121               9.00     7800.00
04122               9.00     8000.00
04123               9.20     7800.00
04124               8.40     8000.00
04125               7.00     7800.00
04126               7.00     8000.00
04127               8.40     8200.00
04128               8.80     8000.00
04129               9.20     8000.00
04130               9.80     8200.00
04131              10.00     8200.00
04132               9.80     8000.00
04133               9.60     8200.00
04134              10.00     8200.00
04135              10.80     8000.00
04136              10.20     8000.00
04137              10.60     8200.00
04138              11.40     8000.00
04139              11.40     8200.00
04140              10.60     8200.00
04141              11.60     8200.00
04142              12.20     8200.00
04143              12.20     8200.00
04144              12.20     8200.00
04145              13.00     8200.00
04146              13.20     8200.00
04147              12.60     8200.00
04148              13.20     8400.00
04149              13.20     8200.00
04150              13.40     8400.00
04151              14.20     8400.00
04152              14.60     8200.00
04153              14.40     8200.00
04154              14.80     8200.00
04155              14.60     8200.00
04156              14.60     8200.00
04157              14.80     8200.00
04158              15.00     8400.00
04159              15.00     8400.00
04160              15.20     8200.00
04161              15.40     8200.00
04162              15.00     8400.00
04163              14.80     8200.00
04164              14.80     8200.00
04165              14.60     8200.00
04166              13.80     8400.00
04167              13.40     8200.00
04168              13.40     8000.00
04169              13.00     8200.00
04170              12.60     8200.00
04171              12.60     8200.00
04172              12.20     8000.00
04173              11.60     8200.00
04174              11.40     8200.00
04175              11.00     8200.00
04176              10.40     8000.00
04177              10.40     8200.00
04178              10.60     8200.00
04179              10.40     8000.00
04180              10.00     8200.00
04181              10.00     8200.00
04182               9.40     8000.00
04183               9.00     8000.00
04184               9.00     8000.00
04185               9.00     8200.00
04186               8.40     8000.00
04187               8.60     8200.00
04188               8.40     8000.00
04189               8.20     8000.00
04190               7.80     7800.00
04191               8.20     8000.00
04192               7.80     7800.00
04193               7.60     8000.00
04194               7.80     8000.00
04195               7.40     7800.00
04196               7.00     7800.00
04197               6.80     7800.00
04198               6.80     7800.00
04199               6.80     7600.00
04200               6.80     7800.00
04201               6.60     7800.00
04202               6.80     7600.00
04203               6.40     7600.00
04204               6.20     7600.00
04205               6.20     7600.00
04206               5.80     7400.00
04207               5.80     7600.00
04208               6.00     7400.00
04209               5.80     7600.00
04210               5.80     7200.00
04211               5.80     7400.00
04212               5.40     7400.00
04213               5.40     7200.00
04214               5.00     7200.00
04215               5.20     7200.00
04216               5.20     7200.00
04217               5.00     7200.00
04218               5.00     7200.00
04219               5.00     7200.00
04220               4.40     7200.00
04221               4.60     7200.00
04222               4.40     6800.00
04223               4.60     7000.00
04224               4.20     7000.00
04225               4.40     6800.00
04226               4.40     6800.00
04227               4.20     6800.00
04228               3.80     6800.00
04229               4.20     6800.00
04230               4.00     6800.00
04231               3.60     6800.00
04232               4.20     6600.00
04233               4.20     6800.00
04234               3.20     6600.00
04235               3.60     6400.00
04236               3.80     6400.00
04237               3.00     6400.00
04238               3.60     6400.00
04239               3.60     6400.00
04240               3.20     6400.00
04241               3.00     6200.00
04242               3.40     6200.00
04243               3.20     6200.00
04244               2.80     6200.00
04245               2.80     6000.00
04246               3.00     6000.00
04247               2.80     5800.00
04248               2.60     6000.00
04249               2.80     6000.00
04250               2.60     6000.00
04251               2.40     5800.00
04252               2.60     5600.00
04253               2.60     5600.00
04254               2.60     5600.00
04255               2.40     5600.00
04256               2.60     5600.00
04257               2.20     5400.00
04258               2.20     5600.00
04259               2.20     5400.00
04260               2.20     5400.00
04261               2.00     5400.00
04262               2.00     5200.00
04263               2.20     5200.00
04264               1.80     5200.00
04265               2.00     5000.00
04266               2.20     4800.00
04267               2.00     4800.00
04268               2.00     4800.00
04269               2.00     4800.00
04270               1.80     4800.00
04271               1.80     4600.00
04272               1.80     4600.00
04273               1.80     4600.00
04274               1.80     4600.00
04275               1.80     4600.00
04276               1.80     4400.00
04277               1.80     4400.00
04278               1.40     4400.00
04279               1.40     4200.00
04280               1.80     4200.00
04281               1.40     4000.00
04282               1.40     4000.00
04283               1.40     4000.00
04284               1.40     4000.00
04285               1.20     3800.00
04286               1.40     3800.00
04287               1.40     3800.00
04288               1.20     3600.00
04289               1.40     3600.00
04290               1.20     3600.00
04291               1.00     3600.00
04292               1.40     3400.00
04293               1.20     3600.00
04294               1.00     3400.00
04295               1.00     3200.00
04296               1.20     3200.00
04297               0.80     3200.00
04298               0.80     3200.00
04299               1.20     3000.00
04300               1.00     3000.00
04301               0.40     3000.00
04302               1.00     2800.00
04303               1.00     2800.00
04304               0.40     2800.00
04305               0.60     2800.00
04306               1.00     2600.00
04307               0.40     2400.00
04308               0.40     2400.00
04309               0.60     2400.00
04310               0.40     2400.00
04311               0.20     2200.00
04312               0.40     2200.00
04313               0.40     2200.00
04314               0.40     2000.00
04315               0.20     2000.00
04316               0.40     2000.00
04317               0.40     1800.00
04318               0.00     1800.00
04319               0.20     1600.00
04320               0.40     1800.00
04321               0.20     1600.00
04322               0.20     1600.00
04323               0.00     1400.00
04324               0.20     1200.00
04325               0.20     1400.00
04326              -0.20     1200.00
04327               0.00     1200.00
04328               0.00      800.00
04329               0.00      800.00
04330              -0.20      800.00
04331               0.20      800.00
04332               0.00      800.00
04333               0.20      800.00
04334               0.00      600.00
04335               0.20      600.00
04336              -0.20      400.00
04337               0.00      400.00
04338               0.20      400.00
04339              -0.40      400.00
04340              -0.20      400.00
04341              -0.20      200.00
04342              -0.40      200.00
04343              -0.20        0.00
04344              -0.20        0.00
04345              -0.60        0.00
04346               0.20        0.00
04347               0.40     -200.00
04348               0.40     -200.00
04349              -0.20     -200.00
04350              -0.60     -400.00
04351              -0.20     -400.00
04352               0.20     -400.00
04353               0.40     -400.00
04354              16.20     -800.00
04355              14.60    -1000.00
04356             -25.00    -1200.00
04357             -25.00    -1200.00
04358              25.00     -800.00
04359              25.00    -1200.00
04360             -25.00    -1400.00
04361             -25.00     -800.00
04362              25.00    -1400.00
04363              25.00    -1400.00
04364             -25.00    -1600.00
04365             -25.00    -1200.00
04366              25.00    -1600.00
04367              25.00    -1800.00
04368             -25.00    -1000.00
04369              25.00    -2200.00
04370              25.00    -1800.00
04371             -25.00    -1600.00
04372             -25.00    -2000.00
04373              25.00    -2200.00
04374              -5.20    -2000.00
04375             -25.00    -2000.00
04376              25.00    -2600.00
04377              25.00    -2200.00
04378             -25.00    -2400.00
04379              10.60    -2600.00
04380              25.00    -2400.00
04381             -25.00    -2400.00
04382             -25.00    -2600.00
04383              25.00    -2800.00
04384              25.00    -2800.00
04385             -25.00    -2800.00
04386              25.00    -3200.00
04387              25.00    -3200.00
04388             -25.00    -2800.00
04389             -25.00    -3200.00
04390              25.00    -3200.00
04391             -25.00    -3200.00
04392             -25.00    -3400.00
04393              25.00    -3400.00
04394              25.00    -3400.00
04395             -25.00    -3400.00
04396              10.00    -3600.00
04397              25.00    -3600.00
04398             -25.00    -3600.00
04399             -25.00    -3600.00
04400              25.00    -4000.00
04401              -5.00    -3600.00
04402             -25.00    -4000.00
04403              23.40    -4000.00
04404              22.00    -4000.00
04405             -25.00    -4000.00
04406              -4.40    -4200.00
04407              25.00    -4200.00
04408             -16.40    -4000.00
04409             -21.40    -4400.00
04410              21.80    -4400.00
04411               1.80    -4400.00
04412             -24.60    -4400.00
04413               7.40    -4600.00
04414              13.40    -4600.00
04415             -18.60    -4800.00
04416              -7.60    -4800.00
04417              14.80    -4800.00
04418              -7.60    -4800.00
04419             -15.00    -4800.00
04420              10.00    -5200.00
04421               3.00    -5000.00
04422             -15.00    -5000.00
04423              -0.40    -5200.00
04424               7.80    -5200.00
04425              -9.80    -5200.00
04426              -8.40    -5200.00
04427               6.80    -5400.00
04428              -2.60    -5600.00
04429             -10.60    -5600.00
04430               1.40    -5600.00
04431               1.80    -5800.00
04432              -9.20    -5600.00
04433              -4.40    -5800.00
04434               3.40    -5800.00
04435              -4.20    -5800.00
04436              -8.00    -5800.00
04437               0.40    -5800.00
04438              -1.00    -5800.00
04439              -7.60    -6000.00
04440              -3.20    -6000.00
04441               0.20    -6000.00
04442              -5.20    -6000.00
04443              -5.00    -6200.00
04444              -1.20    -6400.00
04445              -3.60    -6200.00
04446              -6.00    -6400.00
04447              -3.00    -6400.00
04448              -2.60    -6400.00
04449              -4.60    -6400.00
04450              -4.20    -6400.00
04451              -3.40    -6600.00
04452              -4.60    -6600.00
04453              -4.40    -6600.00
04454              -4.20    -6600.00
04455              -4.40    -6800.00
04456              -4.60    -6800.00
04457              -4.20    -6800.00
04458              -4.00    -6800.00
04459              -5.00    -6800.00
04460              -4.60    -6800.00
04461              -4.40    -6800.00
04462              -5.00    -6800.00
04463              -4.40    -6800.00
04464              -4.40    -7000.00
04465              -5.40    -7200.00
04466              -5.40    -7200.00
04467              -5.20    -7200.00
04468              -5.20    -7200.00
04469              -5.60    -7200.00
04470              -5.40    -7200.00
04471              -5.40    -7400.00
04472              -5.40    -7200.00
04473              -5.80    -7400.00
04474              -5.80    -7400.00
04475              -6.20    -7400.00
04476              -6.20    -7400.00
04477              -6.00    -7400.00
04478              -6.20    -7600.00
04479              -6.60    -7400.00
04480              -6.20    -7600.00
04481              -6.60    -7600.00
04482              -7.40    -7600.00
04483              -6.80    -7600.00
04484              -6.20    -7600.00
04485              -7.60    -7600.00
04486              -7.60    -7600.00
04487              -6.00    -7800.00
04488              -7.60    -7600.00
04489              -8.60    -7800.00
04490              -7.00    -7800.00
04491              -7.40    -7800.00
04492              -9.20    -8000.00
04493              -8.20    -8000.00
04494              -7.40    -8000.00
04495              -9.40    -8000.00
04496              -9.20    -8000.00
04497              -8.60    -8000.00
04498              -9.20    -8000.00
04499             -10.00    -8000.00
04500              -9.20    -8000.00
04501              -9.40    -8000.00
04502             -10.40    -8000.00
04503              -9.80    -8000.00
04504              -9.40    -8200.00
04505             -11.60    -8000.00
04506             -10.80    -8200.00
04507             -10.60    -8200.00
04508             -11.40    -8200.00
04509             -11.60    -8200.00
04510             -11.40    -8200.00
04511             -11.80    -8000.00
04512             -12.20    -8200.00
04513             -12.20    -8200.00
04514             -12.40    -8200.00
04515             -12.60    -8200.00
04516             -13.20    -8200.00
04517             -12.80    -8200.00
04518             -13.20    -8200.00
04519             -13.40    -8200.00
04520             -14.00    -8200.00
04521             -14.00    -8200.00
04522             -14.20    -8200.00
04523             -14.80    -8400.00
04524             -14.60    -8200.00
04525             -14.80    -8200.00
04526             -15.40    -8200.00
04527             -15.20    -8200.00
04528             -15.00    -8200.00
04529             -15.00    -8200.00
04530             -15.60    -8400.00
04531             -15.60    -8200.00
04532             -15.20    -8200.00
04533             -15.40    -8200.00
04534             -15.60    -8200.00
04535             -14.80    -8200.00
04536             -14.80    -8200.00
04537             -14.80    -8200.00
04538             -13.80    -8400.00
04539             -13.60    -8400.00
04540             -13.80    -8200.00
04541             -13.20    -8000.00
04542             -13.00    -8200.00
04543             -12.40    -8200.00
04544             -12.40    -8200.00
04545             -11.80    -8200.00
04546             -11.40    -8200.00
04547             -11.60    -8200.00
04548             -11.20    -8200.00
04549             -10.80    -8200.00
04550             -10.80    -8000.00
04551             -10.80    -8200.00
04552             -10.00    -8200.00
04553              -9.60    -8200.00
04554             -10.20    -8200.00
04555              -9.60    -8200.00
04556              -9.20    -8000.00
04557              -9.20    -8000.00
04558              -9.40    -8000.00
04559              -9.00    -8200.00
04560              -8.40    -8000.00
04561              -8.60    -8000.00
04562              -8.60    -8000.00
04563              -8.20    -8000.00
04564              -8.40    -8000.00
04565              -8.40    -7800.00
04566              -7.60    -8000.00
04567              -7.60    -8000.00
04568              -8.00    -8000.00
04569              -7.60    -7800.00
04570              -7.40    -7600.00
04571              -7.40    -7600.00
04572              -7.60    -7800.00
04573              -6.80    -7800.00
04574              -6.80    -7600.00
04575              -7.00    -7600.00
04576              -6.80    -7600.00
04577              -6.60    -7600.00
04578              -6.80    -7600.00
04579              -6.80    -7400.00
04580              -6.00    -7400.00
04581              -6.00    -7400.00
04582              -6.00    -7400.00
04583              -6.00    -7400.00
04584              -6.00    -7200.00
04585              -6.00    -7200.00
04586              -5.80    -7400.00
04587              -5.40    -7400.00
04588              -5.40    -7200.00
04589              -5.60    -7200.00
04590              -5.40    -7200.00
04591              -5.40    -7000.00
04592              -5.20    -7200.00
04593              -4.60    -7200.00
04594              -5.00    -7000.00
04595              -4.60    -7200.00
04596              -4.40    -7000.00
04597              -4.40    -6800.00
04598              -4.80    -6800.00
04599              -4.40    -6800.00
04600              -4.40    -6800.00
04601              -4.40    -6800.00
04602              -4.20    -6800.00
04603              -4.20    -6800.00
04604              -4.20    -6600.00
04605              -3.80    -6600.00
04606              -4.20    -6600.00
04607              -3.80    -6400.00
04608              -3.80    -6600.00
04609              -4.00    -6400.00
04610              -3.40    -6400.00
04611              -4.00    -6400.00
04612              -3.60    -6400.00
04613              -3.00    -6200.00
04614              -4.40    -6200.00
04615              -3.40    -6000.00
04616              -2.60    -6000.00
04617              -4.40    -6000.00
04618              -3.20    -6000.00
04619              -2.80    -6000.00
04620              -3.80    -6000.00
04621              -3.40    -5800.00
04622              -2.40    -5800.00
04623              -3.60    -6000.00
04624              -3.00    -5800.00
04625              -2.20    -5600.00
04626              -3.40    -5600.00
04627              -3.40    -5600.00
04628              -2.60    -5600.00
04629              -2.60    -5400.00
04630              -3.60    -5400.00
04631              -2.80    -5400.00
04632              -2.00    -5400.00
04633              -3.40    -5200.00
04634              -3.00    -5400.00
04635              -2.20    -5200.00
04636              -2.60    -5000.00
04637              -2.80    -5000.00
04638              -2.00    -5000.00
04639              -2.20    -5000.00
04640              -2.60    -4600.00
04641              -2.40    -4800.00
04642              -2.20    -4600.00
04643              -2.20    -4600.00
04644              -3.00    -4600.00
04645              -1.80    -4600.00
04646              -2.20    -4600.00
04647              -3.00    -4400.00
04648              -1.40    -4400.00
04649              -2.00    -4400.00
04650              -3.40    -4400.00
04651              -1.20    -4200.00
04652              -1.80    -4200.00
04653              -2.60    -4200.00
04654              -1.40    -4000.00
04655              -1.40    -4000.00
04656              -2.20    -4000.00
04657              -1.60    -4000.00
04658              -1.40    -4000.00
04659              -2.20    -3600.00
04660              -2.00    -3800.00
04661              -1.20    -3600.00
04662              -2.00    -3600.00
04663              -2.00    -3600.00
04664              -1.20    -3400.00
04665              -1.80    -3400.00
04666              -1.80    -3400.00
04667              -1.40    -3400.00
04668              -1.60    -3200.00
04669              -1.40    -3000.00
04670              -1.40    -3200.00
04671              -1.20    -3200.00
04672              -1.20    -2800.00
04673              -1.40    -2800.00
04674              -0.60    -2800.00
04675              -1.40    -2800.00
04676              -1.80    -2800.00
04677              -0.60    -2600.00
04678              -1.00    -2400.00
04679              -1.80    -2400.00
04680              -0.60    -2400.00
04681              -0.60    -2400.00
04682              -1.40    -2400.00
04683              -1.00    -2000.00
04684              -0.60    -2200.00
04685              -1.20    -2000.00
04686              -1.20    -2000.00
04687              -0.40    -2000.00
04688              -1.00    -2000.00
04689              -1.20    -2000.00
04690              -0.60    -1800.00
04691              -0.40    -1800.00
04692              -1.20    -1600.00
04693              -0.80    -1600.00
04694              -0.60    -1400.00
04695              -1.00    -1600.00
04696              -0.80    -1400.00
04697              -0.60    -1400.00
04698              -0.60    -1200.00
04699              -1.00    -1200.00
04700              -0.80    -1000.00
04701              -0.60    -1000.00
04702              -0.60    -1000.00
04703              -0.60     -800.00
04704              -0.60     -800.00
04705              -0.60     -800.00
04706              -0.60     -600.00
04707              -0.60     -600.00
04708              -0.60     -400.00
04709              -0.60     -400.00
04710              -0.60     -400.00
04711              -0.80     -200.00
04712              -0.60     -200.00
04713              -0.60     -200.00
04714              -0.60     -200.00
04715              -0.60        0.00
04716              -0.40      200.00
04717               0.20        0.00
04718               0.20      200.00
04719               1.00        0.00
04720              -0.20        0.00
04721              -1.00      400.00
04722               0.20      400.00
04723               0.40      400.00
04724              -0.20      600.00
04725               3.40      600.00
04726              14.20      800.00
04727              -1.20      800.00
04728             -25.00      800.00
04729             -18.60      800.00
04730              25.00      800.00
04731              25.00     1400.00
04732             -25.00     1000.00
04733             -25.00     1200.00
04734              25.00     1400.00
04735              25.00     1400.00
04736             -25.00     1400.00
04737              25.00     1400.00
04738              25.00     2000.00
04739             -25.00     1200.00
04740             -25.00     2000.00
04741              25.00     1800.00
04742               0.40     1800.00
04743             -25.00     2000.00
04744              25.00     2000.00
04745              25.00     2000.00
04746             -25.00     2400.00
04747               7.80     2200.00
04748              25.00     2000.00
04749             -25.00     2400.00
04750             -25.00     2400.00
04751              25.00     2200.00
04752              25.00     2400.00
04753             -25.00     2800.00
04754             -18.00     2400.00
04755              25.00     2800.00
04756             -23.80     2800.00
04757             -25.00     2800.00
04758              25.00     2800.00
04759              22.20     3000.00
04760             -25.00     3000.00
04761              25.00     3000.00
04762              25.00     3200.00
04763             -25.00     3400.00
04764              -9.40     3200.00
04765              25.00     3200.00
04766             -18.80     3400.00
04767             -25.00     3400.00
04768              25.00     3400.00
04769              15.00     3600.00
04770             -25.00     3600.00
04771              11.60     3800.00
04772              25.00     3800.00
04773             -23.80     4000.00
04774              -7.80     4000.00
04775              25.00     4000.00
04776              -3.80     4000.00
04777             -19.60     4200.00
04778              18.20     4000.00
04779              11.40     4000.00
04780             -18.60     4400.00
04781               2.60     4000.00
04782              18.80     4400.00
04783              -9.40     4400.00
04784              -7.00     4400.00
04785              16.20     4600.00
04786               2.40     4800.00
04787             -10.80     4600.00
04788               8.40     4800.00
04789               9.00     4800.00
04790              -8.20     5000.00
04791               0.60     4800.00
04792              11.40     4800.00
04793              -1.40     5000.00
04794              -4.20     5200.00
04795               8.40     5200.00
04796               4.20     5200.00
04797              -4.20     5400.00
04798               3.40     5400.00
04799               7.60     5400.00
04800              -1.20     5600.00
04801               0.20     5600.00
04802               6.00     5600.00
04803               2.60     5600.00
04804              -1.20     5600.00
04805               4.40     5800.00
04806               5.00     5800.00
04807               0.20     6000.00
04808               2.00     6000.00
04809               5.80     6000.00
04810               2.00     6000.00
04811               1.00     6000.00
04812               4.40     6000.00
04813               4.00     6200.00
04814               1.40     6200.00
04815               3.60     6200.00
04816               4.60     6200.00
04817               2.20     6200.00
04818               3.00     6200.00
04819               4.20     6200.00
04820               3.40     6400.00
04821               3.00     6400.00
04822               4.20     6400.00
04823               3.60     6600.00
04824               3.00     6600.00
04825               3.60     6600.00
04826               4.20     6600.00
04827               3.00     6800.00
04828               4.20     6800.00
04829               4.40     6800.00
04830               3.80     6800.00
04831               3.80     6800.00
04832               4.40     6800.00
04833               3.80     7000.00
04834               4.20     7000.00
04835               4.60     6800.00
04836               4.40     7000.00
04837               4.40     7000.00
04838               4.60     7200.00
04839               5.00     7000.00
04840               4.60     7200.00
04841               5.00     7200.00
04842               5.00     7200.00
04843               5.60     7400.00
04844               5.00     7200.00
04845               5.40     7200.00
04846               5.80     7400.00
04847               5.40     7400.00
04848               5.20     7600.00
04849               6.40     7400.00
04850               6.00     7600.00
04851               5.60     7600.00
04852               6.60     7600.00
04853               6.80     7600.00
04854               5.80     7600.00
04855               6.80     7800.00
04856               7.40     7600.00
04857               6.60     7800.00
04858               6.80     7600.00
04859               7.60     7800.00
04860               7.40     7800.00
04861               6.80     7800.00
04862               8.20     7800.00
04863               8.20     7800.00
04864               7.40     7800.00
04865               8.40     8200.00
04866               9.00     7800.00
04867               7.80     8000.00
04868               8.60     8200.00
04869               9.40     7800.00
04870               8.60     8000.00
04871               9.20     8200.00
04872               9.40     8000.00
04873               9.20     8200.00
04874               9.40     8000.00
04875              10.00     8200.00
04876              10.00     8200.00
04877              10.60     8000.00
04878              10.20     8200.00
04879              10.60     8200.00
04880              11.00     8200.00
04881              11.00     8200.00
04882              11.00     8000.00
04883              11.80     8200.00
04884              11.80     8200.00
04885              12.20     8200.00
04886              12.20     8200.00
04887              12.60     8200.00
04888              12.80     8200.00
04889              13.00     8200.00
04890              13.20     8200.00
04891              13.40     8400.00
04892              13.20     8200.00
04893              13.80     8200.00
04894              14.00     8400.00
04895              13.80     8200.00
04896              14.60     8200.00
04897              14.40     8200.00
04898              14.60     8200.00
04899              14.80     8400.00
04900              14.80     8200.00
04901              15.00     8200.00
04902              15.00     8200.00
04903              15.00     8200.00
04904              14.80     8200.00
04905              14.60     8200.00
04906              14.60     8400.00
04907              14.20     8200.00
04908              13.80     8000.00
04909              13.40     8200.00
04910              13.20     8200.00
04911              13.00     8200.00
04912              12.20     8200.00
04913              12.20     8200.00
04914              12.20     8200.00
04915              11.80     8200.00
04916              11.60     8200.00
04917              11.20     8200.00
04918              11.00     8200.00
04919              10.60     8000.00
04920              10.60     8200.00
04921              10.00     8000.00
04922               9.80     8000.00
04923               9.80     8000.00
04924               9.80     8000.00
04925               9.80     8200.00
04926               9.00     8200.00
04927               9.00     8000.00
04928               9.20     8000.00
04929               8.40     8200.00
04930               8.60     8200.00
04931               8.60     8000.00
04932               8.20     7800.00
04933               8.40     7800.00
04934               8.20     7800.00
04935               7.80     8000.00
04936               7.60     7800.00
04937               7.60     7800.00
04938               7.40     7800.00
04939               7.00     7800.00
04940               7.00     7800.00
04941               6.80     7600.00
04942               6.80     7600.00
04943               6.60     7800.00
04944               6.60     7600.00
04945               6.60     7600.00
04946               6.60     7600.00
04947               6.20     7600.00
04948               6.20     7600.00
04949               6.00     7400.00
04950               6.00     7600.00
04951               6.00     7400.00
04952               5.80     7400.00
04953               5.40     7200.00
04954               5.80     7200.00
04955               5.40     7200.00
04956               5.00     7200.00
04957               5.20     7200.00
04958               5.00     7200.00
04959               5.00     7200.00
04960               4.60     7200.00
04961               4.60     7000.00
04962               4.60     7200.00
04963               4.40     7000.00
04964               4.40     7000.00
04965               4.40     6800.00
04966               4.20     7000.00
04967               4.20     6800.00
04968               4.20     7000.00
04969               4.20     6800.00
04970               3.80     6800.00
04971               4.20     6800.00
04972               3.60     6800.00
04973               3.80     6800.00
04974               3.80     6800.00
04975               3.60     6400.00
04976               3.40     6600.00
04977               3.60     6400.00
04978               3.40     6600.00
04979               3.00     6400.00
04980               3.40     6400.00
04981               3.40     6400.00
04982               3.40     6400.00
04983               3.00     6200.00
04984               3.40     6200.00
04985               3.40     6200.00
04986               2.80     6000.00
04987               2.80     6000.00
04988               3.40     6200.00
04989               2.80     6200.00
04990               2.40     6000.00
04991               3.40     6000.00
04992               2.80     6000.00
04993               2.20     5800.00
04994               3.20     5800.00
04995               3.00     5800.00
04996               2.00     5600.00
04997               2.60     5600.00
04998               3.00     5400.00
04999               2.00     5600.00
05000               2.40     5600.00
