Unit:(mV)
                     CH1         CH2
Frequency              ? 134.552 kHz
00001              -4.60    -4200.00
00002              -3.60    -4200.00
00003              -3.60    -4200.00
00004              -4.60    -4200.00
00005              -3.80    -4200.00
00006              -3.40    -4200.00
00007              -4.80    -4200.00
00008              -4.60    -4400.00
00009              -3.40    -4400.00
00010              -4.80    -4400.00
00011              -5.40    -4400.00
00012              -4.20    -4400.00
00013              -3.80    -4400.00
00014              -5.40    -4400.00
00015              -4.80    -4400.00
00016              -4.40    -4400.00
00017              -5.00    -4400.00
00018              -5.40    -4400.00
00019              -4.80    -4400.00
00020              -4.80    -4600.00
00021              -5.40    -4400.00
00022              -5.80    -4600.00
00023              -5.20    -4600.00
00024              -5.20    -4800.00
00025              -6.20    -4600.00
00026              -5.40    -4600.00
00027              -5.40    -4600.00
00028              -6.00    -4600.00
00029              -5.80    -4600.00
00030              -5.80    -4600.00
00031              -6.00    -4600.00
00032              -6.20    -4800.00
00033              -6.00    -4600.00
00034              -6.00    -4800.00
00035              -6.00    -4600.00
00036              -7.60    -4800.00
00037              -6.60    -4800.00
00038              -5.60    -4800.00
00039              -6.60    -4600.00
00040              -7.40    -4800.00
00041              -6.20    -5000.00
00042              -6.60    -4800.00
00043              -7.60    -4800.00
00044              -7.00    -4600.00
00045              -6.80    -4800.00
00046              -7.40    -4800.00
00047              -7.00    -5000.00
00048              -7.60    -5000.00
00049              -6.80    -4800.00
00050              -7.00    -5000.00
00051              -8.20    -4800.00
00052              -7.40    -4800.00
00053              -7.80    -4800.00
00054              -7.80    -5000.00
00055              -7.40    -5000.00
00056              -8.20    -5000.00
00057              -8.20    -4800.00
00058              -7.60    -5000.00
00059              -8.20    -5000.00
00060              -9.00    -5000.00
00061              -8.40    -5000.00
00062              -8.00    -5000.00
00063              -8.60    -5000.00
00064              -8.60    -5000.00
00065              -8.00    -5000.00
00066              -8.60    -5000.00
00067              -9.40    -5000.00
00068              -8.60    -5000.00
00069              -8.60    -5000.00
00070              -9.00    -5000.00
00071              -9.00    -5000.00
00072              -8.60    -5000.00
00073              -8.60    -5000.00
00074              -9.80    -5200.00
00075              -9.00    -5000.00
00076              -8.20    -5200.00
00077              -9.20    -5000.00
00078              -9.20    -5000.00
00079              -8.40    -5000.00
00080              -8.60    -5000.00
00081              -9.40    -5000.00
00082              -8.40    -5000.00
00083              -8.00    -5000.00
00084              -9.20    -5000.00
00085              -8.20    -5200.00
00086              -7.60    -5000.00
00087              -8.60    -4800.00
00088              -8.20    -5000.00
00089              -7.60    -5000.00
00090              -8.00    -5000.00
00091              -7.80    -5000.00
00092              -7.40    -4800.00
00093              -7.80    -4800.00
00094              -7.60    -5000.00
00095              -7.00    -4600.00
00096              -7.00    -4800.00
00097              -6.80    -4800.00
00098              -6.60    -5000.00
00099              -6.80    -5000.00
00100              -6.80    -5000.00
00101              -6.80    -4800.00
00102              -7.00    -4800.00
00103              -7.00    -4600.00
00104              -6.20    -4800.00
00105              -6.60    -4800.00
00106              -6.60    -4600.00
00107              -6.20    -4800.00
00108              -6.00    -4800.00
00109              -5.80    -4600.00
00110              -6.00    -4600.00
00111              -5.80    -4800.00
00112              -5.40    -4600.00
00113              -5.40    -4800.00
00114              -5.60    -4600.00
00115              -5.60    -4600.00
00116              -5.40    -4600.00
00117              -5.60    -4600.00
00118              -5.40    -4600.00
00119              -5.00    -4600.00
00120              -5.20    -4600.00
00121              -5.20    -4400.00
00122              -4.60    -4600.00
00123              -4.60    -4400.00
00124              -5.00    -4400.00
00125              -4.60    -4600.00
00126              -4.40    -4400.00
00127              -5.00    -4400.00
00128              -4.60    -4400.00
00129              -4.40    -4400.00
00130              -4.40    -4400.00
00131              -4.60    -4400.00
00132              -4.40    -4400.00
00133              -4.20    -4400.00
00134              -4.20    -4400.00
00135              -4.40    -4400.00
00136              -4.40    -4200.00
00137              -4.20    -4200.00
00138              -4.00    -4200.00
00139              -4.00    -4200.00
00140              -3.80    -4200.00
00141              -3.60    -4200.00
00142              -3.60    -4000.00
00143              -3.80    -4200.00
00144              -3.80    -4200.00
00145              -3.80    -4000.00
00146              -3.60    -4000.00
00147              -3.60    -4000.00
00148              -3.80    -4000.00
00149              -3.80    -4000.00
00150              -3.80    -4000.00
00151              -3.40    -4000.00
00152              -3.60    -4000.00
00153              -3.40    -4000.00
00154              -3.20    -4000.00
00155              -3.60    -3800.00
00156              -3.40    -4000.00
00157              -3.20    -3800.00
00158              -3.00    -3800.00
00159              -3.40    -3800.00
00160              -3.00    -3600.00
00161              -3.00    -3600.00
00162              -3.00    -3600.00
00163              -3.00    -3600.00
00164              -2.80    -3600.00
00165              -2.80    -3600.00
00166              -3.00    -3600.00
00167              -2.80    -3400.00
00168              -2.80    -3600.00
00169              -3.00    -3400.00
00170              -3.00    -3400.00
00171              -2.60    -3400.00
00172              -2.40    -3200.00
00173              -2.80    -3400.00
00174              -2.40    -3200.00
00175              -2.20    -3200.00
00176              -2.80    -3200.00
00177              -2.00    -3200.00
00178              -2.20    -3200.00
00179              -3.00    -3200.00
00180              -1.80    -3200.00
00181              -2.20    -3200.00
00182              -3.00    -2800.00
00183              -1.60    -2800.00
00184              -1.40    -2800.00
00185              -3.20    -2800.00
00186              -1.80    -2800.00
00187              -1.40    -2800.00
00188              -2.60    -2800.00
00189              -2.00    -2800.00
00190              -1.80    -2600.00
00191              -2.00    -2600.00
00192              -1.60    -2800.00
00193              -1.40    -2600.00
00194              -2.20    -2600.00
00195              -1.60    -2400.00
00196              -1.40    -2400.00
00197              -2.00    -2600.00
00198              -2.00    -2400.00
00199              -1.40    -2400.00
00200              -1.40    -2400.00
00201              -1.80    -2400.00
00202              -1.80    -2200.00
00203              -1.20    -2200.00
00204              -1.40    -2400.00
00205              -1.80    -2000.00
00206              -1.00    -2000.00
00207              -1.80    -2000.00
00208              -1.60    -2200.00
00209              -1.00    -2000.00
00210              -1.40    -2000.00
00211              -2.00    -2000.00
00212              -1.20    -1800.00
00213              -1.40    -1800.00
00214              -2.00    -1800.00
00215              -1.20    -1800.00
00216              -1.00    -1800.00
00217              -1.80    -1800.00
00218              -1.40    -1600.00
00219              -1.00    -1600.00
00220              -1.20    -1600.00
00221              -1.60    -1600.00
00222              -1.00    -1600.00
00223              -1.20    -1600.00
00224              -1.20    -1600.00
00225              -1.40    -1200.00
00226              -0.80    -1400.00
00227              -1.20    -1200.00
00228              -1.40    -1200.00
00229              -0.60    -1200.00
00230              -1.40    -1200.00
00231              -1.20    -1200.00
00232              -0.60    -1200.00
00233              -1.00    -1200.00
00234              -1.20    -1000.00
00235              -0.60    -1000.00
00236              -1.00     -800.00
00237              -1.20     -800.00
00238              -0.60     -800.00
00239              -1.20     -800.00
00240              -1.20     -800.00
00241               0.20     -800.00
00242              -1.20     -800.00
00243              -1.40     -600.00
00244               0.40     -800.00
00245              -1.20     -600.00
00246              -1.60     -600.00
00247               1.20     -400.00
00248              -0.60     -400.00
00249              -2.20     -400.00
00250               0.40     -400.00
00251               0.40     -200.00
00252              -1.40     -200.00
00253              -0.20     -200.00
00254               0.40     -200.00
00255              -0.60     -200.00
00256              -1.20        0.00
00257              -0.20        0.00
00258               1.00        0.00
00259              -0.60     -200.00
00260              -1.20      200.00
00261               1.80        0.00
00262               0.40      200.00
00263              -1.40        0.00
00264               1.20      400.00
00265               0.60      200.00
00266              -0.60      400.00
00267               2.60      400.00
00268              12.60      600.00
00269              -5.80      600.00
00270             -25.00      400.00
00271               7.00      400.00
00272              25.00      600.00
00273             -13.60      800.00
00274             -25.00      600.00
00275              25.00      600.00
00276              25.00     1200.00
00277             -25.00      600.00
00278             -25.00      800.00
00279              25.00      800.00
00280              25.00      800.00
00281             -25.00      800.00
00282              -1.20     1000.00
00283              25.00     1000.00
00284             -15.20     1200.00
00285             -25.00      800.00
00286              25.00     1200.00
00287              25.00     1200.00
00288             -25.00     1400.00
00289              -2.20     1000.00
00290              25.00     1600.00
00291             -25.00     1000.00
00292             -25.00     1600.00
00293              25.00     1200.00
00294              25.00     1800.00
00295             -25.00     1400.00
00296              17.60     1800.00
00297              25.00     1600.00
00298             -25.00     1800.00
00299             -25.00     1800.00
00300              25.00     1800.00
00301               4.40     1800.00
00302             -25.00     2000.00
00303              25.00     2000.00
00304              25.00     2000.00
00305             -25.00     2200.00
00306             -10.20     2000.00
00307              25.00     2000.00
00308             -11.60     2000.00
00309             -25.00     2000.00
00310              24.40     2000.00
00311              21.00     2400.00
00312             -25.00     2200.00
00313               3.40     2400.00
00314              25.00     2200.00
00315             -14.80     2400.00
00316             -15.80     2200.00
00317              25.00     2400.00
00318               0.20     2400.00
00319             -19.60     2400.00
00320              15.00     2400.00
00321              12.40     2800.00
00322             -17.40     2600.00
00323               3.20     2800.00
00324              16.40     2800.00
00325              -8.60     2800.00
00326              -4.40     2800.00
00327              13.00     2800.00
00328               1.20     2800.00
00329              -8.20     2800.00
00330               8.20     2800.00
00331               5.60     2800.00
00332              -5.00     3000.00
00333               1.20     3000.00
00334               9.40     3200.00
00335              -2.20     3000.00
00336              -1.40     3200.00
00337               6.60     3000.00
00338               3.40     3000.00
00339              -3.80     3200.00
00340               4.20     3200.00
00341               5.80     3200.00
00342              -0.60     3200.00
00343               0.20     3200.00
00344               6.20     3600.00
00345               1.80     3400.00
00346              -1.20     3200.00
00347               4.40     3400.00
00348               3.80     3600.00
00349              -0.60     3600.00
00350               1.80     3400.00
00351               5.40     3600.00
00352               0.80     3600.00
00353               0.60     3600.00
00354               4.40     3600.00
00355               3.60     3600.00
00356               0.20     3600.00
00357               3.60     3800.00
00358               3.80     3800.00
00359               2.00     3800.00
00360               2.00     3800.00
00361               4.20     3800.00
00362               2.60     3800.00
00363               2.60     4000.00
00364               2.80     3800.00
00365               3.80     4000.00
00366               2.20     4000.00
00367               3.00     4000.00
00368               3.80     3800.00
00369               2.60     4000.00
00370               3.40     4000.00
00371               4.20     4000.00
00372               3.20     4000.00
00373               3.40     4200.00
00374               3.80     4200.00
00375               3.60     4200.00
00376               3.40     4200.00
00377               3.60     4200.00
00378               4.40     4400.00
00379               3.60     4400.00
00380               3.80     4400.00
00381               4.40     4200.00
00382               4.40     4400.00
00383               4.20     4400.00
00384               6.00     4400.00
00385               0.00     4400.00
00386               7.80     4400.00
00387               1.40     4400.00
00388               0.60     4400.00
00389               8.40     4400.00
00390               3.60     4600.00
00391              11.60     4600.00
00392               3.40     4600.00
00393               3.40     4600.00
00394               5.00     4600.00
00395               3.60     4400.00
00396               1.20     4800.00
00397               5.00     4600.00
00398               5.20     4800.00
00399               7.60     4600.00
00400               8.40     4800.00
00401               5.80     4600.00
00402               8.20     4600.00
00403               0.20     4800.00
00404               5.20     4800.00
00405               2.20     4600.00
00406               5.00     4800.00
00407               9.40     4800.00
00408               7.40     4800.00
00409               6.00     4800.00
00410               7.00     4800.00
00411               5.40     4800.00
00412               4.60     4800.00
00413               3.60     4600.00
00414               6.20     4800.00
00415               8.20     4800.00
00416               3.40     4800.00
00417               8.60     4800.00
00418              10.40     4800.00
00419               5.20     4800.00
00420               5.40     4800.00
00421               7.00     4800.00
00422               5.20     4800.00
00423               6.80     4800.00
00424               8.60     5000.00
00425               7.20     4800.00
00426               7.20     4800.00
00427               7.00     5000.00
00428               7.80     5000.00
00429               8.20     5000.00
00430               7.40     4800.00
00431               6.20     5000.00
00432               7.00     5000.00
00433               9.00     5200.00
00434               7.60     5200.00
00435               8.60     5000.00
00436               8.60     5000.00
00437               8.40     5000.00
00438               8.20     4800.00
00439               8.20     4800.00
00440               7.60     5200.00
00441               8.20     5000.00
00442               8.20     5000.00
00443               8.40     5200.00
00444               9.20     5000.00
00445               9.00     5200.00
00446               8.60     5000.00
00447               8.60     5200.00
00448               9.00     5200.00
00449               7.40     5000.00
00450               8.40     5000.00
00451               8.40     5000.00
00452               8.40     5000.00
00453               8.60     5000.00
00454               8.60     5000.00
00455               7.80     5000.00
00456               7.80     5000.00
00457               7.60     5000.00
00458               7.60     4800.00
00459               7.00     4800.00
00460               7.40     4800.00
00461               7.60     4800.00
00462               7.40     5000.00
00463               7.60     4800.00
00464               7.00     4800.00
00465               6.60     5000.00
00466               6.20     4800.00
00467               6.60     4800.00
00468               6.80     4800.00
00469               6.20     4600.00
00470               6.60     5000.00
00471               6.60     4800.00
00472               6.20     4800.00
00473               5.20     4800.00
00474               5.80     4800.00
00475               6.60     4800.00
00476               5.20     4800.00
00477               5.20     4800.00
00478               6.60     4800.00
00479               5.80     4600.00
00480               5.20     4600.00
00481               6.20     4800.00
00482               5.40     4600.00
00483               4.40     4600.00
00484               5.20     4600.00
00485               5.20     4600.00
00486               4.40     4600.00
00487               5.20     4800.00
00488               5.20     4600.00
00489               4.40     4600.00
00490               4.60     4400.00
00491               4.40     4600.00
00492               4.60     4600.00
00493               4.40     4600.00
00494               4.20     4600.00
00495               4.60     4400.00
00496               4.40     4400.00
00497               3.80     4400.00
00498               4.40     4400.00
00499               4.20     4400.00
00500               3.80     4400.00
00501               4.20     4400.00
00502               4.00     4400.00
00503               3.60     4400.00
00504               4.00     4400.00
00505               4.00     4400.00
00506               3.60     4400.00
00507               3.60     4400.00
00508               3.80     4200.00
00509               3.60     4400.00
00510               3.40     4400.00
00511               3.60     4200.00
00512               4.20     4200.00
00513               3.60     4200.00
00514               3.40     4200.00
00515               3.40     4000.00
00516               3.60     4000.00
00517               3.40     4000.00
00518               3.00     4000.00
00519               3.20     4000.00
00520               3.40     4000.00
00521               3.00     4000.00
00522               3.00     4000.00
00523               2.80     3800.00
00524               3.20     4000.00
00525               3.40     3800.00
00526               2.80     3800.00
00527               2.80     3800.00
00528               2.80     3800.00
00529               2.60     3600.00
00530               3.40     3800.00
00531               2.60     3600.00
00532               2.40     3600.00
00533               3.20     3600.00
00534               2.80     3600.00
00535               1.80     3600.00
00536               2.60     3600.00
00537               3.00     3600.00
00538               1.40     3600.00
00539               2.60     3400.00
00540               2.20     3400.00
00541               2.00     3600.00
00542               2.00     3400.00
00543               2.20     3200.00
00544               2.40     3200.00
00545               1.80     3200.00
00546               1.80     3200.00
00547               3.00     3200.00
00548               1.40     3200.00
00549               1.40     3200.00
00550               2.40     3000.00
00551               1.40     3200.00
00552               1.20     3000.00
00553               2.20     3000.00
00554               2.00     3000.00
00555               0.60     3000.00
00556               1.80     2800.00
00557               2.40     3000.00
00558               1.00     2800.00
00559               1.20     2800.00
00560               2.00     2800.00
00561               1.20     2800.00
00562               1.00     2800.00
00563               2.00     2800.00
00564               1.20     2600.00
00565               0.60     2600.00
00566               1.80     2600.00
00567               2.00     2400.00
00568               0.80     2400.00
00569               1.00     2400.00
00570               1.80     2400.00
00571               0.80     2400.00
00572               1.00     2400.00
00573               2.00     2400.00
00574               1.00     2400.00
00575               0.80     2200.00
00576               1.80     2200.00
00577               1.00     2200.00
00578               0.40     2200.00
00579               1.40     2000.00
00580               1.20     2000.00
00581               0.20     2000.00
00582               1.00     2000.00
00583               1.40     2000.00
00584               0.40     2000.00
00585               0.40     1800.00
00586               1.20     1600.00
00587               1.00     1800.00
00588               0.40     1600.00
00589               1.00     1800.00
00590               1.00     1800.00
00591               0.40     1600.00
00592               1.00     1600.00
00593               0.60     1400.00
00594               0.40     1400.00
00595               0.40     1400.00
00596               0.60     1400.00
00597               0.60     1400.00
00598               0.20     1400.00
00599               0.60     1400.00
00600               0.80     1200.00
00601               0.20     1200.00
00602               0.40     1000.00
00603               0.40     1000.00
00604               0.40     1000.00
00605               0.40     1200.00
00606               0.20     1000.00
00607               0.20      800.00
00608               0.40      800.00
00609               0.20      800.00
00610              -0.20      800.00
00611              -0.20      800.00
00612               0.20      800.00
00613              -0.20      800.00
00614               0.20      600.00
00615               0.20      600.00
00616              -0.40      600.00
00617               0.20      400.00
00618              -0.20      600.00
00619              -0.60      400.00
00620               0.20      400.00
00621               0.20      400.00
00622              -1.00      400.00
00623              -0.20      400.00
00624               0.20      200.00
00625              -0.80        0.00
00626              -0.60      200.00
00627              -0.40        0.00
00628              -0.80        0.00
00629              -0.40        0.00
00630               0.20        0.00
00631              -0.60     -200.00
00632              -0.20     -200.00
00633               0.40     -200.00
00634              -0.40     -200.00
00635              -0.20     -400.00
00636              -0.20     -200.00
00637              -0.40     -200.00
00638               3.80     -200.00
00639              17.00     -400.00
00640             -11.00     -800.00
00641             -25.00     -200.00
00642              25.00     -600.00
00643              25.00     -400.00
00644             -25.00     -800.00
00645             -25.00     -400.00
00646              25.00     -800.00
00647              25.00     -600.00
00648             -25.00    -1000.00
00649             -25.00     -600.00
00650              25.00     -800.00
00651              25.00    -1200.00
00652             -25.00     -800.00
00653               4.40     -800.00
00654              25.00     -800.00
00655             -25.00    -1200.00
00656             -25.00    -1000.00
00657              25.00    -1200.00
00658              25.00    -1200.00
00659             -25.00    -1200.00
00660             -13.00    -1200.00
00661              25.00    -1400.00
00662             -24.60    -1600.00
00663             -25.00    -1600.00
00664              25.00    -1600.00
00665              25.00    -1600.00
00666             -25.00    -1400.00
00667              -2.60    -1800.00
00668              25.00    -1600.00
00669             -25.00    -1600.00
00670             -25.00    -1800.00
00671              25.00    -2000.00
00672              25.00    -1800.00
00673             -25.00    -1800.00
00674              11.80    -1800.00
00675              25.00    -2000.00
00676             -25.00    -2000.00
00677             -25.00    -2000.00
00678              25.00    -2000.00
00679               8.20    -1800.00
00680             -25.00    -2200.00
00681              15.80    -2000.00
00682              25.00    -2400.00
00683             -25.00    -2000.00
00684             -19.80    -2400.00
00685              25.00    -2400.00
00686             -10.00    -2400.00
00687             -25.00    -2400.00
00688              24.20    -2400.00
00689              14.80    -2400.00
00690             -25.00    -2600.00
00691               5.40    -2600.00
00692              21.80    -2600.00
00693             -21.00    -2600.00
00694             -10.20    -2800.00
00695              18.60    -2600.00
00696              -6.20    -2800.00
00697             -15.40    -2600.00
00698               8.60    -2800.00
00699               3.60    -2800.00
00700             -13.20    -2800.00
00701              -1.40    -2800.00
00702               6.80    -3000.00
00703              -7.80    -3000.00
00704              -6.20    -3000.00
00705               5.20    -3200.00
00706              -2.20    -3200.00
00707              -9.40    -3000.00
00708               2.20    -3200.00
00709               1.40    -3200.00
00710              -8.60    -3200.00
00711              -2.80    -3200.00
00712               4.20    -3200.00
00713              -5.80    -3400.00
00714              -6.00    -3200.00
00715               2.20    -3400.00
00716              -2.00    -3400.00
00717              -7.80    -3400.00
00718              -0.40    -3400.00
00719               1.20    -3600.00
00720              -6.80    -3400.00
00721              -4.40    -3600.00
00722               1.20    -3600.00
00723              -3.60    -3600.00
00724              -6.40    -3600.00
00725              -0.40    -3600.00
00726              -1.40    -3600.00
00727              -5.80    -3600.00
00728              -3.00    -3800.00
00729              -0.40    -4000.00
00730              -4.60    -3800.00
00731              -4.60    -3800.00
00732              -2.20    -3800.00
00733              -2.60    -4000.00
00734              -5.20    -4000.00
00735              -3.40    -4000.00
00736              -3.00    -4000.00
00737              -4.20    -4000.00
00738              -4.00    -4000.00
00739              -3.20    -4200.00
00740              -4.40    -4000.00
00741              -3.80    -4000.00
00742              -3.60    -4200.00
00743              -4.40    -4000.00
00744              -4.00    -4200.00
00745              -3.80    -4200.00
00746              -4.20    -4200.00
00747              -3.80    -4200.00
00748              -4.40    -4200.00
00749              -4.40    -4200.00
00750              -4.20    -4400.00
00751              -5.00    -4400.00
00752              -4.60    -4400.00
00753              -4.20    -4400.00
00754              -5.00    -4400.00
00755              -5.20    -4400.00
00756              -4.20    -4400.00
00757              -5.00    -4400.00
00758              -5.40    -4400.00
00759              -4.20    -4400.00
00760              -4.60    -4400.00
00761              -6.00    -4400.00
00762              -4.60    -4400.00
00763              -4.60    -4600.00
00764              -5.80    -4400.00
00765              -5.40    -4600.00
00766              -5.20    -4600.00
00767              -5.80    -4800.00
00768              -6.00    -4400.00
00769              -5.20    -4600.00
00770              -5.60    -4600.00
00771              -6.20    -4600.00
00772              -5.40    -4600.00
00773              -5.20    -4800.00
00774              -6.20    -4600.00
00775              -6.00    -4800.00
00776              -5.40    -4600.00
00777              -6.20    -4800.00
00778              -6.40    -4600.00
00779              -6.00    -4800.00
00780              -6.20    -4600.00
00781              -7.00    -5000.00
00782              -6.80    -4600.00
00783              -5.40    -4800.00
00784              -6.60    -4600.00
00785              -8.00    -4800.00
00786              -6.20    -5000.00
00787              -6.40    -4800.00
00788              -7.60    -5000.00
00789              -7.40    -4600.00
00790              -6.00    -5000.00
00791              -7.20    -4800.00
00792              -7.60    -5000.00
00793              -7.00    -4800.00
00794              -7.20    -5000.00
00795              -8.20    -5000.00
00796              -7.80    -5000.00
00797              -7.00    -4800.00
00798              -8.20    -5000.00
00799              -8.40    -5000.00
00800              -7.60    -5000.00
00801              -8.20    -5000.00
00802              -8.60    -5000.00
00803              -8.40    -5000.00
00804              -7.60    -5200.00
00805              -8.60    -5000.00
00806              -9.00    -5000.00
00807              -7.80    -5000.00
00808              -8.40    -5000.00
00809             -10.00    -5200.00
00810              -8.60    -4800.00
00811              -8.40    -5000.00
00812              -9.40    -5000.00
00813              -8.60    -5000.00
00814              -8.60    -5000.00
00815              -9.80    -5000.00
00816              -9.20    -5200.00
00817              -8.40    -5200.00
00818              -9.80    -5000.00
00819              -9.80    -4800.00
00820              -8.40    -5000.00
00821              -9.00    -5000.00
00822              -9.60    -5000.00
00823              -8.60    -5000.00
00824              -8.60    -5000.00
00825              -9.00    -5000.00
00826              -9.00    -5000.00
00827              -7.80    -5000.00
00828              -8.20    -5000.00
00829              -8.40    -5000.00
00830              -8.20    -5000.00
00831              -8.20    -5000.00
00832              -8.20    -5000.00
00833              -7.60    -4600.00
00834              -7.60    -5000.00
00835              -7.60    -5000.00
00836              -7.40    -5000.00
00837              -6.80    -4800.00
00838              -7.40    -5000.00
00839              -7.40    -5000.00
00840              -6.80    -4600.00
00841              -7.00    -4800.00
00842              -7.00    -4800.00
00843              -6.20    -4600.00
00844              -6.80    -4800.00
00845              -6.80    -4600.00
00846              -6.20    -4800.00
00847              -6.20    -4800.00
00848              -6.20    -4800.00
00849              -6.00    -4600.00
00850              -6.00    -4800.00
00851              -6.00    -4600.00
00852              -5.80    -4800.00
00853              -6.20    -4600.00
00854              -5.20    -4600.00
00855              -5.20    -4800.00
00856              -6.20    -4600.00
00857              -5.80    -4600.00
00858              -4.40    -4600.00
00859              -6.00    -4600.00
00860              -5.40    -4600.00
00861              -4.40    -4600.00
00862              -5.80    -4600.00
00863              -5.20    -4600.00
00864              -4.40    -4600.00
00865              -5.80    -4400.00
00866              -4.60    -4400.00
00867              -4.40    -4600.00
00868              -6.00    -4600.00
00869              -4.60    -4400.00
00870              -3.60    -4400.00
00871              -5.80    -4400.00
00872              -4.60    -4400.00
00873              -3.80    -4400.00
00874              -5.20    -4400.00
00875              -4.60    -4400.00
00876              -3.80    -4200.00
00877              -5.00    -4400.00
00878              -4.40    -4400.00
00879              -3.80    -4400.00
00880              -4.40    -4200.00
00881              -3.80    -4200.00
00882              -3.80    -4200.00
00883              -4.20    -4200.00
00884              -3.80    -4200.00
00885              -4.20    -4200.00
00886              -4.40    -4000.00
00887              -3.60    -4200.00
00888              -3.80    -4000.00
00889              -4.20    -4200.00
00890              -3.60    -4000.00
00891              -4.00    -4000.00
00892              -4.20    -4000.00
00893              -3.00    -4000.00
00894              -3.20    -4000.00
00895              -3.40    -4000.00
00896              -2.80    -4000.00
00897              -3.60    -4000.00
00898              -3.60    -3800.00
00899              -3.00    -3800.00
00900              -3.00    -3600.00
00901              -3.40    -3800.00
00902              -3.00    -3600.00
00903              -2.60    -3600.00
00904              -3.40    -3600.00
00905              -3.20    -3600.00
00906              -2.80    -3600.00
00907              -2.80    -3600.00
00908              -2.80    -3600.00
00909              -2.80    -3400.00
00910              -3.00    -3600.00
00911              -2.80    -3400.00
00912              -2.60    -3400.00
00913              -2.80    -3400.00
00914              -2.80    -3400.00
00915              -2.20    -3400.00
00916              -2.20    -3200.00
00917              -2.80    -3400.00
00918              -2.40    -3400.00
00919              -2.60    -3200.00
00920              -2.80    -3200.00
00921              -2.20    -3200.00
00922              -2.00    -3200.00
00923              -2.80    -3200.00
00924              -2.20    -3000.00
00925              -1.80    -3000.00
00926              -2.80    -3000.00
00927              -2.60    -2800.00
00928              -1.80    -3000.00
00929              -2.20    -2800.00
00930              -2.60    -2800.00
00931              -1.80    -2800.00
00932              -2.00    -2800.00
00933              -2.20    -2800.00
00934              -2.20    -2600.00
00935              -2.00    -2600.00
00936              -2.00    -2600.00
00937              -2.20    -2600.00
00938              -1.80    -2400.00
00939              -2.00    -2400.00
00940              -2.20    -2400.00
00941              -1.40    -2600.00
00942              -2.00    -2400.00
00943              -2.20    -2400.00
00944              -1.40    -2400.00
00945              -1.40    -2400.00
00946              -2.20    -2200.00
00947              -2.00    -2400.00
00948              -1.60    -2200.00
00949              -2.00    -2400.00
00950              -1.60    -2200.00
00951              -1.20    -2200.00
00952              -1.80    -2000.00
00953              -1.80    -2000.00
00954              -1.20    -2000.00
00955              -1.40    -1800.00
00956              -1.40    -2000.00
00957              -1.20    -1800.00
00958              -1.20    -1800.00
00959              -1.20    -1800.00
00960              -1.40    -1800.00
00961              -1.20    -1800.00
00962              -1.20    -1600.00
00963              -1.20    -1800.00
00964              -1.20    -1600.00
00965              -1.40    -1600.00
00966              -1.20    -1400.00
00967              -1.40    -1600.00
00968              -0.60    -1400.00
00969              -1.20    -1200.00
00970              -1.20    -1200.00
00971              -0.60    -1200.00
00972              -1.00    -1200.00
00973              -1.00    -1200.00
00974              -1.20    -1200.00
00975              -0.60    -1000.00
00976              -1.00    -1000.00
00977              -1.00    -1000.00
00978              -0.60    -1000.00
00979              -0.60    -1000.00
00980              -1.20    -1000.00
00981              -1.00    -1000.00
00982              -0.40     -800.00
00983              -1.20     -800.00
00984              -0.40     -800.00
00985              -0.20     -800.00
00986              -1.40     -800.00
00987              -0.40     -600.00
00988              -0.20     -800.00
00989              -1.80     -600.00
00990               0.40     -400.00
00991              -0.20     -400.00
00992              -1.20     -400.00
00993              -0.40     -400.00
00994              -0.60     -400.00
00995              -1.00     -200.00
00996              -0.40     -200.00
00997              -0.40     -400.00
00998              -1.00     -200.00
00999              -0.60     -200.00
01000               0.00        0.00
01001              -0.40     -200.00
01002              -0.60        0.00
01003              -0.20        0.00
01004               0.20        0.00
01005               0.40        0.00
01006              -0.40      200.00
01007              -0.60      200.00
01008               0.40      400.00
01009              -0.20      200.00
01010               1.60      400.00
01011              10.60      600.00
01012               0.20      600.00
01013             -25.00      400.00
01014             -11.40      400.00
01015              25.00      600.00
01016               7.60      600.00
01017             -25.00      800.00
01018               4.60      400.00
01019              25.00     1200.00
01020             -25.00      400.00
01021             -25.00     1200.00
01022              25.00      400.00
01023              25.00     1400.00
01024             -25.00      400.00
01025             -25.00     1200.00
01026              25.00      800.00
01027              21.40     1200.00
01028             -25.00      800.00
01029              25.00     1400.00
01030              25.00     1200.00
01031             -25.00     1400.00
01032             -25.00     1200.00
01033              25.00     1600.00
01034              -3.60     1200.00
01035             -25.00     1600.00
01036              25.00     1200.00
01037              25.00     1600.00
01038             -25.00     1400.00
01039             -15.60     1800.00
01040              25.00     1600.00
01041             -21.80     1800.00
01042             -25.00     1800.00
01043              25.00     1600.00
01044              25.00     1800.00
01045             -25.00     1800.00
01046               9.00     2000.00
01047              25.00     1600.00
01048             -24.40     2200.00
01049             -25.00     1800.00
01050              25.00     2000.00
01051               5.40     2000.00
01052             -25.00     2200.00
01053              12.60     2000.00
01054              25.00     2200.00
01055             -25.00     2200.00
01056             -10.80     2400.00
01057              25.00     2200.00
01058              -3.80     2400.00
01059             -23.80     2200.00
01060              20.60     2400.00
01061              11.80     2400.00
01062             -22.80     2400.00
01063               7.60     2400.00
01064              18.20     2400.00
01065             -13.60     2600.00
01066              -5.20     2600.00
01067              18.80     2600.00
01068              -3.80     2600.00
01069              -9.20     2800.00
01070              10.20     2800.00
01071               6.60     2800.00
01072              -9.60     2800.00
01073               4.20     2800.00
01074               8.20     2800.00
01075              -3.20     3000.00
01076              -2.60     2800.00
01077               9.00     3000.00
01078               1.20     3000.00
01079              -3.80     3200.00
01080               4.60     3000.00
01081               6.20     3200.00
01082              -3.00     3000.00
01083               1.00     3200.00
01084               6.80     3200.00
01085               0.40     3200.00
01086              -1.00     3200.00
01087               6.00     3400.00
01088               3.00     3200.00
01089              -2.20     3400.00
01090               3.40     3400.00
01091               4.60     3600.00
01092               0.20     3600.00
01093               1.00     3600.00
01094               6.00     3600.00
01095               1.80     3600.00
01096               1.00     3600.00
01097               3.40     3600.00
01098               3.40     3600.00
01099               0.40     3600.00
01100               3.80     3600.00
01101               4.20     3800.00
01102               2.20     3800.00
01103               1.40     3800.00
01104               3.60     4000.00
01105               3.00     3800.00
01106               2.20     4000.00
01107               3.00     4000.00
01108               3.80     4000.00
01109               2.80     4000.00
01110               2.20     4000.00
01111               4.20     4000.00
01112               3.40     4000.00
01113               2.40     4000.00
01114               3.80     4000.00
01115               5.00     4000.00
01116               2.00     4200.00
01117               3.80     4000.00
01118               4.80     4400.00
01119               3.00     4200.00
01120               2.60     4200.00
01121               5.40     4400.00
01122               3.60     4200.00
01123               2.80     4400.00
01124               4.40     4400.00
01125               5.00     4400.00
01126               2.60     4200.00
01127               4.40     4400.00
01128               4.60     4400.00
01129               3.80     4400.00
01130               4.00     4400.00
01131               5.00     4400.00
01132               4.20     4400.00
01133               3.80     4600.00
01134               4.80     4400.00
01135               4.20     4600.00
01136               4.20     4600.00
01137               4.60     4400.00
01138               5.20     4600.00
01139               4.60     4600.00
01140               5.00     4600.00
01141               5.20     4600.00
01142               5.20     4400.00
01143               4.40     4600.00
01144               5.60     4600.00
01145               5.80     4600.00
01146               4.60     4600.00
01147               5.20     4600.00
01148               6.40     4800.00
01149               5.20     4800.00
01150               5.40     4800.00
01151               5.80     4800.00
01152               6.00     4800.00
01153               5.80     4800.00
01154               6.00     4800.00
01155               6.00     4800.00
01156               6.00     4800.00
01157               6.20     4800.00
01158               6.20     4800.00
01159               6.60     4800.00
01160               6.60     4800.00
01161               6.60     4800.00
01162               7.20     4800.00
01163               7.00     4800.00
01164               6.80     4800.00
01165               7.40     4800.00
01166               7.00     5000.00
01167               6.80     4800.00
01168               7.00     5200.00
01169               7.80     4800.00
01170               7.60     4800.00
01171               7.40     4800.00
01172               7.60     5000.00
01173               8.40     5000.00
01174               7.40     5000.00
01175               7.80     5000.00
01176               8.40     5200.00
01177               7.80     5000.00
01178               7.80     4800.00
01179               8.60     4800.00
01180               8.20     5000.00
01181               7.60     5200.00
01182               9.00     4800.00
01183               8.40     4800.00
01184               8.20     5000.00
01185               8.80     5000.00
01186               9.00     5000.00
01187               8.60     5000.00
01188               7.80     4800.00
01189               8.40     4800.00
01190               9.40     5000.00
01191               8.40     4800.00
01192               7.60     5000.00
01193               9.00     4800.00
01194               8.40     4800.00
01195               8.00     5200.00
01196               8.20     5000.00
01197               8.40     5000.00
01198               7.60     5200.00
01199               7.80     4800.00
01200               8.20     5200.00
01201               7.00     5000.00
01202               7.40     4800.00
01203               7.60     4800.00
01204               7.00     4800.00
01205               7.00     4800.00
01206               7.40     5000.00
01207               6.60     4800.00
01208               6.60     4800.00
01209               6.80     4800.00
01210               6.60     4800.00
01211               6.40     4800.00
01212               6.60     4800.00
01213               6.00     4800.00
01214               5.80     4800.00
01215               6.80     4800.00
01216               6.20     4800.00
01217               5.80     4800.00
01218               6.40     5000.00
01219               6.20     4800.00
01220               5.20     4800.00
01221               6.00     4800.00
01222               6.00     4600.00
01223               5.20     4800.00
01224               5.20     4800.00
01225               5.80     4600.00
01226               5.20     4800.00
01227               5.20     4600.00
01228               5.40     4600.00
01229               5.20     4800.00
01230               4.80     4600.00
01231               5.00     4600.00
01232               5.20     4600.00
01233               5.00     4600.00
01234               4.60     4600.00
01235               4.60     4600.00
01236               5.20     4600.00
01237               4.60     4600.00
01238               4.20     4400.00
01239               4.60     4400.00
01240               4.60     4600.00
01241               4.20     4400.00
01242               4.20     4400.00
01243               4.40     4400.00
01244               4.20     4400.00
01245               3.80     4400.00
01246               4.20     4400.00
01247               4.20     4400.00
01248               4.20     4400.00
01249               4.20     4400.00
01250               3.80     4400.00
01251               3.60     4200.00
01252               3.80     4400.00
01253               3.60     4200.00
01254               3.40     4000.00
01255               3.60     4000.00
01256               3.40     4000.00
01257               3.00     4000.00
01258               3.00     4200.00
01259               3.20     4000.00
01260               2.80     4000.00
01261               3.40     4000.00
01262               3.20     4000.00
01263               2.80     4000.00
01264               2.80     3800.00
01265               3.40     3800.00
01266               2.60     3800.00
01267               2.60     4000.00
01268               3.40     3800.00
01269               2.60     3800.00
01270               2.20     3800.00
01271               2.80     3800.00
01272               2.60     3600.00
01273               2.00     3800.00
01274               2.60     3800.00
01275               2.60     3600.00
01276               2.00     3600.00
01277               2.20     3600.00
01278               2.60     3600.00
01279               2.60     3400.00
01280               1.80     3600.00
01281               1.80     3600.00
01282               2.80     3400.00
01283               3.00     3600.00
01284               2.40     3400.00
01285               2.20     3400.00
01286               2.00     3400.00
01287               1.80     3200.00
01288               2.20     3200.00
01289               1.80     3200.00
01290               2.00     3200.00
01291               2.60     3200.00
01292               2.00     3000.00
01293               1.40     3200.00
01294               1.80     3000.00
01295               2.00     3000.00
01296               1.20     3000.00
01297               2.40     3000.00
01298               3.40     3000.00
01299               0.60     3000.00
01300               0.60     2800.00
01301               2.40     2800.00
01302               1.60     3000.00
01303               1.00     2800.00
01304               2.20     2800.00
01305               1.80     2800.00
01306               1.00     2800.00
01307               1.20     2600.00
01308               1.40     2800.00
01309               1.20     2400.00
01310               1.60     2600.00
01311               1.80     2400.00
01312               1.40     2400.00
01313               1.60     2400.00
01314               1.20     2400.00
01315               0.60     2400.00
01316               1.40     2200.00
01317               1.00     2200.00
01318               1.00     2200.00
01319               1.40     2200.00
01320               0.40     2000.00
01321               0.60     2200.00
01322               1.40     2000.00
01323               0.40     2200.00
01324               0.20     1800.00
01325               1.80     2000.00
01326               0.80     2000.00
01327               0.20     2000.00
01328               1.80     2000.00
01329               0.80     1800.00
01330              -0.20     1600.00
01331               1.20     1800.00
01332               0.60     1800.00
01333               0.20     1600.00
01334               0.60     1800.00
01335               1.00     1800.00
01336               0.20     1600.00
01337               0.40     1400.00
01338               0.60     1600.00
01339               0.20     1400.00
01340               0.20     1400.00
01341               0.40     1400.00
01342               0.40     1200.00
01343               0.40     1200.00
01344               0.40     1200.00
01345               0.40     1200.00
01346               0.60     1200.00
01347               0.40     1000.00
01348               0.00     1200.00
01349               0.40     1000.00
01350               0.60      800.00
01351              -0.40      800.00
01352               0.20      800.00
01353               0.40      800.00
01354               0.20      800.00
01355              -0.20      800.00
01356               0.40      800.00
01357               0.40      600.00
01358              -0.20      600.00
01359               0.20      600.00
01360               0.20      600.00
01361              -0.20      400.00
01362               0.00      400.00
01363               0.20      400.00
01364              -0.20      400.00
01365              -0.20      400.00
01366              -0.20      200.00
01367              -0.40      200.00
01368               0.20      200.00
01369              -0.40      200.00
01370              -0.20        0.00
01371               0.00        0.00
01372              -0.20        0.00
01373               0.20        0.00
01374               0.20        0.00
01375               0.20     -200.00
01376              -0.40     -200.00
01377               0.20     -200.00
01378               0.20     -200.00
01379              -0.80     -200.00
01380              -0.20     -400.00
01381               2.40     -400.00
01382              15.20     -400.00
01383               0.20     -600.00
01384             -25.00     -400.00
01385              13.00     -400.00
01386              25.00     -400.00
01387             -13.20     -800.00
01388             -25.00     -600.00
01389              25.00     -400.00
01390              25.00     -800.00
01391             -25.00    -1000.00
01392             -25.00     -800.00
01393              25.00     -800.00
01394              25.00    -1000.00
01395             -25.00     -800.00
01396             -25.00    -1000.00
01397              25.00     -800.00
01398              17.80    -1400.00
01399             -25.00     -800.00
01400              25.00    -1200.00
01401              25.00    -1000.00
01402             -25.00    -1400.00
01403             -25.00    -1000.00
01404              25.00    -1600.00
01405              25.00    -1400.00
01406             -25.00    -1600.00
01407              25.00    -1400.00
01408              25.00    -1800.00
01409             -25.00    -1400.00
01410             -25.00    -1800.00
01411              25.00    -1600.00
01412               3.00    -1600.00
01413             -25.00    -1600.00
01414              25.00    -2000.00
01415              25.00    -1800.00
01416             -25.00    -1800.00
01417             -17.80    -2000.00
01418              25.00    -2000.00
01419             -18.60    -2000.00
01420             -25.00    -2000.00
01421              25.00    -2000.00
01422              25.00    -2000.00
01423             -25.00    -2000.00
01424              -3.40    -2000.00
01425              25.00    -2200.00
01426             -20.80    -2000.00
01427             -25.00    -2400.00
01428              25.00    -2400.00
01429               8.40    -2400.00
01430             -25.00    -2400.00
01431              12.80    -2600.00
01432              25.00    -2400.00
01433             -25.00    -2400.00
01434              -7.80    -2600.00
01435              25.00    -2600.00
01436             -13.80    -2600.00
01437             -19.40    -2600.00
01438              17.20    -2600.00
01439               2.00    -2600.00
01440             -19.80    -2800.00
01441               4.60    -2800.00
01442               8.20    -2800.00
01443             -11.80    -2800.00
01444              -6.00    -2800.00
01445               8.40    -2800.00
01446              -4.80    -3000.00
01447              -9.40    -2800.00
01448               3.60    -3200.00
01449               1.40    -3000.00
01450             -10.00    -3200.00
01451              -1.00    -3200.00
01452               3.40    -3200.00
01453              -7.40    -3000.00
01454              -5.80    -3200.00
01455               4.20    -3200.00
01456              -3.00    -3200.00
01457              -8.60    -3400.00
01458               1.00    -3200.00
01459               0.40    -3400.00
01460              -8.60    -3400.00
01461              -2.80    -3400.00
01462               2.60    -3400.00
01463              -6.00    -3600.00
01464              -6.20    -3600.00
01465               1.20    -3600.00
01466              -2.00    -3600.00
01467              -7.60    -3600.00
01468              -1.80    -3600.00
01469              -0.40    -3800.00
01470              -5.40    -3800.00
01471              -4.60    -3800.00
01472              -0.60    -3800.00
01473              -3.80    -3800.00
01474              -5.60    -3800.00
01475              -2.20    -4000.00
01476              -2.00    -3800.00
01477              -4.60    -4000.00
01478              -3.80    -3800.00
01479              -2.20    -4000.00
01480              -3.80    -4000.00
01481              -4.60    -4000.00
01482              -3.00    -4000.00
01483              -3.60    -4200.00
01484              -4.60    -4000.00
01485              -3.40    -4000.00
01486              -3.60    -4000.00
01487              -4.60    -4200.00
01488              -3.80    -4200.00
01489              -3.00    -4200.00
01490              -4.60    -4200.00
01491              -4.40    -4200.00
01492              -3.40    -4200.00
01493              -4.20    -4200.00
01494              -5.20    -4200.00
01495              -3.80    -4200.00
01496              -4.20    -4400.00
01497              -5.00    -4400.00
01498              -4.60    -4400.00
01499              -4.00    -4400.00
01500              -4.60    -4400.00
01501              -5.20    -4400.00
01502              -4.40    -4400.00
01503              -4.40    -4400.00
01504              -5.40    -4400.00
01505              -5.00    -4400.00
01506              -4.60    -4600.00
01507              -5.20    -4400.00
01508              -5.40    -4600.00
01509              -5.20    -4400.00
01510              -5.20    -4600.00
01511              -5.40    -4600.00
01512              -5.20    -4600.00
01513              -5.40    -4600.00
01514              -6.00    -4800.00
01515              -5.60    -4800.00
01516              -5.80    -4600.00
01517              -6.20    -4600.00
01518              -6.20    -4800.00
01519              -6.00    -4600.00
01520              -6.00    -4800.00
01521              -6.20    -4600.00
01522              -6.60    -4800.00
01523              -6.00    -4800.00
01524              -6.40    -4800.00
01525              -6.80    -5000.00
01526              -6.40    -4600.00
01527              -6.40    -4800.00
01528              -7.40    -4800.00
01529              -7.00    -4600.00
01530              -6.40    -5000.00
01531              -7.00    -4800.00
01532              -7.60    -5000.00
01533              -6.80    -5000.00
01534              -7.60    -5000.00
01535              -7.00    -5000.00
01536              -7.40    -5000.00
01537              -7.80    -5000.00
01538              -7.60    -5000.00
01539              -7.60    -5000.00
01540              -8.20    -5000.00
01541              -7.60    -5000.00
01542              -7.80    -5000.00
01543              -7.60    -5000.00
01544              -8.20    -5000.00
01545              -7.80    -5000.00
01546              -8.00    -5000.00
01547              -8.40    -5000.00
01548              -8.40    -5000.00
01549              -8.60    -5000.00
01550              -8.60    -5000.00
01551              -8.60    -5000.00
01552              -8.60    -5000.00
01553              -8.60    -5000.00
01554              -8.60    -5200.00
01555              -8.60    -5200.00
01556              -8.60    -5000.00
01557              -9.00    -5000.00
01558              -9.00    -5000.00
01559              -8.60    -5000.00
01560              -9.20    -5000.00
01561              -9.20    -5200.00
01562              -8.60    -5000.00
01563              -8.80    -5000.00
01564              -9.20    -5000.00
01565              -8.80    -5000.00
01566              -8.60    -5200.00
01567              -9.00    -5000.00
01568              -8.60    -5000.00
01569              -8.40    -5000.00
01570              -8.40    -5000.00
01571              -8.40    -5000.00
01572              -8.00    -4800.00
01573              -7.80    -5000.00
01574              -8.00    -5000.00
01575              -7.60    -5000.00
01576              -7.60    -5000.00
01577              -7.80    -5000.00
01578              -7.60    -5000.00
01579              -7.60    -5000.00
01580              -7.40    -4600.00
01581              -7.60    -5000.00
01582              -7.40    -5000.00
01583              -7.40    -4800.00
01584              -7.00    -4600.00
01585              -7.00    -4800.00
01586              -7.00    -4800.00
01587              -6.60    -5000.00
01588              -6.80    -4800.00
01589              -6.60    -4800.00
01590              -6.20    -5000.00
01591              -6.20    -4600.00
01592              -6.40    -4800.00
01593              -6.00    -4800.00
01594              -6.20    -4600.00
01595              -6.60    -4800.00
01596              -6.00    -4800.00
01597              -6.00    -4600.00
01598              -6.20    -4600.00
01599              -5.60    -4600.00
01600              -5.40    -4800.00
01601              -6.00    -4600.00
01602              -5.40    -4600.00
01603              -5.20    -4800.00
01604              -5.80    -4600.00
01605              -5.20    -4600.00
01606              -5.00    -4600.00
01607              -5.20    -4400.00
01608              -5.20    -4400.00
01609              -5.00    -4600.00
01610              -5.00    -4600.00
01611              -5.00    -4400.00
01612              -5.20    -4400.00
01613              -5.00    -4600.00
01614              -4.60    -4400.00
01615              -5.00    -4400.00
01616              -4.60    -4400.00
01617              -4.20    -4400.00
01618              -4.60    -4400.00
01619              -4.60    -4400.00
01620              -4.20    -4200.00
01621              -4.20    -4200.00
01622              -4.40    -4200.00
01623              -4.20    -4200.00
01624              -3.80    -4200.00
01625              -4.20    -4200.00
01626              -4.20    -4200.00
01627              -3.80    -4000.00
01628              -3.80    -4200.00
01629              -4.20    -4200.00
01630              -3.80    -4200.00
01631              -3.60    -4000.00
01632              -3.80    -4200.00
01633              -3.60    -4000.00
01634              -3.60    -4000.00
01635              -3.60    -4000.00
01636              -3.60    -3800.00
01637              -3.40    -4000.00
01638              -3.60    -4000.00
01639              -3.40    -3800.00
01640              -3.40    -3800.00
01641              -3.40    -4000.00
01642              -3.40    -3800.00
01643              -3.40    -3800.00
01644              -3.40    -3800.00
01645              -3.00    -3600.00
01646              -3.00    -3600.00
01647              -3.20    -3600.00
01648              -3.00    -3600.00
01649              -3.00    -3600.00
01650              -3.00    -3600.00
01651              -2.80    -3600.00
01652              -3.00    -3600.00
01653              -2.80    -3600.00
01654              -2.80    -3400.00
01655              -2.80    -3400.00
01656              -2.60    -3400.00
01657              -2.80    -3400.00
01658              -2.80    -3200.00
01659              -2.80    -3400.00
01660              -2.80    -3200.00
01661              -2.80    -3200.00
01662              -2.60    -3200.00
01663              -2.60    -3200.00
01664              -2.60    -3200.00
01665              -2.40    -3000.00
01666              -2.60    -3000.00
01667              -2.20    -2800.00
01668              -2.20    -2800.00
01669              -2.20    -3000.00
01670              -2.60    -2800.00
01671              -2.20    -2800.00
01672              -2.20    -2800.00
01673              -2.20    -2800.00
01674              -2.20    -2800.00
01675              -2.00    -2800.00
01676              -2.20    -2600.00
01677              -2.20    -2800.00
01678              -2.00    -2600.00
01679              -2.00    -2600.00
01680              -2.00    -2600.00
01681              -1.60    -2400.00
01682              -2.00    -2600.00
01683              -1.80    -2400.00
01684              -1.60    -2400.00
01685              -1.80    -2400.00
01686              -2.00    -2400.00
01687              -2.00    -2400.00
01688              -1.80    -2400.00
01689              -1.40    -2200.00
01690              -2.00    -2400.00
01691              -1.20    -2000.00
01692              -1.20    -2200.00
01693              -2.20    -2000.00
01694              -1.20    -2000.00
01695              -1.00    -2000.00
01696              -2.20    -2000.00
01697              -1.40    -2000.00
01698              -0.60    -2000.00
01699              -2.00    -1800.00
01700              -1.80    -2000.00
01701              -0.60    -1800.00
01702              -1.40    -1800.00
01703              -1.80    -1800.00
01704              -0.60    -1800.00
01705              -1.20    -1600.00
01706              -1.80    -1600.00
01707              -1.00    -1600.00
01708              -1.20    -1600.00
01709              -1.80    -1600.00
01710              -1.20    -1600.00
01711              -1.00    -1600.00
01712              -1.20    -1200.00
01713              -1.00    -1400.00
01714              -0.80    -1200.00
01715              -1.00    -1200.00
01716              -1.20    -1200.00
01717              -1.00    -1200.00
01718              -0.60    -1200.00
01719              -1.60    -1200.00
01720              -0.80    -1000.00
01721              -0.60    -1000.00
01722              -1.00    -1000.00
01723              -1.00     -800.00
01724              -0.40    -1000.00
01725              -0.80     -800.00
01726              -1.00     -800.00
01727              -0.60     -800.00
01728              -0.40     -800.00
01729              -1.00     -800.00
01730              -0.60     -600.00
01731              -0.60     -800.00
01732              -0.60     -600.00
01733              -0.60     -400.00
01734              -0.40     -400.00
01735              -0.60     -400.00
01736              -0.60     -400.00
01737              -0.40     -400.00
01738              -1.00     -200.00
01739              -0.40     -200.00
01740               0.20        0.00
01741              -0.60     -200.00
01742              -1.00     -200.00
01743               0.60     -200.00
01744               0.20     -200.00
01745              -1.80     -200.00
01746               0.20      200.00
01747               1.20        0.00
01748              -0.60      400.00
01749              -0.60      200.00
01750               1.80      200.00
01751              -1.20      200.00
01752              -1.60      400.00
01753               3.60      400.00
01754               8.80      400.00
01755               2.80      600.00
01756             -23.00      400.00
01757             -20.60      400.00
01758              25.00      800.00
01759              22.80      600.00
01760             -25.00      600.00
01761             -22.80      400.00
01762              25.00     1000.00
01763              12.20      400.00
01764             -25.00     1200.00
01765              10.80      200.00
01766              25.00     1400.00
01767             -25.00      400.00
01768             -25.00     1400.00
01769              25.00      600.00
01770              25.00     1400.00
01771             -25.00      800.00
01772               0.40     1200.00
01773              25.00     1200.00
01774             -25.00     1200.00
01775             -25.00     1200.00
01776              25.00     1400.00
01777              25.00     1200.00
01778             -25.00     1400.00
01779              20.20     1400.00
01780              25.00     1400.00
01781             -25.00     1400.00
01782             -25.00     1800.00
01783              25.00     1800.00
01784              10.60     1600.00
01785             -25.00     2000.00
01786              24.40     1600.00
01787              25.00     2000.00
01788             -25.00     1800.00
01789             -13.00     2000.00
01790              25.00     1600.00
01791              -7.00     2200.00
01792             -25.00     1800.00
01793              25.00     2000.00
01794              21.80     1800.00
01795             -25.00     2200.00
01796              -1.80     2000.00
01797              25.00     2200.00
01798             -13.80     2200.00
01799             -23.00     2200.00
01800              25.00     2200.00
01801               8.20     2400.00
01802             -25.00     2400.00
01803              10.80     2400.00
01804              22.00     2400.00
01805             -21.40     2400.00
01806              -1.00     2600.00
01807              21.40     2400.00
01808              -7.00     2600.00
01809             -12.60     2600.00
01810              18.20     2800.00
01811               2.20     2800.00
01812             -11.80     2800.00
01813               6.60     2800.00
01814              10.60     2800.00
01815              -8.60     2800.00
01816               0.60     2800.00
01817               9.80     3000.00
01818              -0.60     3000.00
01819              -4.40     3000.00
01820               7.40     3000.00
01821               4.20     3000.00
01822              -4.00     3000.00
01823               3.00     3000.00
01824               6.60     3200.00
01825              -1.20     3000.00
01826              -1.20     3200.00
01827               7.00     3200.00
01828               2.00     3200.00
01829              -2.20     3400.00
01830               3.80     3200.00
01831               5.80     3400.00
01832              -1.80     3200.00
01833               1.80     3400.00
01834               5.40     3400.00
01835               2.00     3600.00
01836              -0.60     3600.00
01837               5.80     3600.00
01838               2.40     3600.00
01839              -0.40     3800.00
01840               2.80     3600.00
01841               4.60     3800.00
01842               0.40     3800.00
01843               1.80     3800.00
01844               4.40     3800.00
01845               2.60     3800.00
01846               1.00     3800.00
01847               3.60     3800.00
01848               3.60     3800.00
01849               1.20     3800.00
01850               3.40     4000.00
01851               3.40     3800.00
01852               2.00     4000.00
01853               2.20     4000.00
01854               4.20     4000.00
01855               3.60     4000.00
01856               3.60     4000.00
01857               4.00     4000.00
01858               5.00     4000.00
01859               2.20     4200.00
01860               2.60     4000.00
01861               2.60     4000.00
01862               2.00     4200.00
01863               2.00     4200.00
01864               4.60     4200.00
01865               5.20     4400.00
01866               5.00     4400.00
01867               5.40     4200.00
01868               5.00     4400.00
01869               2.00     4200.00
01870               2.80     4400.00
01871               2.80     4400.00
01872               2.60     4400.00
01873               5.00     4400.00
01874               6.00     4600.00
01875               5.40     4400.00
01876               5.20     4600.00
01877               5.60     4600.00
01878               3.60     4400.00
01879               3.20     4600.00
01880               3.20     4600.00
01881               5.20     4600.00
01882               5.40     4600.00
01883               6.00     4600.00
01884               7.40     4600.00
01885               5.20     4800.00
01886               4.20     4600.00
01887               5.80     4600.00
01888               3.80     4600.00
01889               3.80     4800.00
01890               6.00     4600.00
01891               6.40     4800.00
01892               5.60     4600.00
01893               7.40     4800.00
01894               6.60     4600.00
01895               5.20     4800.00
01896               5.80     4800.00
01897               5.80     4800.00
01898               5.40     4800.00
01899               5.60     4800.00
01900               6.60     4800.00
01901               6.80     4800.00
01902               6.80     4800.00
01903               7.40     4800.00
01904               7.20     4800.00
01905               5.80     4800.00
01906               6.00     4800.00
01907               6.60     4800.00
01908               6.60     5200.00
01909               7.00     4800.00
01910               7.60     5000.00
01911               7.00     5000.00
01912               7.60     4800.00
01913               7.60     5000.00
01914               7.00     4800.00
01915               7.40     4800.00
01916               8.00     5000.00
01917               6.80     4800.00
01918               7.40     5000.00
01919               8.40     5000.00
01920               8.60     5000.00
01921               7.00     5200.00
01922               8.40     5000.00
01923               8.60     5000.00
01924               7.40     4800.00
01925               8.00     5200.00
01926               8.40     4800.00
01927               8.40     5000.00
01928               8.20     5000.00
01929               9.00     4800.00
01930               9.40     4800.00
01931               8.40     4800.00
01932               7.40     5000.00
01933               8.80     4800.00
01934               8.40     5200.00
01935               7.40     5000.00
01936               8.60     5000.00
01937               9.40     5000.00
01938               7.80     5000.00
01939               8.20     5200.00
01940               9.20     4800.00
01941               7.60     4800.00
01942               6.60     5000.00
01943               8.20     4800.00
01944               7.80     5000.00
01945               7.20     4800.00
01946               7.80     4800.00
01947               8.60     4800.00
01948               7.40     4800.00
01949               6.60     4800.00
01950               7.60     4800.00
01951               6.80     4800.00
01952               5.80     4800.00
01953               7.00     4800.00
01954               7.40     4800.00
01955               6.00     5000.00
01956               6.80     4800.00
01957               7.00     4800.00
01958               5.80     4800.00
01959               5.20     4800.00
01960               6.60     4800.00
01961               6.20     4600.00
01962               5.20     4600.00
01963               6.00     4800.00
01964               6.60     4600.00
01965               5.20     4800.00
01966               5.20     4800.00
01967               6.00     4800.00
01968               5.00     4600.00
01969               4.40     4600.00
01970               5.40     4600.00
01971               5.40     4600.00
01972               5.00     4600.00
01973               5.00     4600.00
01974               5.20     4600.00
01975               5.00     4600.00
01976               4.20     4600.00
01977               4.40     4600.00
01978               4.40     4600.00
01979               4.40     4600.00
01980               4.40     4600.00
01981               4.40     4600.00
01982               4.40     4400.00
01983               4.40     4400.00
01984               4.20     4400.00
01985               4.20     4400.00
01986               3.60     4400.00
01987               4.20     4400.00
01988               3.80     4400.00
01989               3.60     4400.00
01990               4.00     4400.00
01991               3.80     4400.00
01992               3.60     4400.00
01993               3.40     4400.00
01994               3.80     4400.00
01995               3.60     4400.00
01996               3.20     4400.00
01997               3.60     4400.00
01998               3.80     4200.00
01999               3.00     4400.00
02000               3.40     4200.00
02001               3.60     4000.00
02002               3.00     4000.00
02003               3.00     4000.00
02004               3.20     4000.00
02005               3.00     4000.00
02006               3.00     4000.00
02007               3.40     4000.00
02008               3.40     4000.00
02009               3.00     4000.00
02010               2.80     3800.00
02011               3.00     4000.00
02012               2.60     3800.00
02013               2.60     3800.00
02014               3.00     3600.00
02015               2.60     3800.00
02016               2.80     3800.00
02017               3.00     3800.00
02018               2.80     3600.00
02019               2.60     3600.00
02020               2.60     3600.00
02021               2.20     3600.00
02022               2.40     3600.00
02023               2.40     3600.00
02024               2.20     3400.00
02025               2.20     3600.00
02026               2.40     3600.00
02027               2.60     3400.00
02028               2.00     3400.00
02029               2.20     3400.00
02030               2.20     3400.00
02031               2.20     3200.00
02032               2.00     3200.00
02033               2.00     3200.00
02034               2.20     3200.00
02035               2.00     3000.00
02036               1.80     3000.00
02037               2.00     3200.00
02038               1.80     3000.00
02039               1.60     3000.00
02040               1.80     3000.00
02041               1.80     3000.00
02042               1.80     3000.00
02043               1.80     3000.00
02044               1.80     2800.00
02045               1.60     2800.00
02046               1.00     2800.00
02047               1.40     2800.00
02048               1.40     2800.00
02049               1.20     2800.00
02050               1.80     2600.00
02051               1.40     2600.00
02052               1.20     2400.00
02053               1.20     2400.00
02054               1.40     2400.00
02055               1.20     2400.00
02056               1.00     2400.00
02057               1.20     2400.00
02058               1.00     2400.00
02059               1.20     2200.00
02060               1.00     2000.00
02061               1.20     2200.00
02062               1.20     2200.00
02063               1.00     2000.00
02064               1.00     2200.00
02065               1.00     2000.00
02066               1.00     2000.00
02067               1.00     2000.00
02068               0.60     2000.00
02069               1.00     2000.00
02070               1.00     2000.00
02071               0.60     1800.00
02072               1.00     1800.00
02073               1.00     2000.00
02074               0.60     1800.00
02075               0.60     1800.00
02076               1.20     1600.00
02077               0.60     1600.00
02078               0.60     1600.00
02079               1.00     1400.00
02080               0.80     1400.00
02081               0.60     1400.00
02082               0.60     1400.00
02083               0.80     1200.00
02084               0.60     1400.00
02085               0.40     1400.00
02086               0.40     1200.00
02087               0.60     1200.00
02088               0.20     1200.00
02089               0.40     1200.00
02090               0.40     1200.00
02091               0.40      800.00
02092               0.20     1000.00
02093               0.40     1000.00
02094               0.60      800.00
02095               0.40      800.00
02096               0.40      800.00
02097               0.20      600.00
02098               0.00      600.00
02099               0.20      600.00
02100               0.20      800.00
02101               0.20      600.00
02102              -0.40      400.00
02103              -0.20      400.00
02104               0.40      600.00
02105              -0.40      400.00
02106               0.00      400.00
02107               0.20      400.00
02108              -0.20      200.00
02109              -0.40      400.00
02110               0.20      400.00
02111               0.00        0.00
02112              -0.20        0.00
02113              -0.40        0.00
02114              -0.40        0.00
02115              -0.20        0.00
02116              -0.20     -200.00
02117              -0.40        0.00
02118              -0.40     -200.00
02119               0.40     -200.00
02120              -0.40     -200.00
02121              -0.40     -200.00
02122              -0.40     -200.00
02123              -0.60     -200.00
02124               0.40     -400.00
02125              13.00     -400.00
02126               8.60     -600.00
02127             -25.00     -400.00
02128             -10.20     -400.00
02129              25.00     -400.00
02130              10.00     -600.00
02131             -25.00     -800.00
02132               4.40     -400.00
02133              25.00    -1000.00
02134             -16.20     -800.00
02135             -25.00     -800.00
02136              25.00     -800.00
02137              25.00    -1000.00
02138             -25.00     -800.00
02139             -25.00    -1000.00
02140              25.00     -800.00
02141              25.00    -1200.00
02142             -25.00     -800.00
02143               2.20    -1200.00
02144              25.00    -1000.00
02145             -25.00    -1400.00
02146             -25.00     -800.00
02147              25.00    -1600.00
02148              25.00    -1200.00
02149             -25.00    -1600.00
02150               3.40    -1400.00
02151              25.00    -1600.00
02152             -25.00    -1600.00
02153             -25.00    -1600.00
02154              25.00    -1600.00
02155              25.00    -1800.00
02156             -25.00    -1600.00
02157              16.40    -1800.00
02158              25.00    -1800.00
02159             -25.00    -1600.00
02160             -25.00    -2000.00
02161              25.00    -2000.00
02162               9.80    -1800.00
02163             -25.00    -1800.00
02164              18.00    -2200.00
02165              25.00    -1800.00
02166             -25.00    -2000.00
02167             -22.20    -2000.00
02168              25.00    -2200.00
02169              -3.00    -2000.00
02170             -25.00    -2400.00
02171              22.80    -2400.00
02172              24.40    -2200.00
02173             -25.00    -2400.00
02174              -3.60    -2400.00
02175              25.00    -2600.00
02176             -20.00    -2400.00
02177             -21.20    -2600.00
02178              25.00    -2600.00
02179              -1.80    -2600.00
02180             -24.60    -2600.00
02181              10.00    -2800.00
02182               9.80    -2800.00
02183             -19.40    -2800.00
02184              -1.80    -2800.00
02185              11.00    -2800.00
02186              -8.20    -2800.00
02187             -10.60    -2800.00
02188               7.40    -2800.00
02189              -1.20    -3200.00
02190             -11.00    -2800.00
02191               1.20    -3000.00
02192               4.20    -3200.00
02193              -9.20    -3000.00
02194              -3.80    -3200.00
02195               4.60    -3200.00
02196              -5.40    -3200.00
02197              -7.60    -3200.00
02198               3.20    -3200.00
02199              -0.60    -3400.00
02200              -8.80    -3200.00
02201              -1.20    -3400.00
02202               1.40    -3400.00
02203              -6.80    -3200.00
02204              -4.60    -3400.00
02205               2.80    -3400.00
02206              -3.40    -3400.00
02207              -6.60    -3400.00
02208              -0.60    -3600.00
02209              -0.40    -3400.00
02210              -6.40    -3600.00
02211              -3.40    -3400.00
02212              -0.20    -3600.00
02213              -3.60    -3600.00
02214              -5.00    -3600.00
02215              -1.80    -3600.00
02216              -2.60    -3600.00
02217              -4.60    -3600.00
02218              -3.40    -3800.00
02219              -1.80    -4000.00
02220              -3.40    -4000.00
02221              -4.40    -3800.00
02222              -2.80    -4000.00
02223              -3.40    -4000.00
02224              -4.00    -4000.00
02225              -3.80    -4000.00
02226              -3.40    -4200.00
02227              -3.80    -4000.00
02228              -4.20    -4200.00
02229              -3.80    -4200.00
02230              -3.80    -4000.00
02231              -4.40    -4200.00
02232              -3.60    -4200.00
02233              -4.20    -4200.00
02234              -4.40    -4200.00
02235              -4.00    -4200.00
02236              -3.80    -4200.00
02237              -5.00    -4400.00
02238              -4.20    -4400.00
02239              -4.20    -4400.00
02240              -5.20    -4200.00
02241              -4.60    -4400.00
02242              -4.00    -4400.00
02243              -5.20    -4400.00
02244              -5.00    -4400.00
02245              -4.20    -4600.00
02246              -5.40    -4400.00
02247              -5.40    -4400.00
02248              -4.40    -4600.00
02249              -5.20    -4400.00
02250              -5.60    -4600.00
02251              -4.80    -4600.00
02252              -5.40    -4400.00
02253              -5.40    -4600.00
02254              -6.00    -4600.00
02255              -5.40    -4600.00
02256              -5.00    -4600.00
02257              -6.20    -4600.00
02258              -6.00    -4800.00
02259              -4.40    -4600.00
02260              -6.20    -4600.00
02261              -7.00    -4600.00
02262              -4.60    -4800.00
02263              -5.80    -4600.00
02264              -7.80    -4600.00
02265              -5.00    -4800.00
02266              -5.80    -4800.00
02267              -8.20    -4600.00
02268              -6.00    -4800.00
02269              -5.40    -4600.00
02270              -7.20    -4800.00
02271              -6.00    -4600.00
02272              -6.60    -4800.00
02273              -7.00    -5000.00
02274              -6.80    -4600.00
02275              -6.80    -5000.00
02276              -7.60    -4600.00
02277              -6.60    -5000.00
02278              -6.80    -5000.00
02279              -7.60    -4800.00
02280              -7.40    -4800.00
02281              -7.00    -5000.00
02282              -8.40    -4800.00
02283              -8.20    -5000.00
02284              -6.60    -5000.00
02285              -8.20    -5000.00
02286              -8.20    -5000.00
02287              -6.80    -4800.00
02288              -8.20    -5000.00
02289              -9.20    -5000.00
02290              -7.60    -5000.00
02291              -8.20    -5000.00
02292              -9.00    -5000.00
02293              -8.40    -5000.00
02294              -8.20    -5000.00
02295              -8.60    -5000.00
02296              -8.60    -5000.00
02297              -8.20    -5000.00
02298              -9.00    -5000.00
02299              -9.20    -5000.00
02300              -8.60    -5000.00
02301              -9.00    -5000.00
02302              -9.20    -4600.00
02303              -9.00    -5000.00
02304              -9.00    -5000.00
02305              -9.20    -5000.00
02306              -9.20    -5200.00
02307              -8.80    -5000.00
02308              -9.00    -5000.00
02309              -9.20    -5000.00
02310              -8.60    -5000.00
02311              -8.40    -5000.00
02312              -9.20    -5000.00
02313              -8.40    -5000.00
02314              -8.00    -5000.00
02315              -9.00    -5000.00
02316              -7.80    -5000.00
02317              -7.80    -5000.00
02318              -8.60    -5000.00
02319              -7.80    -5000.00
02320              -7.60    -4600.00
02321              -7.60    -5000.00
02322              -8.40    -5000.00
02323              -6.60    -4800.00
02324              -6.80    -5000.00
02325              -8.20    -5000.00
02326              -6.80    -5000.00
02327              -6.60    -4800.00
02328              -7.20    -5000.00
02329              -6.80    -5000.00
02330              -6.20    -5000.00
02331              -6.20    -4600.00
02332              -7.00    -5000.00
02333              -6.00    -4600.00
02334              -6.00    -4800.00
02335              -6.80    -4600.00
02336              -6.00    -4600.00
02337              -5.40    -4800.00
02338              -6.60    -4600.00
02339              -6.00    -4800.00
02340              -5.20    -4600.00
02341              -5.80    -4800.00
02342              -6.00    -4800.00
02343              -5.00    -4600.00
02344              -5.20    -4600.00
02345              -5.80    -4600.00
02346              -5.20    -4600.00
02347              -5.00    -4600.00
02348              -5.40    -4600.00
02349              -5.40    -4600.00
02350              -5.00    -4600.00
02351              -4.40    -4600.00
02352              -5.40    -4400.00
02353              -5.00    -4400.00
02354              -4.20    -4400.00
02355              -4.80    -4400.00
02356              -5.20    -4400.00
02357              -3.80    -4400.00
02358              -4.60    -4400.00
02359              -5.20    -4400.00
02360              -4.40    -4400.00
02361              -4.40    -4400.00
02362              -4.40    -4400.00
02363              -4.60    -4400.00
02364              -4.20    -4400.00
02365              -4.40    -4400.00
02366              -4.80    -4400.00
02367              -4.20    -4200.00
02368              -4.20    -4200.00
02369              -4.40    -4200.00
02370              -3.80    -4200.00
02371              -3.40    -4200.00
02372              -4.60    -4200.00
02373              -4.40    -4200.00
02374              -3.00    -4000.00
02375              -4.40    -4000.00
02376              -4.40    -4000.00
02377              -3.40    -4000.00
02378              -3.60    -4000.00
02379              -4.20    -4000.00
02380              -3.60    -4000.00
02381              -3.00    -4000.00
02382              -3.80    -4000.00
02383              -3.80    -3800.00
02384              -2.80    -4000.00
02385              -2.80    -4000.00
02386              -4.40    -3800.00
02387              -3.00    -3600.00
02388              -2.00    -4000.00
02389              -3.60    -3800.00
02390              -3.40    -3600.00
02391              -2.80    -3800.00
02392              -3.40    -3600.00
02393              -3.00    -3600.00
02394              -2.20    -3600.00
02395              -2.80    -3400.00
02396              -3.40    -3600.00
02397              -3.00    -3400.00
02398              -2.40    -3400.00
02399              -2.80    -3400.00
02400              -3.00    -3400.00
02401              -2.20    -3200.00
02402              -2.20    -3400.00
02403              -3.00    -3400.00
02404              -2.20    -3200.00
02405              -2.60    -3200.00
02406              -3.20    -3200.00
02407              -1.20    -3200.00
02408              -2.60    -3200.00
02409              -2.80    -3200.00
02410              -1.80    -3200.00
02411              -2.20    -3200.00
02412              -2.80    -2800.00
02413              -2.00    -2800.00
02414              -2.20    -2800.00
02415              -2.20    -2800.00
02416              -2.20    -2800.00
02417              -1.80    -2800.00
02418              -2.60    -2800.00
02419              -1.40    -2800.00
02420              -1.80    -2600.00
02421              -1.80    -2600.00
02422              -2.00    -2600.00
02423              -2.00    -2600.00
02424              -2.00    -2600.00
02425              -2.20    -2600.00
02426              -1.40    -2400.00
02427              -2.00    -2400.00
02428              -2.00    -2400.00
02429              -2.00    -2400.00
02430              -1.80    -2400.00
02431              -1.40    -2400.00
02432              -2.00    -2200.00
02433              -2.20    -2400.00
02434              -0.60    -2200.00
02435              -2.00    -2200.00
02436              -1.80    -2000.00
02437              -1.00    -2000.00
02438              -1.80    -2000.00
02439              -1.80    -2000.00
02440              -1.40    -2000.00
02441              -1.20    -2000.00
02442              -1.80    -2000.00
02443              -1.20    -1800.00
02444              -1.00    -1800.00
02445              -1.40    -1800.00
02446              -1.80    -1800.00
02447              -1.20    -1800.00
02448              -1.00    -1600.00
02449              -1.40    -1600.00
02450              -1.00    -1600.00
02451              -1.00    -1800.00
02452              -1.40    -1400.00
02453              -1.20    -1600.00
02454              -0.60    -1600.00
02455              -1.00    -1400.00
02456              -1.40    -1200.00
02457              -0.40    -1200.00
02458              -1.60    -1200.00
02459              -1.20    -1000.00
02460               0.20    -1200.00
02461              -1.60    -1200.00
02462              -1.20    -1000.00
02463               0.20    -1000.00
02464              -1.20    -1000.00
02465              -1.80    -1000.00
02466               0.40     -800.00
02467              -0.40     -800.00
02468              -1.80     -800.00
02469              -0.20     -800.00
02470              -0.40     -800.00
02471              -1.80     -800.00
02472              -0.40     -800.00
02473               0.40     -800.00
02474              -1.20     -600.00
02475              -0.60     -400.00
02476               0.20     -400.00
02477              -1.00     -400.00
02478              -0.40     -400.00
02479               0.00     -400.00
02480              -0.60     -200.00
02481              -0.40     -400.00
02482              -0.20     -200.00
02483              -0.60     -400.00
02484               0.00     -200.00
02485              -0.60     -200.00
02486              -0.80     -200.00
02487               0.40        0.00
02488              -0.20        0.00
02489              -1.00        0.00
02490               0.20      200.00
02491               0.40        0.00
02492              -0.60        0.00
02493              -0.20      400.00
02494              -0.20      200.00
02495              -0.20      400.00
02496               0.40      200.00
02497               5.40      400.00
02498              10.20      600.00
02499             -16.60      400.00
02500             -25.00      400.00
02501              25.00      600.00
02502              25.00      600.00
02503             -25.00      800.00
02504             -25.00      400.00
02505              25.00      800.00
02506              25.00      600.00
02507             -25.00     1200.00
02508             -15.60      400.00
02509              25.00     1400.00
02510               2.60      600.00
02511             -25.00     1400.00
02512              25.00      600.00
02513              25.00     1400.00
02514             -25.00      800.00
02515             -25.00     1200.00
02516              25.00     1200.00
02517              -6.20     1400.00
02518             -25.00     1400.00
02519              25.00     1200.00
02520              25.00     1400.00
02521             -25.00     1200.00
02522             -13.20     1800.00
02523              25.00     1400.00
02524             -19.60     1800.00
02525             -25.00     1600.00
02526              25.00     1600.00
02527              25.00     1600.00
02528             -25.00     2000.00
02529               1.40     1600.00
02530              25.00     2000.00
02531             -25.00     1800.00
02532             -25.00     2000.00
02533              25.00     1800.00
02534               9.40     2200.00
02535             -25.00     2000.00
02536              16.20     2000.00
02537              25.00     2000.00
02538             -25.00     2200.00
02539             -13.60     2000.00
02540              25.00     2200.00
02541               0.20     2200.00
02542             -25.00     2400.00
02543              21.20     2200.00
02544              17.80     2200.00
02545             -24.60     2400.00
02546              -0.20     2200.00
02547              25.00     2600.00
02548             -15.20     2400.00
02549              -9.20     2400.00
02550              21.20     2600.00
02551               0.40     2600.00
02552             -16.80     2400.00
02553              14.60     2800.00
02554               8.60     2800.00
02555             -12.40     2800.00
02556               2.80     2800.00
02557              13.00     2800.00
02558              -6.00     2800.00
02559              -3.80     2800.00
02560              10.00     2800.00
02561               1.40     3000.00
02562              -5.80     2800.00
02563               5.40     3000.00
02564               6.80     3000.00
02565              -4.60     3000.00
02566               1.20     3200.00
02567               7.00     3200.00
02568              -0.20     3200.00
02569              -2.80     3200.00
02570               6.80     3200.00
02571               2.80     3200.00
02572              -2.00     3200.00
02573               2.80     3200.00
02574               5.80     3200.00
02575              -1.20     3400.00
02576               1.00     3600.00
02577               5.00     3400.00
02578               2.20     3600.00
02579              -0.60     3400.00
02580               4.40     3600.00
02581               3.60     3600.00
02582               0.20     3600.00
02583               2.20     3600.00
02584               4.60     3800.00
02585               1.80     3800.00
02586               1.40     3600.00
02587               4.20     3800.00
02588               3.00     3800.00
02589               2.00     3800.00
02590               2.80     3800.00
02591               3.80     3800.00
02592               2.00     3800.00
02593               3.20     3800.00
02594               3.40     3800.00
02595               2.80     4000.00
02596               2.20     4000.00
02597               4.20     4000.00
02598               3.20     4000.00
02599               3.00     4000.00
02600               3.60     4000.00
02601               4.20     4000.00
02602               2.60     4000.00
02603               4.00     4200.00
02604               4.20     4000.00
02605               3.40     4200.00
02606               3.00     4400.00
02607               4.60     4200.00
02608               3.60     4200.00
02609               3.60     4400.00
02610               4.20     4400.00
02611               4.20     4400.00
02612               3.60     4400.00
02613               4.20     4200.00
02614               4.60     4400.00
02615               3.80     4400.00
02616               4.40     4400.00
02617               4.60     4400.00
02618               4.40     4400.00
02619               3.60     4400.00
02620               5.20     4400.00
02621               4.40     4600.00
02622               4.40     4600.00
02623               4.60     4600.00
02624               5.20     4600.00
02625               4.40     4600.00
02626               4.60     4600.00
02627               5.20     4600.00
02628               5.20     4600.00
02629               4.40     4800.00
02630               5.60     4600.00
02631               5.80     4800.00
02632               5.20     4600.00
02633               5.20     4600.00
02634               6.00     4600.00
02635               5.60     4800.00
02636               5.20     4800.00
02637               6.00     4800.00
02638               5.80     4600.00
02639               5.80     4800.00
02640               5.60     4800.00
02641               6.20     4800.00
02642               5.80     4800.00
02643               6.40     4800.00
02644               6.80     4800.00
02645               6.80     4800.00
02646               5.80     4800.00
02647               6.80     4800.00
02648               7.40     5000.00
02649               6.20     4800.00
02650               7.20     4800.00
02651               7.40     5000.00
02652               6.60     4800.00
02653               7.00     4800.00
02654               7.40     5200.00
02655               7.20     4800.00
02656               7.40     5000.00
02657               7.40     4800.00
02658               7.80     4800.00
02659               7.60     4800.00
02660               7.40     5200.00
02661               7.80     4800.00
02662               8.20     5000.00
02663               8.00     5000.00
02664               8.20     5000.00
02665               8.20     4800.00
02666               8.20     4800.00
02667               8.20     5000.00
02668               8.60     5000.00
02669               8.40     5200.00
02670               8.20     5000.00
02671               8.40     5000.00
02672               8.40     5000.00
02673               8.60     5000.00
02674               8.40     5200.00
02675               8.60     5200.00
02676               8.40     5000.00
02677               8.80     5000.00
02678               8.60     5000.00
02679               8.60     4800.00
02680               8.40     5000.00
02681               8.60     4800.00
02682               8.40     5000.00
02683               8.20     4800.00
02684               8.40     4800.00
02685               7.60     4800.00
02686               7.60     4800.00
02687               7.60     4800.00
02688               7.40     5200.00
02689               7.40     4800.00
02690               7.40     5000.00
02691               7.00     4800.00
02692               7.00     5200.00
02693               6.80     4800.00
02694               6.80     4800.00
02695               7.00     4800.00
02696               6.60     4800.00
02697               6.60     4800.00
02698               6.80     4800.00
02699               6.20     4800.00
02700               6.00     5000.00
02701               6.60     4800.00
02702               6.00     4800.00
02703               5.80     4800.00
02704               6.00     4800.00
02705               5.80     4800.00
02706               5.80     4800.00
02707               5.40     4800.00
02708               5.40     4800.00
02709               5.80     4800.00
02710               5.20     4600.00
02711               5.20     4600.00
02712               5.40     4800.00
02713               5.20     4800.00
02714               5.00     4600.00
02715               5.20     4800.00
02716               5.00     4600.00
02717               5.00     4600.00
02718               5.00     4600.00
02719               4.60     4600.00
02720               4.40     4600.00
02721               4.60     4600.00
02722               4.60     4600.00
02723               4.60     4600.00
02724               4.60     4400.00
02725               4.40     4600.00
02726               4.20     4400.00
02727               4.40     4400.00
02728               4.20     4400.00
02729               4.20     4400.00
02730               4.40     4400.00
02731               4.20     4400.00
02732               4.00     4400.00
02733               4.20     4400.00
02734               3.60     4400.00
02735               3.60     4400.00
02736               3.80     4400.00
02737               3.60     4200.00
02738               3.60     4400.00
02739               3.80     4200.00
02740               3.80     4000.00
02741               3.00     4200.00
02742               3.80     4200.00
02743               3.80     4000.00
02744               3.80     4200.00
02745               3.40     4200.00
02746               3.40     4000.00
02747               3.40     4000.00
02748               2.80     4000.00
02749               2.80     4000.00
02750               3.40     4000.00
02751               3.00     3800.00
02752               2.60     4000.00
02753               3.20     4000.00
02754               2.80     3800.00
02755               2.20     3800.00
02756               2.80     3800.00
02757               3.00     3800.00
02758               2.60     3800.00
02759               3.00     3800.00
02760               2.60     3600.00
02761               2.00     3600.00
02762               2.40     3600.00
02763               2.20     3600.00
02764               2.20     3600.00
02765               2.60     3600.00
02766               2.60     3600.00
02767               2.60     3600.00
02768               2.60     3400.00
02769               2.00     3400.00
02770               1.80     3400.00
02771               2.00     3400.00
02772               2.00     3400.00
02773               2.00     3200.00
02774               2.80     3200.00
02775               2.00     3200.00
02776               1.60     3200.00
02777               2.60     3200.00
02778               2.00     3200.00
02779               1.40     3200.00
02780               2.00     3000.00
02781               2.40     3000.00
02782               1.80     3000.00
02783               1.80     3000.00
02784               1.80     3000.00
02785               1.80     3000.00
02786               1.40     3000.00
02787               1.80     2800.00
02788               2.00     3000.00
02789               1.40     2800.00
02790               1.40     2800.00
02791               2.00     2800.00
02792               1.80     2800.00
02793               1.40     2800.00
02794               1.40     2800.00
02795               1.40     2600.00
02796               1.60     2400.00
02797               1.40     2400.00
02798               1.20     2600.00
02799               1.80     2400.00
02800               1.40     2400.00
02801               1.00     2400.00
02802               1.80     2400.00
02803               1.80     2400.00
02804               0.60     2200.00
02805               1.40     2200.00
02806               1.40     2200.00
02807               1.00     2000.00
02808               1.00     2200.00
02809               1.20     2000.00
02810               1.00     2000.00
02811               1.00     2000.00
02812               0.80     2000.00
02813               1.00     2000.00
02814               1.00     2000.00
02815               0.40     2000.00
02816               0.40     2000.00
02817               1.80     1800.00
02818               0.40     1800.00
02819               0.40     1600.00
02820               1.40     1600.00
02821               0.20     1600.00
02822               0.20     1600.00
02823               1.40     1600.00
02824               0.60     1400.00
02825               0.00     1400.00
02826               1.00     1400.00
02827               0.60     1400.00
02828              -0.20     1200.00
02829               0.20     1400.00
02830               0.60     1200.00
02831               0.20     1000.00
02832               0.20     1200.00
02833               0.40     1000.00
02834               0.40     1000.00
02835               0.40     1000.00
02836               0.40     1000.00
02837              -0.20      800.00
02838               0.20      800.00
02839               0.20      800.00
02840              -0.40      800.00
02841               0.40      800.00
02842               0.40      800.00
02843              -0.60      600.00
02844               0.40      600.00
02845               0.20      600.00
02846              -0.60      600.00
02847               0.40      400.00
02848               0.60      400.00
02849              -0.60      400.00
02850               0.20      400.00
02851               0.40      400.00
02852              -1.00      400.00
02853              -0.20      400.00
02854               0.40      200.00
02855              -0.20      200.00
02856               0.20        0.00
02857              -0.40        0.00
02858              -0.40        0.00
02859               0.20        0.00
02860              -0.20        0.00
02861              -0.40        0.00
02862               0.40        0.00
02863               0.20     -200.00
02864              -0.60     -200.00
02865              -0.20     -200.00
02866              -0.20     -400.00
02867               0.20     -200.00
02868               9.00     -400.00
02869              14.60     -400.00
02870             -25.00     -400.00
02871             -25.00     -400.00
02872              25.00     -600.00
02873              25.00     -400.00
02874             -25.00     -800.00
02875             -25.00     -400.00
02876              25.00    -1000.00
02877              22.20     -600.00
02878             -25.00    -1000.00
02879               6.60     -800.00
02880              25.00    -1000.00
02881             -25.00     -800.00
02882             -25.00     -800.00
02883              25.00     -800.00
02884              25.00    -1200.00
02885             -25.00    -1000.00
02886             -25.00    -1200.00
02887              25.00    -1200.00
02888              17.20    -1600.00
02889             -25.00    -1000.00
02890              25.00    -1400.00
02891              25.00    -1200.00
02892             -25.00    -1600.00
02893             -25.00    -1400.00
02894              25.00    -1600.00
02895              -0.40    -1600.00
02896             -25.00    -1400.00
02897              25.00    -1800.00
02898              25.00    -1600.00
02899             -25.00    -1600.00
02900             -19.00    -1800.00
02901              25.00    -1800.00
02902             -23.60    -1600.00
02903             -25.00    -2000.00
02904              25.00    -1800.00
02905              25.00    -2000.00
02906             -25.00    -1800.00
02907              -2.20    -2000.00
02908              25.00    -2000.00
02909             -24.40    -2000.00
02910             -25.00    -2200.00
02911              25.00    -2000.00
02912              14.60    -2200.00
02913             -25.00    -2200.00
02914               7.60    -2400.00
02915              25.00    -2400.00
02916             -25.00    -2200.00
02917             -16.60    -2600.00
02918              25.00    -2400.00
02919              -8.40    -2400.00
02920             -25.00    -2600.00
02921              22.00    -2600.00
02922               7.00    -2600.00
02923             -25.00    -2400.00
02924               4.20    -2800.00
02925              14.80    -2600.00
02926             -16.40    -2800.00
02927              -6.60    -2800.00
02928              11.60    -2800.00
02929              -4.40    -2800.00
02930             -12.40    -2800.00
02931               5.20    -2800.00
02932               2.60    -2800.00
02933             -10.60    -2800.00
02934              -1.40    -3000.00
02935               5.20    -3000.00
02936              -6.80    -3000.00
02937              -6.60    -3200.00
02938               4.60    -3200.00
02939              -2.60    -3200.00
02940              -8.60    -3200.00
02941               1.00    -3200.00
02942               2.00    -3200.00
02943              -8.20    -3200.00
02944              -3.00    -3400.00
02945               2.40    -3400.00
02946              -5.00    -3400.00
02947              -6.80    -3400.00
02948               1.80    -3600.00
02949              -1.40    -3600.00
02950              -7.40    -3400.00
02951              -2.00    -3600.00
02952               0.60    -3600.00
02953              -6.00    -3600.00
02954              -4.80    -3600.00
02955              -0.20    -3600.00
02956              -3.00    -3600.00
02957              -5.80    -3800.00
02958              -1.80    -3600.00
02959              -1.60    -3600.00
02960              -5.20    -3800.00
02961              -3.80    -4000.00
02962              -1.60    -4000.00
02963              -3.80    -3800.00
02964              -4.60    -4000.00
02965              -2.60    -4000.00
02966              -3.60    -4000.00
02967              -4.20    -4000.00
02968              -3.60    -4000.00
02969              -3.60    -4000.00
02970              -4.40    -4000.00
02971              -3.80    -4200.00
02972              -3.20    -4000.00
02973              -4.40    -4200.00
02974              -4.40    -4200.00
02975              -3.00    -4200.00
02976              -4.40    -4200.00
02977              -4.80    -4200.00
02978              -3.60    -4200.00
02979              -4.00    -4400.00
02980              -5.20    -4400.00
02981              -4.20    -4200.00
02982              -3.80    -4200.00
02983              -4.60    -4400.00
02984              -5.00    -4200.00
02985              -4.20    -4200.00
02986              -4.20    -4400.00
02987              -5.20    -4400.00
02988              -4.60    -4400.00
02989              -4.40    -4400.00
02990              -5.20    -4400.00
02991              -5.20    -4400.00
02992              -4.60    -4600.00
02993              -5.20    -4600.00
02994              -5.40    -4600.00
02995              -5.00    -4600.00
02996              -5.00    -4400.00
02997              -5.80    -4600.00
02998              -5.40    -4600.00
02999              -5.20    -4600.00
03000              -5.60    -4600.00
03001              -5.80    -4800.00
03002              -5.20    -4600.00
03003              -5.80    -4600.00
03004              -6.20    -4800.00
03005              -5.80    -4600.00
03006              -5.80    -4800.00
03007              -6.60    -4800.00
03008              -6.00    -4800.00
03009              -5.80    -4600.00
03010              -6.80    -4800.00
03011              -7.20    -4600.00
03012              -6.60    -4800.00
03013              -6.00    -4800.00
03014              -7.00    -5000.00
03015              -7.60    -5000.00
03016              -6.20    -5000.00
03017              -7.20    -5000.00
03018              -7.80    -5000.00
03019              -6.60    -5000.00
03020              -7.00    -5000.00
03021              -7.80    -5000.00
03022              -7.00    -5000.00
03023              -7.40    -4800.00
03024              -7.80    -5000.00
03025              -8.40    -4800.00
03026              -7.80    -5000.00
03027              -7.00    -5000.00
03028              -8.60    -5000.00
03029              -8.40    -5000.00
03030              -7.40    -5000.00
03031              -8.20    -5000.00
03032              -9.20    -5000.00
03033              -7.60    -5000.00
03034              -8.20    -5000.00
03035              -9.40    -5000.00
03036              -8.20    -5000.00
03037              -8.20    -5000.00
03038              -9.40    -4800.00
03039              -8.40    -5000.00
03040              -8.00    -5000.00
03041              -9.40    -5000.00
03042              -8.60    -5000.00
03043              -8.40    -5000.00
03044              -9.40    -5000.00
03045              -9.40    -5000.00
03046              -8.20    -5000.00
03047              -9.20    -5000.00
03048              -9.20    -5000.00
03049              -8.60    -5000.00
03050              -8.60    -5000.00
03051              -9.20    -5000.00
03052              -9.40    -4800.00
03053              -8.40    -5000.00
03054              -8.60    -5000.00
03055              -9.00    -5000.00
03056              -8.40    -5000.00
03057              -8.20    -5000.00
03058              -8.60    -5000.00
03059              -8.20    -5000.00
03060              -7.80    -5000.00
03061              -7.80    -5000.00
03062              -7.80    -5000.00
03063              -7.60    -4800.00
03064              -7.60    -5000.00
03065              -7.40    -5000.00
03066              -7.20    -5000.00
03067              -7.60    -5000.00
03068              -7.00    -5000.00
03069              -7.00    -4600.00
03070              -7.00    -4600.00
03071              -6.60    -4800.00
03072              -6.80    -4600.00
03073              -6.60    -5000.00
03074              -7.00    -4800.00
03075              -6.60    -4600.00
03076              -6.60    -4800.00
03077              -6.20    -4600.00
03078              -6.20    -4800.00
03079              -6.40    -4600.00
03080              -6.00    -4600.00
03081              -6.00    -4600.00
03082              -6.40    -4800.00
03083              -6.00    -4600.00
03084              -5.40    -4600.00
03085              -6.00    -4600.00
03086              -6.00    -4600.00
03087              -5.20    -4600.00
03088              -5.80    -4800.00
03089              -6.20    -4600.00
03090              -5.20    -4600.00
03091              -5.20    -4600.00
03092              -5.80    -4600.00
03093              -5.00    -4600.00
03094              -4.80    -4600.00
03095              -5.40    -4600.00
03096              -5.20    -4600.00
03097              -4.60    -4400.00
03098              -5.20    -4600.00
03099              -5.00    -4400.00
03100              -4.60    -4400.00
03101              -5.00    -4400.00
03102              -5.00    -4400.00
03103              -4.40    -4400.00
03104              -4.60    -4400.00
03105              -4.60    -4400.00
03106              -3.80    -4400.00
03107              -4.20    -4400.00
03108              -4.40    -4400.00
03109              -4.20    -4200.00
03110              -4.20    -4200.00
03111              -4.40    -4400.00
03112              -4.20    -4200.00
03113              -3.80    -4200.00
03114              -3.80    -4200.00
03115              -3.80    -4200.00
03116              -3.80    -4200.00
03117              -3.40    -4200.00
03118              -3.80    -4200.00
03119              -3.80    -4000.00
03120              -3.40    -4000.00
03121              -3.60    -4000.00
03122              -3.80    -4000.00
03123              -3.40    -4000.00
03124              -3.00    -4000.00
03125              -3.60    -4000.00
03126              -3.40    -4000.00
03127              -3.00    -3600.00
03128              -2.80    -3800.00
03129              -3.00    -4000.00
03130              -3.20    -3800.00
03131              -2.80    -3600.00
03132              -2.80    -3600.00
03133              -3.40    -3600.00
03134              -2.80    -3600.00
03135              -2.80    -3600.00
03136              -3.00    -3600.00
03137              -2.80    -3600.00
03138              -2.20    -3600.00
03139              -3.00    -3600.00
03140              -2.80    -3600.00
03141              -2.60    -3400.00
03142              -3.00    -3400.00
03143              -2.80    -3200.00
03144              -2.60    -3400.00
03145              -2.80    -3400.00
03146              -2.80    -3400.00
03147              -2.60    -3400.00
03148              -2.80    -3200.00
03149              -2.80    -3200.00
03150              -2.20    -3200.00
03151              -2.60    -3200.00
03152              -2.80    -3200.00
03153              -2.20    -3000.00
03154              -2.20    -3000.00
03155              -2.60    -3000.00
03156              -2.20    -3000.00
03157              -2.20    -2800.00
03158              -2.20    -3000.00
03159              -2.20    -2800.00
03160              -1.80    -2800.00
03161              -2.00    -2800.00
03162              -2.20    -2600.00
03163              -2.20    -2800.00
03164              -2.00    -2600.00
03165              -2.20    -2600.00
03166              -1.80    -2600.00
03167              -1.80    -2600.00
03168              -2.00    -2600.00
03169              -2.00    -2400.00
03170              -1.40    -2600.00
03171              -1.80    -2400.00
03172              -2.00    -2400.00
03173              -1.20    -2400.00
03174              -1.60    -2400.00
03175              -2.00    -2200.00
03176              -1.40    -2400.00
03177              -1.20    -2200.00
03178              -1.80    -2400.00
03179              -1.80    -2200.00
03180              -1.00    -2200.00
03181              -1.60    -2000.00
03182              -1.80    -2000.00
03183              -1.20    -2000.00
03184              -1.00    -2000.00
03185              -1.40    -1800.00
03186              -1.20    -2000.00
03187              -1.00    -1800.00
03188              -1.20    -1800.00
03189              -1.80    -1800.00
03190              -1.00    -1800.00
03191              -0.60    -1800.00
03192              -1.20    -1600.00
03193              -1.20    -1600.00
03194              -0.60    -1600.00
03195              -1.20    -1600.00
03196              -1.40    -1600.00
03197              -1.00    -1600.00
03198              -0.80    -1600.00
03199              -1.40    -1200.00
03200              -0.60    -1400.00
03201              -1.00    -1200.00
03202              -1.00    -1200.00
03203              -0.80    -1200.00
03204              -0.60    -1000.00
03205              -1.00    -1000.00
03206              -1.00    -1200.00
03207              -0.40    -1000.00
03208              -1.40    -1000.00
03209              -1.40    -1000.00
03210              -0.40     -800.00
03211              -0.60    -1000.00
03212              -2.00     -800.00
03213              -0.60     -800.00
03214              -0.40     -800.00
03215              -0.60     -800.00
03216              -1.40     -600.00
03217              -0.40     -600.00
03218              -0.60     -600.00
03219              -1.20     -400.00
03220              -0.60     -400.00
03221               0.00     -400.00
03222              -0.80     -400.00
03223              -1.00     -400.00
03224              -0.40     -400.00
03225              -0.20     -200.00
03226              -1.00     -200.00
03227              -1.00     -200.00
03228               0.40     -200.00
03229              -1.00     -200.00
03230              -0.60     -200.00
03231               0.60        0.00
03232              -0.80        0.00
03233              -0.80        0.00
03234               1.00        0.00
03235               0.20        0.00
03236              -0.60        0.00
03237              -0.20      400.00
03238               0.40      400.00
03239               0.60      400.00
03240               3.00      400.00
03241              12.20      600.00
03242              -9.40      600.00
03243             -25.00      400.00
03244              17.40      600.00
03245              25.00      600.00
03246             -25.00      800.00
03247             -25.00      600.00
03248              25.00      600.00
03249              25.00      800.00
03250             -25.00      800.00
03251             -25.00      800.00
03252              25.00     1000.00
03253              25.00      800.00
03254             -25.00     1200.00
03255              15.00      800.00
03256              25.00     1400.00
03257             -25.00     1000.00
03258             -25.00     1200.00
03259              25.00     1200.00
03260              25.00     1200.00
03261             -25.00     1400.00
03262              17.00     1200.00
03263              25.00     1600.00
03264             -25.00     1200.00
03265             -25.00     1800.00
03266              25.00     1200.00
03267              17.20     1600.00
03268             -25.00     1400.00
03269              25.00     1800.00
03270              25.00     1400.00
03271             -25.00     2000.00
03272             -24.20     1600.00
03273              25.00     1800.00
03274              -7.80     1800.00
03275             -25.00     2000.00
03276              25.00     1800.00
03277              25.00     2000.00
03278             -25.00     2000.00
03279              -2.00     2000.00
03280              25.00     2000.00
03281             -17.60     2200.00
03282             -25.00     2200.00
03283              25.00     2000.00
03284              15.00     2200.00
03285             -25.00     2200.00
03286               9.20     2200.00
03287              25.00     2200.00
03288             -18.60     2600.00
03289             -11.80     2200.00
03290              25.00     2400.00
03291              -5.40     2400.00
03292             -17.40     2600.00
03293              17.40     2400.00
03294               9.00     2600.00
03295             -18.20     2600.00
03296               7.40     2400.00
03297              14.60     2800.00
03298             -10.60     2800.00
03299              -2.60     2800.00
03300              13.80     2800.00
03301              -1.40     2800.00
03302              -7.00     2800.00
03303               9.00     2800.00
03304               4.40     2800.00
03305              -5.40     3000.00
03306               2.00     3000.00
03307               8.80     3000.00
03308              -3.00     3000.00
03309              -0.60     3200.00
03310               6.80     3200.00
03311               3.00     3000.00
03312              -3.80     3200.00
03313               5.20     3200.00
03314               5.20     3200.00
03315              -1.60     3200.00
03316               0.60     3200.00
03317               6.60     3400.00
03318               0.80     3400.00
03319              -0.60     3400.00
03320               5.00     3400.00
03321               3.60     3600.00
03322              -0.40     3600.00
03323               3.00     3400.00
03324               4.60     3600.00
03325               0.80     3600.00
03326               2.00     3600.00
03327               4.00     3600.00
03328               3.00     3600.00
03329               1.00     3800.00
03330               3.80     3600.00
03331               3.60     3800.00
03332               2.60     3800.00
03333               2.60     3800.00
03334               3.60     4000.00
03335               2.60     3600.00
03336               3.60     4000.00
03337               2.60     3800.00
03338               2.60     4000.00
03339               3.40     4000.00
03340               3.60     4000.00
03341               2.20     4000.00
03342               3.60     4000.00
03343               3.60     4000.00
03344               3.40     4200.00
03345               3.00     4000.00
03346               3.40     4200.00
03347               3.60     4000.00
03348               3.40     4400.00
03349               3.00     4200.00
03350               3.80     4400.00
03351               4.00     4200.00
03352               3.00     4400.00
03353               3.80     4400.00
03354               4.20     4200.00
03355               3.80     4400.00
03356               3.60     4400.00
03357               4.40     4400.00
03358               3.80     4400.00
03359               4.20     4400.00
03360               4.20     4400.00
03361               4.20     4600.00
03362               4.20     4600.00
03363               5.00     4600.00
03364               4.20     4400.00
03365               4.60     4400.00
03366               4.60     4600.00
03367               4.60     4600.00
03368               4.40     4600.00
03369               5.00     4600.00
03370               5.40     4600.00
03371               5.00     4600.00
03372               4.60     4600.00
03373               5.60     4600.00
03374               5.80     4600.00
03375               5.20     4800.00
03376               5.20     4800.00
03377               5.80     4800.00
03378               5.80     4800.00
03379               5.40     4800.00
03380               5.80     4800.00
03381               5.80     4800.00
03382               6.00     4800.00
03383               5.80     4800.00
03384               6.20     4800.00
03385               6.60     4600.00
03386               6.20     4800.00
03387               6.60     4800.00
03388               6.60     4800.00
03389               6.20     5000.00
03390               6.80     4800.00
03391               7.00     4800.00
03392               6.20     4800.00
03393               6.80     4800.00
03394               6.80     4800.00
03395               7.00     4800.00
03396               6.80     5200.00
03397               7.40     5000.00
03398               7.00     5000.00
03399               7.40     4800.00
03400               7.40     4800.00
03401               7.20     4800.00
03402               7.60     4800.00
03403               7.80     4800.00
03404               7.20     5000.00
03405               8.20     4800.00
03406               8.40     4800.00
03407               7.00     5000.00
03408               8.00     4800.00
03409               9.00     5000.00
03410               7.60     4800.00
03411               7.40     5000.00
03412               9.20     4800.00
03413               8.40     5200.00
03414               7.40     4800.00
03415               8.60     5000.00
03416               8.80     5000.00
03417               8.20     4800.00
03418               8.40     5000.00
03419               9.00     4800.00
03420               8.40     4800.00
03421               8.20     4800.00
03422               8.60     5200.00
03423               8.40     5000.00
03424               7.80     5000.00
03425               8.20     5200.00
03426               8.20     5000.00
03427               7.80     5000.00
03428               7.80     5000.00
03429               8.20     5000.00
03430               7.60     4800.00
03431               7.40     4800.00
03432               7.60     4800.00
03433               7.40     5000.00
03434               7.20     5000.00
03435               7.20     5000.00
03436               7.00     5000.00
03437               6.80     4800.00
03438               6.80     4800.00
03439               7.00     4800.00
03440               6.60     4800.00
03441               6.20     4800.00
03442               6.40     4800.00
03443               6.60     4800.00
03444               6.20     4800.00
03445               6.20     4800.00
03446               6.20     4800.00
03447               6.00     4800.00
03448               6.00     4800.00
03449               6.00     4800.00
03450               6.00     4800.00
03451               5.40     4800.00
03452               5.40     4600.00
03453               5.60     4600.00
03454               5.40     4600.00
03455               5.40     4800.00
03456               5.40     4600.00
03457               5.20     4800.00
03458               5.00     4600.00
03459               5.20     4600.00
03460               5.20     4600.00
03461               5.00     4600.00
03462               4.80     4600.00
03463               4.60     4600.00
03464               5.20     4600.00
03465               4.40     4400.00
03466               4.40     4600.00
03467               5.00     4400.00
03468               4.40     4400.00
03469               4.00     4600.00
03470               4.40     4400.00
03471               4.20     4400.00
03472               3.60     4400.00
03473               4.20     4400.00
03474               4.20     4400.00
03475               3.80     4400.00
03476               3.80     4400.00
03477               4.40     4400.00
03478               3.60     4400.00
03479               3.40     4400.00
03480               4.20     4400.00
03481               3.40     4400.00
03482               3.40     4200.00
03483               4.20     4200.00
03484               3.60     4200.00
03485               3.00     4000.00
03486               3.60     4000.00
03487               3.60     4200.00
03488               2.80     4000.00
03489               3.40     4000.00
03490               3.40     4000.00
03491               3.40     4000.00
03492               2.80     4000.00
03493               3.20     4000.00
03494               3.00     4000.00
03495               3.00     3800.00
03496               2.80     3800.00
03497               3.40     3800.00
03498               2.80     3800.00
03499               2.60     3800.00
03500               3.00     3800.00
03501               2.60     3800.00
03502               2.60     3800.00
03503               2.60     3800.00
03504               2.80     3800.00
03505               2.60     3800.00
03506               2.60     3600.00
03507               2.60     3600.00
03508               2.60     3600.00
03509               2.60     3600.00
03510               2.60     3400.00
03511               2.60     3600.00
03512               2.20     3400.00
03513               2.20     3400.00
03514               2.60     3400.00
03515               2.60     3400.00
03516               2.00     3200.00
03517               2.20     3200.00
03518               2.20     3200.00
03519               2.00     3200.00
03520               2.00     3200.00
03521               2.20     3200.00
03522               2.00     3200.00
03523               2.00     3000.00
03524               2.00     3000.00
03525               2.00     3000.00
03526               2.00     3000.00
03527               2.00     3000.00
03528               1.80     3000.00
03529               1.60     3000.00
03530               1.80     2800.00
03531               2.00     2800.00
03532               1.20     2800.00
03533               1.40     2800.00
03534               1.80     2800.00
03535               1.40     2400.00
03536               1.20     2800.00
03537               1.40     2600.00
03538               1.40     2600.00
03539               1.20     2600.00
03540               1.20     2600.00
03541               1.40     2600.00
03542               1.00     2400.00
03543               1.20     2400.00
03544               1.40     2400.00
03545               1.20     2400.00
03546               0.80     2400.00
03547               1.00     2200.00
03548               1.00     2200.00
03549               1.00     2200.00
03550               1.00     2200.00
03551               1.00     2000.00
03552               1.00     2000.00
03553               0.60     2000.00
03554               1.00     2000.00
03555               0.80     2000.00
03556               0.80     2000.00
03557               1.00     1800.00
03558               1.00     1800.00
03559               0.40     1800.00
03560               0.60     1800.00
03561               1.00     1800.00
03562               0.40     1600.00
03563               0.60     1600.00
03564               0.60     1400.00
03565               0.60     1800.00
03566               0.40     1400.00
03567               0.60     1600.00
03568               0.40     1800.00
03569               0.60     1400.00
03570               0.40     1400.00
03571               0.40     1400.00
03572               0.40     1200.00
03573               0.60     1200.00
03574               0.40     1200.00
03575               0.40     1200.00
03576               0.40     1000.00
03577               0.40     1200.00
03578               0.40     1000.00
03579               0.20      800.00
03580               0.40      800.00
03581               0.40      800.00
03582               0.20      800.00
03583               0.20      800.00
03584               0.40      800.00
03585               0.00      600.00
03586               0.20      800.00
03587               0.20      600.00
03588               0.20      600.00
03589               0.20      600.00
03590               0.20      400.00
03591               0.20      400.00
03592               0.20      400.00
03593              -0.20      200.00
03594               0.20      400.00
03595              -0.20      400.00
03596              -0.20      400.00
03597              -0.20      400.00
03598              -0.40      200.00
03599              -0.20      200.00
03600              -0.40      200.00
03601              -0.80        0.00
03602               0.40        0.00
03603              -0.20        0.00
03604              -1.20        0.00
03605               0.40     -200.00
03606               0.20     -200.00
03607              -1.40     -400.00
03608               0.20     -200.00
03609               0.20     -200.00
03610              -1.20     -200.00
03611               5.20     -400.00
03612              17.20     -400.00
03613             -19.40     -600.00
03614             -25.00     -200.00
03615              25.00     -600.00
03616              25.00     -400.00
03617             -25.00     -800.00
03618             -25.00     -400.00
03619              25.00     -800.00
03620              25.00     -600.00
03621             -25.00    -1000.00
03622             -25.00     -600.00
03623              25.00    -1000.00
03624              17.00    -1000.00
03625             -25.00    -1000.00
03626              25.00     -800.00
03627              25.00    -1000.00
03628             -25.00    -1000.00
03629             -25.00    -1000.00
03630              25.00    -1200.00
03631              25.00    -1200.00
03632             -25.00    -1200.00
03633              17.80    -1000.00
03634              25.00    -1400.00
03635             -25.00    -1200.00
03636             -25.00    -1400.00
03637              25.00    -1600.00
03638              25.00    -1600.00
03639             -25.00    -1600.00
03640              21.00    -1800.00
03641              25.00    -1600.00
03642             -25.00    -1800.00
03643             -25.00    -1600.00
03644              25.00    -2000.00
03645              14.40    -1800.00
03646             -25.00    -2000.00
03647              25.00    -2000.00
03648              25.00    -1800.00
03649             -25.00    -1800.00
03650             -25.00    -2000.00
03651              25.00    -2000.00
03652              -1.80    -2000.00
03653             -25.00    -2000.00
03654              22.00    -2000.00
03655              25.00    -2200.00
03656             -25.00    -2000.00
03657             -12.80    -2400.00
03658              25.00    -2400.00
03659             -16.20    -2400.00
03660             -25.00    -2400.00
03661              25.00    -2600.00
03662               8.40    -2400.00
03663             -25.00    -2400.00
03664              10.60    -2600.00
03665              17.20    -2600.00
03666             -22.60    -2600.00
03667              -5.80    -2600.00
03668              17.20    -2600.00
03669             -10.20    -2800.00
03670             -12.40    -2800.00
03671               9.20    -2800.00
03672               0.40    -2800.00
03673             -12.40    -2800.00
03674               0.40    -2800.00
03675               5.40    -2800.00
03676              -8.40    -3000.00
03677              -5.80    -3200.00
03678               4.60    -3200.00
03679              -2.40    -3000.00
03680              -9.00    -2800.00
03681               2.00    -3200.00
03682               0.60    -3200.00
03683              -8.40    -3200.00
03684              -3.20    -3200.00
03685               3.40    -3400.00
03686              -5.80    -3200.00
03687              -6.00    -3400.00
03688               1.60    -3400.00
03689              -1.60    -3400.00
03690              -7.60    -3200.00
03691              -0.60    -3400.00
03692               0.60    -3600.00
03693              -6.20    -3400.00
03694              -4.20    -3600.00
03695               1.40    -3400.00
03696              -3.80    -3600.00
03697              -6.20    -3600.00
03698              -0.60    -3600.00
03699              -1.40    -3600.00
03700              -5.80    -3800.00
03701              -3.20    -3600.00
03702              -0.60    -3600.00
03703              -4.60    -3800.00
03704              -4.80    -4000.00
03705              -1.80    -3800.00
03706              -2.60    -4000.00
03707              -4.60    -3800.00
03708              -3.00    -4000.00
03709              -2.60    -4000.00
03710              -4.20    -4000.00
03711              -3.80    -4200.00
03712              -2.80    -4000.00
03713              -4.00    -4000.00
03714              -3.80    -4200.00
03715              -3.60    -4200.00
03716              -4.20    -4200.00
03717              -4.40    -4200.00
03718              -3.40    -4200.00
03719              -4.00    -4200.00
03720              -4.40    -4200.00
03721              -3.80    -4200.00
03722              -3.80    -4400.00
03723              -4.60    -4200.00
03724              -4.40    -4200.00
03725              -3.60    -4400.00
03726              -4.60    -4400.00
03727              -5.00    -4400.00
03728              -4.40    -4400.00
03729              -4.20    -4600.00
03730              -5.40    -4400.00
03731              -5.00    -4400.00
03732              -4.60    -4400.00
03733              -4.60    -4400.00
03734              -5.80    -4600.00
03735              -4.60    -4600.00
03736              -5.00    -4600.00
03737              -5.80    -4600.00
03738              -5.80    -4600.00
03739              -4.60    -4600.00
03740              -5.80    -4600.00
03741              -6.00    -4600.00
03742              -5.20    -4600.00
03743              -5.40    -4600.00
03744              -6.20    -4600.00
03745              -5.40    -4800.00
03746              -5.60    -4600.00
03747              -6.60    -4800.00
03748              -6.40    -4600.00
03749              -5.40    -4600.00
03750              -6.80    -4600.00
03751              -6.60    -4800.00
03752              -5.80    -4800.00
03753              -6.40    -4600.00
03754              -7.00    -4800.00
03755              -6.40    -4800.00
03756              -6.00    -4600.00
03757              -6.20    -5000.00
03758              -7.40    -4800.00
03759              -6.80    -4800.00
03760              -6.60    -4600.00
03761              -7.40    -4800.00
03762              -7.00    -5000.00
03763              -7.60    -4800.00
03764              -7.40    -5000.00
03765              -6.80    -5000.00
03766              -7.20    -4600.00
03767              -7.40    -5000.00
03768              -8.00    -5000.00
03769              -7.60    -4800.00
03770              -7.60    -5000.00
03771              -7.80    -5000.00
03772              -8.00    -5000.00
03773              -7.80    -4800.00
03774              -7.40    -5000.00
03775              -8.20    -5000.00
03776              -8.80    -4800.00
03777              -7.40    -5000.00
03778              -8.40    -5000.00
03779              -9.20    -5000.00
03780              -8.20    -5000.00
03781              -8.20    -5000.00
03782              -9.20    -4800.00
03783              -8.60    -5000.00
03784              -8.60    -5000.00
03785              -9.00    -5000.00
03786              -9.00    -5000.00
03787              -8.40    -5000.00
03788              -9.20    -4600.00
03789              -9.20    -5000.00
03790              -8.60    -5000.00
03791              -8.60    -4800.00
03792              -9.80    -5000.00
03793              -9.20    -5000.00
03794              -8.60    -5000.00
03795              -9.40    -5000.00
03796              -9.40    -5000.00
03797              -9.00    -5000.00
03798              -8.40    -4800.00
03799              -9.00    -5000.00
03800              -8.60    -5000.00
03801              -7.80    -5000.00
03802              -8.40    -5000.00
03803              -8.60    -4600.00
03804              -7.60    -5000.00
03805              -7.00    -5000.00
03806              -8.80    -5000.00
03807              -8.20    -4800.00
03808              -6.40    -4600.00
03809              -8.40    -5000.00
03810              -8.20    -4600.00
03811              -5.80    -5000.00
03812              -7.80    -4600.00
03813              -8.00    -5000.00
03814              -6.00    -4800.00
03815              -7.00    -4600.00
03816              -8.00    -4800.00
03817              -5.80    -4800.00
03818              -6.00    -4600.00
03819              -7.60    -4800.00
03820              -6.00    -4600.00
03821              -5.40    -4800.00
03822              -7.00    -4600.00
03823              -6.20    -4800.00
03824              -5.40    -4600.00
03825              -6.60    -4800.00
03826              -6.20    -4800.00
03827              -5.40    -4600.00
03828              -6.00    -4600.00
03829              -6.00    -4800.00
03830              -5.40    -4600.00
03831              -5.20    -4600.00
03832              -5.20    -4800.00
03833              -5.40    -4600.00
03834              -4.80    -4600.00
03835              -5.00    -4400.00
03836              -5.40    -4600.00
03837              -5.00    -4400.00
03838              -4.40    -4600.00
03839              -5.40    -4600.00
03840              -5.00    -4600.00
03841              -4.20    -4400.00
03842              -5.00    -4600.00
03843              -5.40    -4400.00
03844              -3.80    -4400.00
03845              -3.80    -4400.00
03846              -5.20    -4400.00
03847              -4.20    -4400.00
03848              -3.80    -4400.00
03849              -4.60    -4400.00
03850              -4.20    -4200.00
03851              -3.80    -4400.00
03852              -4.20    -4400.00
03853              -3.80    -4400.00
03854              -3.80    -4400.00
03855              -4.40    -4200.00
03856              -4.00    -4200.00
03857              -3.60    -4000.00
03858              -4.20    -4200.00
03859              -4.20    -4200.00
03860              -3.60    -4000.00
03861              -3.80    -4000.00
03862              -3.80    -4200.00
03863              -3.60    -4000.00
03864              -3.80    -4000.00
03865              -3.60    -4000.00
03866              -3.60    -4000.00
03867              -3.40    -4000.00
03868              -3.80    -4000.00
03869              -3.20    -4000.00
03870              -3.20    -3800.00
03871              -3.80    -4000.00
03872              -3.40    -3800.00
03873              -3.40    -3800.00
03874              -3.60    -3800.00
03875              -3.20    -3600.00
03876              -3.00    -3800.00
03877              -3.40    -3600.00
03878              -3.00    -3600.00
03879              -2.60    -3600.00
03880              -3.40    -3600.00
03881              -3.00    -3600.00
03882              -2.60    -3600.00
03883              -3.00    -3600.00
03884              -3.00    -3400.00
03885              -2.80    -3600.00
03886              -2.60    -3400.00
03887              -2.80    -3400.00
03888              -2.80    -3400.00
03889              -2.60    -3400.00
03890              -2.20    -3200.00
03891              -2.60    -3200.00
03892              -2.80    -3200.00
03893              -2.20    -3200.00
03894              -2.20    -3200.00
03895              -2.20    -3200.00
03896              -2.20    -3200.00
03897              -2.20    -3200.00
03898              -2.00    -3000.00
03899              -2.20    -3000.00
03900              -2.20    -2800.00
03901              -2.60    -3000.00
03902              -2.00    -2800.00
03903              -1.80    -2800.00
03904              -2.20    -2600.00
03905              -2.20    -2800.00
03906              -1.80    -2800.00
03907              -2.20    -2800.00
03908              -2.20    -2600.00
03909              -1.80    -2800.00
03910              -2.00    -2600.00
03911              -1.80    -2600.00
03912              -1.80    -2600.00
03913              -2.00    -2600.00
03914              -2.20    -2400.00
03915              -1.00    -2400.00
03916              -1.80    -2400.00
03917              -2.20    -2400.00
03918              -1.20    -2400.00
03919              -1.80    -2200.00
03920              -2.20    -2400.00
03921              -1.40    -2200.00
03922              -1.40    -2200.00
03923              -2.00    -2000.00
03924              -1.20    -2000.00
03925              -1.40    -2000.00
03926              -1.80    -2000.00
03927              -1.40    -2000.00
03928              -1.20    -2000.00
03929              -1.40    -1800.00
03930              -2.00    -1800.00
03931              -1.00    -1800.00
03932              -1.20    -1800.00
03933              -1.80    -1800.00
03934              -1.20    -1800.00
03935              -1.20    -1600.00
03936              -1.80    -1600.00
03937              -1.20    -1600.00
03938              -1.00    -1600.00
03939              -1.60    -1400.00
03940              -1.20    -1600.00
03941              -0.80    -1200.00
03942              -1.40    -1200.00
03943              -1.40    -1200.00
03944              -0.60    -1200.00
03945              -1.00    -1200.00
03946              -1.40    -1200.00
03947              -0.60    -1200.00
03948              -0.60    -1000.00
03949              -1.40    -1000.00
03950              -1.20    -1000.00
03951              -0.40    -1000.00
03952              -1.00     -800.00
03953              -1.00     -800.00
03954              -0.20    -1000.00
03955              -1.00     -800.00
03956              -1.00     -800.00
03957              -0.40     -800.00
03958              -0.60     -600.00
03959              -1.20     -600.00
03960              -0.60     -600.00
03961              -0.20     -600.00
03962              -1.00     -600.00
03963              -0.60     -400.00
03964              -0.40     -400.00
03965              -0.60     -400.00
03966              -0.60     -400.00
03967              -0.60     -400.00
03968              -0.40     -400.00
03969              -0.20     -200.00
03970               0.00     -200.00
03971              -1.00     -200.00
03972              -0.40     -200.00
03973               0.40        0.00
03974              -0.40        0.00
03975              -0.20        0.00
03976               0.40        0.00
03977              -0.60        0.00
03978               0.20        0.00
03979               1.20      400.00
03980              -0.60      200.00
03981              -0.40      200.00
03982               1.40      400.00
03983               1.80      400.00
03984              10.60      600.00
03985              -2.20      600.00
03986             -25.00      200.00
03987              -2.80      400.00
03988              25.00      600.00
03989              -2.60      600.00
03990             -25.00      600.00
03991              19.60      400.00
03992              25.00     1200.00
03993             -25.00      400.00
03994             -25.00     1000.00
03995              25.00      600.00
03996              25.00     1200.00
03997             -25.00      600.00
03998             -18.60     1200.00
03999              25.00      800.00
04000               3.60     1200.00
04001             -25.00     1000.00
04002              25.00     1400.00
04003              25.00     1200.00
04004             -25.00     1400.00
04005             -20.60     1200.00
04006              25.00     1600.00
04007             -24.00     1200.00
04008             -25.00     1600.00
04009              25.00     1200.00
04010              25.00     1800.00
04011             -25.00     1400.00
04012               0.20     1800.00
04013              25.00     1600.00
04014             -25.00     1800.00
04015             -25.00     1800.00
04016              25.00     1800.00
04017              18.60     1800.00
04018             -25.00     1800.00
04019              18.00     2000.00
04020              25.00     1800.00
04021             -25.00     2200.00
04022             -20.20     2000.00
04023              25.00     2000.00
04024              -1.40     2000.00
04025             -25.00     2200.00
04026              17.80     2000.00
04027              25.00     2200.00
04028             -25.00     2200.00
04029              -4.60     2200.00
04030              25.00     2200.00
04031              -9.00     2400.00
04032             -19.80     2400.00
04033              24.60     2400.00
04034               6.40     2400.00
04035             -22.00     2400.00
04036              11.00     2400.00
04037              15.80     2600.00
04038             -16.40     2600.00
04039               0.40     2600.00
04040              19.00     2800.00
04041              -8.20     2800.00
04042              -7.40     2800.00
04043              12.80     2800.00
04044               3.80     2800.00
04045              -9.20     2800.00
04046               6.80     2800.00
04047               7.40     3000.00
04048              -4.00     3000.00
04049              -1.20     3000.00
04050               9.20     3000.00
04051              -0.60     3200.00
04052              -2.60     3200.00
04053               5.80     3000.00
04054               5.00     3000.00
04055              -3.80     3000.00
04056               2.00     3200.00
04057               6.00     3200.00
04058               0.20     3200.00
04059              -1.00     3200.00
04060               5.80     3600.00
04061               3.40     3400.00
04062              -2.20     3400.00
04063               3.60     3400.00
04064               5.60     3600.00
04065              -1.20     3600.00
04066               0.80     3600.00
04067               7.00     3600.00
04068               1.00     3600.00
04069              -0.40     3600.00
04070               4.40     3800.00
04071               3.80     3600.00
04072              -0.40     3600.00
04073               3.40     3800.00
04074               4.20     3800.00
04075               1.80     3800.00
04076               1.20     3800.00
04077               4.60     3800.00
04078               3.00     3800.00
04079               1.40     3800.00
04080               3.00     4000.00
04081               6.00     4000.00
04082               0.60     3800.00
04083               2.00     4000.00
04084               6.20     4000.00
04085               2.20     4000.00
04086               1.80     4000.00
04087               4.20     4200.00
04088               4.40     4000.00
04089               2.00     4200.00
04090               3.60     4200.00
04091               4.60     4000.00
04092               3.60     4000.00
04093               2.60     4200.00
04094               4.20     4200.00
04095               4.40     4400.00
04096               3.00     4400.00
04097               3.20     4400.00
04098               6.20     4400.00
04099               3.40     4400.00
04100               2.80     4200.00
04101               5.20     4400.00
04102               4.60     4400.00
04103               2.60     4400.00
04104               5.40     4400.00
04105               5.80     4600.00
04106               3.40     4600.00
04107               4.60     4600.00
04108               5.80     4600.00
04109               3.60     4400.00
04110               4.20     4600.00
04111               6.80     4600.00
04112               4.40     4400.00
04113               4.60     4600.00
04114               6.00     4600.00
04115               5.00     4600.00
04116               4.20     4600.00
04117               6.60     4800.00
04118               5.60     4600.00
04119               4.40     4600.00
04120               5.60     4800.00
04121               5.80     4600.00
04122               5.00     4800.00
04123               5.80     4800.00
04124               6.00     4800.00
04125               5.80     4800.00
04126               6.00     4800.00
04127               6.00     4600.00
04128               6.20     4800.00
04129               6.00     4800.00
04130               6.00     4800.00
04131               6.20     4600.00
04132               6.20     4800.00
04133               6.60     4800.00
04134               6.80     4800.00
04135               5.80     4800.00
04136               7.40     5000.00
04137               6.80     4800.00
04138               6.20     4800.00
04139               7.40     5000.00
04140               7.60     4800.00
04141               6.60     5200.00
04142               7.40     5000.00
04143               7.60     5000.00
04144               7.00     4800.00
04145               7.40     5200.00
04146               8.00     5000.00
04147               7.80     4800.00
04148               7.40     5000.00
04149               8.20     4800.00
04150               8.20     5200.00
04151               7.40     5200.00
04152               8.20     5000.00
04153               8.40     5200.00
04154               7.80     5200.00
04155               8.40     5200.00
04156               9.00     5000.00
04157               8.20     5000.00
04158               8.20     5000.00
04159               9.00     5000.00
04160               9.00     5200.00
04161               8.20     5000.00
04162               8.20     5000.00
04163               9.20     5000.00
04164               8.60     5000.00
04165               7.80     5000.00
04166               9.00     5200.00
04167               8.60     5000.00
04168               7.40     4800.00
04169               8.40     5000.00
04170               8.60     5200.00
04171               7.80     5000.00
04172               7.60     5000.00
04173               8.40     5000.00
04174               8.20     5000.00
04175               6.60     4800.00
04176               7.20     4800.00
04177               8.40     5000.00
04178               6.80     5000.00
04179               6.00     4800.00
04180               8.40     5000.00
04181               7.00     4800.00
04182               5.00     4800.00
04183               7.40     5000.00
04184               7.40     4800.00
04185               5.00     4800.00
04186               6.80     4800.00
04187               7.20     4800.00
04188               5.20     4800.00
04189               6.20     4800.00
04190               6.80     4800.00
04191               5.40     4800.00
04192               5.40     4800.00
04193               6.00     4600.00
04194               5.20     4600.00
04195               5.40     4800.00
04196               5.80     4800.00
04197               5.00     4600.00
04198               5.00     4600.00
04199               5.60     4600.00
04200               5.00     4800.00
04201               5.00     4600.00
04202               5.40     4800.00
04203               5.00     4600.00
04204               5.00     4600.00
04205               5.00     4600.00
04206               4.60     4600.00
04207               4.60     4600.00
04208               4.20     4600.00
04209               4.60     4600.00
04210               5.00     4400.00
04211               4.00     4600.00
04212               4.60     4400.00
04213               4.40     4400.00
04214               5.00     4400.00
04215               3.60     4400.00
04216               3.60     4400.00
04217               5.00     4400.00
04218               3.20     4400.00
04219               4.20     4400.00
04220               4.60     4400.00
04221               3.60     4400.00
04222               4.00     4400.00
04223               3.60     4400.00
04224               3.80     4400.00
04225               3.60     4200.00
04226               3.40     4200.00
04227               4.20     4400.00
04228               3.60     4200.00
04229               2.80     4000.00
04230               3.80     4000.00
04231               3.80     4000.00
04232               2.60     4000.00
04233               3.40     4000.00
04234               4.20     4000.00
04235               2.80     4000.00
04236               2.60     4000.00
04237               4.20     4000.00
04238               2.80     3800.00
04239               2.60     3800.00
04240               3.60     3800.00
04241               3.00     3800.00
04242               2.20     3800.00
04243               3.00     3800.00
04244               3.60     3800.00
04245               2.40     3600.00
04246               2.20     3800.00
04247               3.40     3600.00
04248               3.00     3800.00
04249               1.80     3600.00
04250               2.80     3600.00
04251               2.80     3600.00
04252               1.80     3600.00
04253               2.20     3600.00
04254               2.60     3600.00
04255               2.20     3600.00
04256               2.00     3400.00
04257               2.00     3400.00
04258               2.20     3200.00
04259               1.80     3400.00
04260               2.00     3200.00
04261               2.20     3200.00
04262               1.80     3200.00
04263               2.00     3000.00
04264               2.20     3200.00
04265               1.40     3200.00
04266               1.40     3000.00
04267               2.20     3000.00
04268               1.60     3000.00
04269               1.40     3000.00
04270               2.00     2800.00
04271               1.40     3000.00
04272               1.20     2800.00
04273               2.00     2800.00
04274               1.20     2800.00
04275               1.20     2800.00
04276               1.80     2800.00
04277               1.80     2600.00
04278               1.20     2800.00
04279               1.40     2800.00
04280               1.80     2600.00
04281               1.40     2400.00
04282               1.00     2600.00
04283               1.80     2600.00
04284               1.40     2600.00
04285               0.40     2400.00
04286               1.20     2400.00
04287               1.60     2400.00
04288               0.60     2400.00
04289               1.00     2400.00
04290               1.40     2200.00
04291               1.00     2200.00
04292               1.00     2000.00
04293               1.60     2200.00
04294               1.20     2000.00
04295               0.60     2200.00
04296               1.20     2000.00
04297               1.00     2000.00
04298               1.00     2000.00
04299               0.80     2000.00
04300               1.00     2000.00
04301               1.00     1800.00
04302               0.60     2000.00
04303               0.60     1600.00
04304               1.20     1800.00
04305               0.40     1600.00
04306               0.60     1800.00
04307               1.00     1600.00
04308               0.60     1600.00
04309               0.40     1400.00
04310               1.00     1800.00
04311               0.60     1400.00
04312               0.20     1400.00
04313               0.40     1200.00
04314               0.60     1400.00
04315              -0.20     1400.00
04316               0.20     1200.00
04317               0.40     1200.00
04318              -0.20     1000.00
04319               0.60     1200.00
04320               0.40     1200.00
04321              -1.00     1000.00
04322               0.60     1000.00
04323               1.00      800.00
04324              -0.60      800.00
04325               0.20     1000.00
04326               1.20      800.00
04327              -0.40      800.00
04328              -0.60      600.00
04329               0.40      800.00
04330               0.20      800.00
04331              -0.40      600.00
04332              -0.40      600.00
04333               0.20      400.00
04334              -0.20      400.00
04335              -0.60      600.00
04336               0.20      400.00
04337               0.60      400.00
04338              -0.60        0.00
04339               0.40      400.00
04340              -0.40      200.00
04341              -0.60      200.00
04342               0.40      200.00
04343              -0.40        0.00
04344              -1.00        0.00
04345               0.20        0.00
04346               0.20        0.00
04347              -0.60     -200.00
04348               0.00        0.00
04349              -0.20     -200.00
04350              -0.20     -200.00
04351               0.20     -200.00
04352              -0.60     -200.00
04353              -0.60     -400.00
04354               2.80     -200.00
04355              17.00     -400.00
04356              -5.00     -600.00
04357             -25.00     -400.00
04358              25.00     -400.00
04359              25.00     -600.00
04360             -25.00     -800.00
04361             -25.00     -600.00
04362              25.00     -400.00
04363              25.00     -800.00
04364             -25.00    -1000.00
04365             -25.00     -800.00
04366              25.00     -800.00
04367              25.00    -1000.00
04368             -25.00     -800.00
04369             -18.80     -800.00
04370              25.00    -1000.00
04371             -14.20    -1200.00
04372             -25.00     -800.00
04373              25.00    -1200.00
04374              25.00    -1000.00
04375             -25.00    -1200.00
04376             -25.00    -1000.00
04377              25.00    -1600.00
04378               0.60    -1200.00
04379             -25.00    -1200.00
04380              25.00    -1400.00
04381              25.00    -1600.00
04382             -25.00    -1200.00
04383             -23.80    -1800.00
04384              25.00    -1600.00
04385             -23.00    -1600.00
04386             -25.00    -1600.00
04387              25.00    -1800.00
04388              25.00    -1800.00
04389             -25.00    -1800.00
04390              -2.00    -2000.00
04391              25.00    -1800.00
04392             -25.00    -2000.00
04393             -25.00    -2000.00
04394              25.00    -2000.00
04395              18.00    -2000.00
04396             -25.00    -2000.00
04397               7.00    -2000.00
04398              25.00    -2200.00
04399             -25.00    -2000.00
04400             -25.00    -2400.00
04401              25.00    -2200.00
04402              -1.40    -2400.00
04403             -25.00    -2400.00
04404              18.80    -2400.00
04405              20.20    -2400.00
04406             -25.00    -2400.00
04407              -0.40    -2600.00
04408              24.20    -2600.00
04409             -18.00    -2600.00
04410             -14.00    -2800.00
04411              17.80    -2600.00
04412              -3.60    -2600.00
04413             -17.00    -2600.00
04414               6.80    -2800.00
04415               5.20    -2800.00
04416             -12.40    -2800.00
04417              -3.00    -2800.00
04418               7.40    -2800.00
04419              -6.00    -3000.00
04420              -7.80    -3000.00
04421               4.40    -3000.00
04422              -0.20    -3000.00
04423             -10.00    -3200.00
04424               0.40    -3200.00
04425               3.00    -3200.00
04426              -8.20    -3200.00
04427              -4.60    -3200.00
04428               4.20    -3200.00
04429              -4.60    -3200.00
04430              -7.00    -3200.00
04431               2.00    -3400.00
04432              -1.00    -3400.00
04433              -8.20    -3400.00
04434              -1.20    -3200.00
04435               2.00    -3600.00
04436              -6.20    -3400.00
04437              -5.00    -3600.00
04438               1.20    -3600.00
04439              -2.60    -3600.00
04440              -7.00    -3600.00
04441              -1.40    -3600.00
04442              -0.60    -3600.00
04443              -6.00    -3800.00
04444              -4.40    -3600.00
04445              -0.40    -3800.00
04446              -4.40    -3800.00
04447              -5.20    -4000.00
04448              -1.80    -3800.00
04449              -2.80    -4000.00
04450              -5.20    -4000.00
04451              -3.00    -4000.00
04452              -2.80    -4000.00
04453              -4.40    -4000.00
04454              -4.40    -4000.00
04455              -3.00    -4000.00
04456              -3.80    -4000.00
04457              -4.60    -4000.00
04458              -3.40    -4000.00
04459              -3.80    -4200.00
04460              -4.60    -4200.00
04461              -4.00    -4200.00
04462              -3.80    -4200.00
04463              -4.60    -4200.00
04464              -4.20    -4200.00
04465              -4.00    -4400.00
04466              -4.60    -4200.00
04467              -5.20    -4400.00
04468              -3.80    -4400.00
04469              -4.20    -4400.00
04470              -5.20    -4400.00
04471              -4.40    -4400.00
04472              -3.80    -4200.00
04473              -5.20    -4400.00
04474              -5.20    -4400.00
04475              -4.40    -4400.00
04476              -5.00    -4400.00
04477              -5.40    -4600.00
04478              -4.80    -4600.00
04479              -4.60    -4400.00
04480              -5.20    -4400.00
04481              -5.20    -4600.00
04482              -5.00    -4600.00
04483              -5.40    -4400.00
04484              -5.40    -4600.00
04485              -5.40    -4600.00
04486              -5.40    -4600.00
04487              -6.00    -4600.00
04488              -5.60    -4600.00
04489              -5.80    -4600.00
04490              -5.80    -4800.00
04491              -6.20    -4400.00
04492              -5.60    -4600.00
04493              -5.80    -4600.00
04494              -6.40    -4600.00
04495              -6.60    -4800.00
04496              -6.00    -4800.00
04497              -6.00    -4800.00
04498              -6.80    -4800.00
04499              -6.20    -4600.00
04500              -6.00    -4800.00
04501              -7.60    -4600.00
04502              -7.00    -4800.00
04503              -6.20    -4800.00
04504              -7.00    -4800.00
04505              -7.40    -5000.00
04506              -6.60    -4600.00
04507              -7.80    -5000.00
04508              -7.00    -4800.00
04509              -6.80    -5000.00
04510              -7.80    -5000.00
04511              -7.80    -5000.00
04512              -7.60    -4600.00
04513              -8.20    -5000.00
04514              -7.80    -5000.00
04515              -7.80    -5000.00
04516              -8.00    -5000.00
04517              -8.60    -5000.00
04518              -8.20    -5000.00
04519              -8.20    -5000.00
04520              -8.60    -5000.00
04521              -8.60    -5000.00
04522              -8.40    -4800.00
04523              -8.60    -5000.00
04524              -8.80    -5000.00
04525              -8.60    -4800.00
04526              -8.60    -5000.00
04527              -9.00    -5000.00
04528              -8.80    -5000.00
04529              -8.60    -5000.00
04530              -8.60    -5000.00
04531              -9.20    -4800.00
04532              -9.20    -5000.00
04533              -9.00    -5200.00
04534              -9.20    -5000.00
04535              -9.20    -5000.00
04536              -8.60    -5000.00
04537              -9.20    -5000.00
04538              -9.20    -5000.00
04539              -8.40    -5000.00
04540              -8.60    -4600.00
04541              -9.20    -5000.00
04542              -8.40    -5000.00
04543              -8.20    -5000.00
04544              -8.60    -5000.00
04545              -8.60    -5000.00
04546              -7.60    -5000.00
04547              -8.40    -5000.00
04548              -8.00    -5000.00
04549              -7.60    -5000.00
04550              -7.80    -5000.00
04551              -7.20    -4800.00
04552              -7.00    -4600.00
04553              -7.80    -5000.00
04554              -7.00    -4600.00
04555              -6.60    -5000.00
04556              -7.40    -4800.00
04557              -7.00    -4600.00
04558              -5.80    -4800.00
04559              -7.00    -5000.00
04560              -7.00    -4600.00
04561              -5.80    -4800.00
04562              -6.80    -4600.00
04563              -6.80    -4800.00
04564              -5.40    -4600.00
04565              -6.20    -4800.00
04566              -6.80    -4600.00
04567              -5.80    -4600.00
04568              -5.80    -4800.00
04569              -6.00    -4600.00
04570              -6.00    -4800.00
04571              -5.40    -4600.00
04572              -5.40    -4800.00
04573              -5.80    -4600.00
04574              -5.80    -4600.00
04575              -5.40    -4800.00
04576              -5.40    -4600.00
04577              -5.40    -4600.00
04578              -5.40    -4600.00
04579              -5.40    -4600.00
04580              -5.20    -4600.00
04581              -5.20    -4600.00
04582              -5.20    -4600.00
04583              -5.00    -4600.00
04584              -4.60    -4600.00
04585              -4.60    -4400.00
04586              -5.00    -4400.00
04587              -4.60    -4600.00
04588              -4.40    -4400.00
04589              -4.60    -4400.00
04590              -5.00    -4400.00
04591              -4.40    -4400.00
04592              -4.60    -4400.00
04593              -4.60    -4400.00
04594              -3.80    -4400.00
04595              -4.40    -4400.00
04596              -4.40    -4200.00
04597              -3.80    -4200.00
04598              -4.20    -4200.00
04599              -4.40    -4200.00
04600              -3.80    -4200.00
04601              -3.80    -4200.00
04602              -3.80    -4200.00
04603              -4.20    -4200.00
04604              -3.80    -4000.00
04605              -3.40    -4200.00
04606              -3.80    -4000.00
04607              -3.40    -4000.00
04608              -3.60    -4000.00
04609              -3.80    -4000.00
04610              -3.40    -4000.00
04611              -3.00    -4000.00
04612              -3.80    -4000.00
04613              -2.80    -4000.00
04614              -3.40    -3600.00
04615              -3.60    -3800.00
04616              -3.00    -3800.00
04617              -2.80    -3800.00
04618              -3.40    -4000.00
04619              -2.80    -3800.00
04620              -2.60    -3600.00
04621              -3.00    -3600.00
04622              -3.20    -3600.00
04623              -2.60    -3400.00
04624              -3.00    -3600.00
04625              -3.00    -3600.00
04626              -2.60    -3400.00
04627              -2.80    -3400.00
04628              -3.00    -3400.00
04629              -2.80    -3400.00
04630              -2.20    -3400.00
04631              -2.60    -3400.00
04632              -2.80    -3400.00
04633              -2.20    -3400.00
04634              -2.60    -3200.00
04635              -2.60    -3200.00
04636              -2.40    -3200.00
04637              -2.60    -3200.00
04638              -2.20    -3200.00
04639              -2.20    -3200.00
04640              -2.80    -3000.00
04641              -2.20    -3000.00
04642              -2.20    -3000.00
04643              -2.40    -3200.00
04644              -2.00    -3000.00
04645              -2.20    -2800.00
04646              -2.60    -2800.00
04647              -2.00    -3000.00
04648              -2.00    -2800.00
04649              -2.60    -2800.00
04650              -2.20    -2800.00
04651              -1.80    -2600.00
04652              -1.80    -2600.00
04653              -2.20    -2600.00
04654              -2.60    -2600.00
04655              -1.40    -2600.00
04656              -2.20    -2400.00
04657              -2.80    -2400.00
04658              -1.80    -2400.00
04659              -1.20    -2400.00
04660              -2.20    -2400.00
04661              -2.00    -2400.00
04662              -1.40    -2400.00
04663              -1.80    -2200.00
04664              -2.20    -2200.00
04665              -1.80    -2000.00
04666              -1.20    -2000.00
04667              -1.40    -2000.00
04668              -1.80    -2000.00
04669              -1.40    -2000.00
04670              -1.40    -2000.00
04671              -2.00    -2000.00
04672              -1.40    -1800.00
04673              -1.40    -2000.00
04674              -1.20    -1800.00
04675              -1.20    -1800.00
04676              -1.00    -1800.00
04677              -1.20    -1600.00
04678              -1.20    -1600.00
04679              -1.20    -1600.00
04680              -1.20    -1600.00
04681              -1.40    -1600.00
04682              -1.00    -1600.00
04683              -0.60    -1400.00
04684              -1.00    -1200.00
04685              -1.00    -1400.00
04686              -1.20    -1200.00
04687              -1.20    -1200.00
04688              -1.00    -1200.00
04689              -0.60    -1200.00
04690              -1.00    -1000.00
04691              -0.80    -1200.00
04692              -0.60    -1000.00
04693              -0.60    -1000.00
04694              -1.00    -1000.00
04695              -0.80    -1000.00
04696              -0.60     -800.00
04697              -0.60     -800.00
04698              -0.60    -1000.00
04699              -0.60     -800.00
04700              -0.60     -800.00
04701              -1.00     -600.00
04702              -0.60     -800.00
04703              -0.60     -600.00
04704              -0.80     -600.00
04705              -0.40     -400.00
04706              -0.60     -400.00
04707              -1.00     -600.00
04708              -0.40     -400.00
04709              -0.40     -400.00
04710              -0.40     -400.00
04711              -0.60     -200.00
04712              -0.40     -400.00
04713              -0.20     -200.00
04714              -0.60     -200.00
04715              -0.60        0.00
04716              -0.40     -200.00
04717              -0.20        0.00
04718              -0.20     -200.00
04719              -0.40        0.00
04720              -0.20        0.00
04721               0.40      200.00
04722               0.00        0.00
04723              -0.40      200.00
04724              -0.40        0.00
04725               0.20      400.00
04726               1.40      400.00
04727               9.00      400.00
04728               3.00      800.00
04729             -25.00      600.00
04730             -17.40      400.00
04731              25.00      600.00
04732              16.20      600.00
04733             -25.00      800.00
04734             -10.00      400.00
04735              25.00     1200.00
04736              -5.80      400.00
04737             -25.00     1200.00
04738              25.00      400.00
04739              25.00     1600.00
04740             -25.00      600.00
04741             -25.00     1200.00
04742              25.00      800.00
04743              25.00     1600.00
04744             -25.00      800.00
04745              21.20     1200.00
04746              25.00      800.00
04747             -25.00     1400.00
04748             -25.00     1200.00
04749              25.00     1400.00
04750              17.00     1200.00
04751             -25.00     1800.00
04752              25.00     1200.00
04753              25.00     1800.00
04754             -25.00     1600.00
04755             -25.00     1600.00
04756              25.00     1600.00
04757              -6.00     1800.00
04758             -25.00     2000.00
04759              25.00     1600.00
04760              25.00     2000.00
04761             -25.00     1800.00
04762              -1.80     2000.00
04763              25.00     1600.00
04764             -16.60     2200.00
04765             -25.00     1800.00
04766              25.00     2000.00
04767              13.80     2000.00
04768             -25.00     2200.00
04769               6.60     2000.00
04770              25.00     2200.00
04771             -21.20     2000.00
04772             -16.40     2400.00
04773              25.00     2200.00
04774               0.60     2400.00
04775             -25.00     2200.00
04776              17.00     2400.00
04777              16.60     2400.00
04778             -23.00     2400.00
04779               3.80     2600.00
04780              20.40     2400.00
04781             -11.20     2800.00
04782              -9.20     2600.00
04783              18.80     2600.00
04784              -1.20     2800.00
04785             -10.80     2800.00
04786               9.20     2800.00
04787               9.00     2800.00
04788              -9.20     2800.00
04789               2.60     3000.00
04790               9.20     3000.00
04791              -2.60     3000.00
04792              -4.20     2800.00
04793               8.60     3000.00
04794               2.60     3000.00
04795              -4.40     3000.00
04796               4.20     3200.00
04797               6.80     3000.00
04798              -3.40     3000.00
04799               0.20     3200.00
04800               8.20     3200.00
04801               1.00     3200.00
04802              -2.00     3200.00
04803               5.20     3200.00
04804               4.40     3200.00
04805              -2.80     3200.00
04806               3.40     3600.00
04807               5.20     3600.00
04808               0.60     3600.00
04809               0.40     3600.00
04810               6.00     3600.00
04811               1.40     3600.00
04812               0.40     3600.00
04813               3.60     3600.00
04814               4.40     3600.00
04815               0.60     3800.00
04816               3.00     3600.00
04817               4.20     3800.00
04818               2.60     3800.00
04819               1.80     3800.00
04820               3.80     3800.00
04821               3.40     3800.00
04822               2.60     4000.00
04823               3.40     4000.00
04824               3.60     4000.00
04825               2.80     4000.00
04826               2.80     4000.00
04827               3.80     4000.00
04828               3.00     4000.00
04829               3.40     4000.00
04830               3.80     4000.00
04831               3.80     4000.00
04832               2.80     4000.00
04833               3.80     4000.00
04834               3.60     4200.00
04835               3.40     4400.00
04836               3.20     4000.00
04837               4.20     4400.00
04838               3.60     4000.00
04839               3.60     4400.00
04840               3.40     4200.00
04841               4.20     4400.00
04842               3.40     4400.00
04843               4.20     4400.00
04844               4.40     4400.00
04845               3.80     4400.00
04846               4.20     4400.00
04847               4.80     4600.00
04848               3.80     4400.00
04849               4.00     4400.00
04850               5.00     4400.00
04851               4.60     4400.00
04852               4.40     4600.00
04853               4.60     4600.00
04854               5.20     4600.00
04855               4.80     4600.00
04856               4.60     4600.00
04857               5.20     4600.00
04858               5.40     4800.00
04859               4.40     4600.00
04860               5.80     4600.00
04861               5.40     4800.00
04862               5.40     4800.00
04863               5.60     4600.00
04864               6.00     4800.00
04865               5.20     4600.00
04866               5.80     4600.00
04867               6.00     4800.00
04868               6.00     4800.00
04869               5.80     4800.00
04870               6.00     4800.00
04871               6.80     4800.00
04872               5.80     4800.00
04873               6.20     4800.00
04874               6.60     4800.00
04875               6.80     4800.00
04876               6.80     4800.00
04877               7.20     4800.00
04878               6.80     4800.00
04879               6.80     5000.00
04880               6.80     5000.00
04881               7.00     5000.00
04882               7.00     5000.00
04883               7.40     4800.00
04884               7.40     4800.00
04885               7.60     5000.00
04886               7.20     4800.00
04887               7.60     4800.00
04888               8.20     5200.00
04889               7.80     5000.00
04890               7.60     4800.00
04891               8.20     5000.00
04892               8.20     5000.00
04893               7.80     5200.00
04894               8.40     5000.00
04895               8.20     5000.00
04896               8.40     5000.00
04897               8.40     5000.00
04898               8.40     5200.00
04899               8.20     5000.00
04900               8.40     4800.00
04901               8.40     5000.00
04902               8.40     4800.00
04903               8.40     5000.00
04904               8.40     5000.00
04905               8.60     5000.00
04906               8.60     5000.00
04907               8.20     4800.00
04908               9.00     5200.00
04909               8.40     4800.00
04910               8.00     5000.00
04911               8.60     4800.00
04912               8.40     4800.00
04913               8.20     5200.00
04914               7.80     4800.00
04915               7.80     4800.00
04916               7.40     4800.00
04917               7.40     5000.00
04918               7.80     5000.00
04919               7.00     4800.00
04920               7.00     4800.00
04921               7.40     4800.00
04922               7.40     4800.00
04923               6.60     5000.00
04924               6.80     4800.00
04925               6.80     4800.00
04926               6.60     4800.00
04927               6.60     4800.00
04928               6.60     4800.00
04929               6.60     4800.00
04930               6.60     4800.00
04931               6.00     4800.00
04932               6.20     4800.00
04933               6.00     4800.00
04934               5.80     4800.00
04935               6.00     4800.00
04936               5.80     4800.00
04937               5.40     4800.00
04938               5.80     4800.00
04939               5.80     4800.00
04940               5.40     4800.00
04941               5.60     4800.00
04942               5.40     4800.00
04943               5.40     4600.00
04944               5.20     4800.00
04945               5.20     4600.00
04946               5.00     4600.00
04947               5.20     4600.00
04948               5.00     4800.00
04949               4.40     4600.00
04950               5.00     4600.00
04951               5.20     4600.00
04952               4.40     4600.00
04953               4.40     4600.00
04954               5.20     4600.00
04955               4.40     4400.00
04956               4.20     4600.00
04957               4.60     4400.00
04958               4.20     4400.00
04959               4.00     4400.00
04960               4.40     4400.00
04961               4.00     4400.00
04962               3.80     4400.00
04963               3.80     4400.00
04964               3.80     4400.00
04965               3.60     4400.00
04966               3.60     4200.00
04967               3.60     4400.00
04968               3.80     4200.00
04969               3.60     4200.00
04970               3.60     4000.00
04971               3.40     4000.00
04972               3.60     4000.00
04973               3.00     4200.00
04974               2.80     4000.00
04975               3.00     4000.00
04976               3.60     4200.00
04977               3.00     4000.00
04978               2.80     4000.00
04979               3.00     3800.00
04980               3.20     4000.00
04981               2.60     4000.00
04982               2.40     3800.00
04983               3.40     3800.00
04984               3.40     3800.00
04985               2.80     3800.00
04986               2.20     3800.00
04987               3.40     3800.00
04988               3.40     3800.00
04989               1.40     3600.00
04990               2.60     3800.00
04991               3.60     3800.00
04992               2.00     3600.00
04993               2.00     3600.00
04994               3.60     3600.00
04995               2.60     3600.00
04996               1.20     3600.00
04997               2.80     3600.00
04998               2.60     3400.00
04999               1.00     3400.00
05000               2.60     3600.00
