Unit:(mV)
                     CH1         CH2
Frequency              ? 134.820 kHz
00001               0.20    -6400.00
00002              -1.80    -6600.00
00003              -2.60    -6400.00
00004              -0.20    -6400.00
00005              -0.60    -6600.00
00006              -2.60    -6600.00
00007              -1.40    -6400.00
00008               0.40    -6600.00
00009              -1.40    -6600.00
00010              -2.80    -6600.00
00011              -0.40    -6800.00
00012              -0.20    -6800.00
00013              -2.80    -6800.00
00014              -0.60    -6800.00
00015               0.20    -6800.00
00016              -2.00    -6800.00
00017              -2.20    -7000.00
00018              -0.20    -7000.00
00019              -1.00    -7200.00
00020              -2.40    -7000.00
00021              -1.00    -7200.00
00022              -0.60    -7200.00
00023              -1.80    -7200.00
00024              -1.40    -7200.00
00025              -0.60    -7200.00
00026              -1.20    -7200.00
00027              -1.80    -7200.00
00028              -1.00    -7200.00
00029              -0.60    -7400.00
00030              -1.20    -7400.00
00031              -1.80    -7400.00
00032              -1.00    -7400.00
00033              -0.80    -7400.00
00034              -2.20    -7600.00
00035              -1.40    -7400.00
00036              -1.20    -7600.00
00037              -1.80    -7600.00
00038              -1.20    -7600.00
00039              -0.40    -7600.00
00040              -2.00    -7600.00
00041              -1.60    -7600.00
00042               0.00    -7600.00
00043              -1.80    -7600.00
00044              -2.20    -7600.00
00045              -0.60    -7800.00
00046              -1.40    -7800.00
00047              -1.80    -8000.00
00048              -1.20    -8000.00
00049              -1.40    -7800.00
00050              -1.00    -8000.00
00051              -1.40    -7800.00
00052              -1.40    -8000.00
00053              -1.80    -7800.00
00054              -1.00    -8000.00
00055              -1.40    -7800.00
00056              -1.80    -8000.00
00057              -1.40    -8000.00
00058              -1.40    -8000.00
00059              -1.20    -8000.00
00060              -1.20    -8000.00
00061              -2.00    -8000.00
00062              -1.20    -8000.00
00063              -1.80    -8000.00
00064              -1.20    -8000.00
00065              -1.40    -8000.00
00066              -1.40    -8000.00
00067              -1.40    -8000.00
00068              -1.80    -8000.00
00069              -2.00    -8200.00
00070              -1.20    -8000.00
00071              -1.80    -8200.00
00072              -1.60    -8000.00
00073              -1.80    -8200.00
00074              -1.40    -8200.00
00075              -1.20    -8200.00
00076              -1.40    -8200.00
00077              -1.80    -8000.00
00078              -1.00    -8000.00
00079              -1.20    -8000.00
00080              -1.40    -8000.00
00081              -1.00    -8000.00
00082              -1.40    -8000.00
00083              -1.40    -8000.00
00084              -1.20    -8200.00
00085              -1.80    -8000.00
00086              -1.40    -8000.00
00087              -1.80    -8000.00
00088              -1.00    -8200.00
00089              -1.40    -8000.00
00090              -2.00    -8000.00
00091              -0.60    -8000.00
00092              -1.40    -8000.00
00093              -1.80    -8000.00
00094              -1.00    -8000.00
00095              -1.20    -8000.00
00096              -2.00    -8000.00
00097              -0.60    -8000.00
00098              -1.00    -8000.00
00099              -2.20    -8000.00
00100              -1.00    -8000.00
00101              -0.60    -8000.00
00102              -2.20    -8000.00
00103              -1.20    -8000.00
00104              -0.60    -8000.00
00105              -1.80    -8000.00
00106              -1.80    -8000.00
00107              -0.80    -8000.00
00108              -1.20    -8000.00
00109              -1.40    -7600.00
00110              -1.40    -8000.00
00111              -1.40    -8000.00
00112              -1.60    -7800.00
00113              -1.40    -7600.00
00114              -1.20    -7600.00
00115              -1.40    -7800.00
00116              -1.40    -7600.00
00117              -1.00    -7800.00
00118              -1.40    -7600.00
00119              -1.80    -7800.00
00120              -1.20    -7600.00
00121              -1.20    -7600.00
00122              -1.00    -7600.00
00123              -1.60    -7400.00
00124              -1.60    -7400.00
00125              -0.80    -7400.00
00126              -1.40    -7400.00
00127              -1.80    -7200.00
00128              -1.40    -7400.00
00129              -1.60    -7400.00
00130              -1.60    -7400.00
00131              -1.40    -7200.00
00132              -1.40    -7400.00
00133              -1.20    -7200.00
00134              -1.20    -7200.00
00135              -1.20    -7200.00
00136              -1.40    -7200.00
00137              -1.00    -7200.00
00138              -1.20    -7200.00
00139              -1.20    -7000.00
00140              -1.00    -7000.00
00141              -1.40    -7000.00
00142              -1.40    -7000.00
00143              -1.40    -6800.00
00144              -1.20    -6800.00
00145              -1.20    -6800.00
00146              -1.20    -6800.00
00147              -1.20    -6800.00
00148              -0.80    -6800.00
00149              -1.00    -6600.00
00150              -1.20    -6800.00
00151              -1.20    -6600.00
00152              -1.00    -6600.00
00153              -1.20    -6400.00
00154              -1.20    -6600.00
00155              -0.80    -6400.00
00156              -1.00    -6400.00
00157              -1.20    -6400.00
00158              -1.20    -6400.00
00159              -1.00    -6400.00
00160              -1.20    -6400.00
00161              -1.20    -6200.00
00162              -1.20    -6200.00
00163              -1.00    -6000.00
00164              -1.00    -6000.00
00165              -1.20    -6000.00
00166              -1.00    -6000.00
00167              -1.00    -6000.00
00168              -1.00    -5800.00
00169              -1.20    -6000.00
00170              -1.00    -5800.00
00171              -1.00    -5600.00
00172              -0.80    -5800.00
00173              -1.20    -5800.00
00174              -1.20    -5600.00
00175              -0.60    -5600.00
00176              -1.20    -5600.00
00177              -1.20    -5600.00
00178              -1.20    -5600.00
00179              -1.20    -5600.00
00180              -0.60    -5200.00
00181              -1.40    -5200.00
00182              -1.20    -5400.00
00183              -0.60    -5200.00
00184              -1.20    -5000.00
00185              -1.40    -5000.00
00186              -0.60    -5000.00
00187              -0.60    -5000.00
00188              -1.40    -4800.00
00189              -0.60    -5000.00
00190              -1.00    -4600.00
00191              -1.40    -4600.00
00192              -0.80    -4600.00
00193              -1.00    -4600.00
00194              -1.40    -4400.00
00195              -0.80    -4400.00
00196              -1.00    -4400.00
00197              -0.80    -4400.00
00198              -1.00    -4400.00
00199              -1.00    -4200.00
00200              -0.60    -4200.00
00201              -0.60    -4000.00
00202              -1.20    -4000.00
00203              -0.60    -4000.00
00204              -0.60    -4000.00
00205              -0.60    -4000.00
00206              -0.60    -4000.00
00207              -0.60    -3800.00
00208              -1.20    -3600.00
00209              -0.60    -3600.00
00210              -0.60    -3600.00
00211              -1.20    -3600.00
00212              -0.60    -3600.00
00213              -0.40    -3600.00
00214              -0.60    -3400.00
00215              -0.60    -3400.00
00216              -0.20    -3200.00
00217              -0.60    -3200.00
00218              -1.20    -3200.00
00219              -0.40    -3000.00
00220              -0.40    -2800.00
00221              -1.20    -3000.00
00222               0.20    -2800.00
00223              -0.60    -2800.00
00224              -1.40    -2800.00
00225               0.00    -2800.00
00226               0.20    -2600.00
00227              -1.20    -2600.00
00228              -0.60    -2400.00
00229               0.40    -2400.00
00230              -0.60    -2400.00
00231              -0.60    -2400.00
00232              -0.60    -2200.00
00233               0.20    -2400.00
00234              -0.60    -2000.00
00235              -0.60    -2000.00
00236              -0.40    -2000.00
00237              -0.40    -2000.00
00238              -0.60    -1800.00
00239              -0.40    -1800.00
00240              -0.40    -1800.00
00241              -0.80    -1800.00
00242              -0.40    -1800.00
00243              -0.60    -1600.00
00244              -0.60    -1400.00
00245              -0.40    -1600.00
00246              -0.60    -1400.00
00247              -0.20    -1200.00
00248              -0.20    -1200.00
00249              -1.20    -1000.00
00250              -1.00    -1000.00
00251               0.40    -1000.00
00252               0.20    -1000.00
00253              -2.60    -1000.00
00254              -1.20     -800.00
00255               2.00     -800.00
00256              -0.40     -600.00
00257              -3.20     -400.00
00258               0.40     -400.00
00259               1.80     -600.00
00260              -2.00     -400.00
00261              -1.40     -400.00
00262               1.00     -400.00
00263               0.00     -200.00
00264              -1.20     -200.00
00265              -0.40        0.00
00266              -0.40        0.00
00267               0.00        0.00
00268               0.20        0.00
00269               0.40        0.00
00270               0.40      200.00
00271              -0.80      400.00
00272               0.20      400.00
00273               0.60      400.00
00274              -0.80      600.00
00275               1.00      600.00
00276               8.80      800.00
00277              11.60     1000.00
00278             -18.20     1000.00
00279             -25.00      800.00
00280              -1.40      600.00
00281              25.00     1200.00
00282              13.20     1200.00
00283             -25.00     1200.00
00284              25.00     1000.00
00285              25.00     1800.00
00286             -25.00      800.00
00287             -25.00     1600.00
00288              25.00     1400.00
00289              25.00     1800.00
00290             -25.00     1600.00
00291              25.00     1800.00
00292              25.00     1800.00
00293             -25.00     2000.00
00294             -20.00     2200.00
00295              25.00     2000.00
00296             -25.00     2000.00
00297             -25.00     2400.00
00298              25.00     2000.00
00299              25.00     2200.00
00300             -25.00     2400.00
00301             -15.40     2400.00
00302              25.00     2200.00
00303              -0.40     2600.00
00304             -25.00     2400.00
00305              25.00     2400.00
00306              25.00     2800.00
00307             -25.00     2800.00
00308             -13.40     2800.00
00309              25.00     3000.00
00310             -25.00     3000.00
00311             -25.00     3000.00
00312              25.00     3200.00
00313               1.80     3200.00
00314             -25.00     3200.00
00315              25.00     3200.00
00316              25.00     3600.00
00317             -25.00     3400.00
00318               1.00     3600.00
00319              25.00     3600.00
00320             -18.80     3800.00
00321             -16.20     3600.00
00322              25.00     4000.00
00323              -1.20     3800.00
00324             -18.20     4000.00
00325              11.60     3800.00
00326               8.40     4000.00
00327             -13.00     4000.00
00328              -0.60     4000.00
00329              11.60     4000.00
00330              -2.80     4200.00
00331              -8.80     4400.00
00332               6.80     4400.00
00333               6.00     4400.00
00334              -9.20     4400.00
00335               0.20     4600.00
00336               9.80     4400.00
00337              -4.20     4600.00
00338              -5.60     4600.00
00339               9.00     4800.00
00340               0.00     4600.00
00341              -6.80     4800.00
00342               5.60     4800.00
00343               4.40     4800.00
00344              -6.40     5000.00
00345               1.40     5000.00
00346               5.60     5000.00
00347              -2.80     5200.00
00348              -2.20     5200.00
00349               4.60     5400.00
00350               1.00     5400.00
00351              -2.60     5400.00
00352               2.20     5400.00
00353               2.60     5600.00
00354              -1.80     5600.00
00355              -0.20     5600.00
00356               3.40     5600.00
00357              -0.20     5600.00
00358              -1.20     5800.00
00359               2.00     5800.00
00360               1.80     6000.00
00361              -1.40     5800.00
00362               1.00     6000.00
00363               2.40     6000.00
00364              -0.20     6000.00
00365              -0.40     6000.00
00366               2.60     6200.00
00367               0.80     6000.00
00368              -0.60     6200.00
00369               1.40     6200.00
00370               1.20     6200.00
00371              -0.20     6400.00
00372               1.20     6400.00
00373               1.00     6400.00
00374               0.20     6400.00
00375               0.40     6400.00
00376               1.00     6400.00
00377               0.60     6400.00
00378               0.40     6400.00
00379               1.00     6600.00
00380               1.00     6800.00
00381               0.00     6600.00
00382               0.80     6800.00
00383               1.20     6800.00
00384               0.60     6800.00
00385               0.40     6800.00
00386               0.60     6800.00
00387               1.20     6800.00
00388               0.40     6800.00
00389               0.40     7000.00
00390               1.00     7000.00
00391               1.00     7200.00
00392               0.00     7000.00
00393               1.00     7200.00
00394               1.20     7200.00
00395               0.40     7200.00
00396               1.00     7200.00
00397               1.40     7200.00
00398               0.20     7200.00
00399               1.00     7600.00
00400               1.80     7400.00
00401               0.40     7400.00
00402               0.40     7400.00
00403               1.20     7400.00
00404               0.60     7400.00
00405               0.40     7600.00
00406               1.20     7600.00
00407               1.00     7600.00
00408               0.60     7600.00
00409               1.00     7600.00
00410               1.20     7800.00
00411               1.40     7800.00
00412               0.60     7800.00
00413               0.40     7600.00
00414               1.80     7800.00
00415               1.00     7600.00
00416               0.20     7800.00
00417               1.40     7800.00
00418               1.40     7800.00
00419               0.20     7800.00
00420               0.80     7800.00
00421               1.40     8200.00
00422               1.00     8000.00
00423               1.20     7800.00
00424               1.00     8000.00
00425               0.60     8000.00
00426               1.00     7800.00
00427               1.40     8200.00
00428               0.60     8000.00
00429               1.80     8000.00
00430               1.00     8000.00
00431               0.60     8000.00
00432               1.20     8000.00
00433               1.20     8200.00
00434               1.20     8200.00
00435               1.20     8000.00
00436               0.20     8200.00
00437               1.00     8000.00
00438               1.20     8000.00
00439               0.40     8000.00
00440               1.00     8200.00
00441               1.20     8000.00
00442               1.20     8200.00
00443               0.60     8000.00
00444               0.40     8200.00
00445               1.40     8000.00
00446               0.60     8000.00
00447               0.40     8200.00
00448               1.00     8000.00
00449               1.20     8200.00
00450               0.60     8000.00
00451               0.60     8000.00
00452               1.40     8200.00
00453               0.60     8200.00
00454               0.20     8200.00
00455               1.00     8000.00
00456               1.20     8200.00
00457               0.60     8000.00
00458               1.00     8000.00
00459               1.20     8200.00
00460               0.60     8000.00
00461               0.60     8200.00
00462               1.00     8200.00
00463               1.00     8000.00
00464               0.80     8200.00
00465               0.60     7800.00
00466               1.20     8000.00
00467               1.20     8200.00
00468               0.60     8000.00
00469               0.40     7800.00
00470               1.20     8200.00
00471               0.60     8000.00
00472               0.40     8000.00
00473               1.20     8000.00
00474               1.20     8000.00
00475               1.00     7800.00
00476               1.20     7800.00
00477               1.20     8000.00
00478               0.60     7800.00
00479               0.20     7800.00
00480               1.20     7800.00
00481               1.00     7800.00
00482               0.60     7800.00
00483               1.20     7800.00
00484               1.40     7800.00
00485               0.40     7800.00
00486               0.40     7600.00
00487               1.20     7800.00
00488               1.00     7600.00
00489               1.00     7600.00
00490               1.20     7600.00
00491               1.20     7600.00
00492               1.00     7400.00
00493               0.40     7600.00
00494               0.60     7600.00
00495               1.00     7600.00
00496               1.00     7600.00
00497               1.20     7600.00
00498               0.60     7200.00
00499               0.60     7400.00
00500               1.00     7200.00
00501               0.20     7400.00
00502               0.60     7200.00
00503               1.00     7200.00
00504               0.60     7200.00
00505               1.00     7200.00
00506               1.00     7000.00
00507               0.60     7200.00
00508               1.00     7000.00
00509               0.60     7000.00
00510               0.20     7000.00
00511               0.40     7000.00
00512               0.60     7000.00
00513               0.40     7000.00
00514               0.60     6800.00
00515               0.60     6800.00
00516               0.40     6800.00
00517               1.00     6800.00
00518               0.60     6800.00
00519               0.40     6800.00
00520               0.60     6800.00
00521               1.00     6800.00
00522               0.40     6600.00
00523               0.60     6400.00
00524               0.60     6600.00
00525               0.60     6600.00
00526               0.40     6400.00
00527               0.40     6400.00
00528               0.60     6400.00
00529               0.60     6200.00
00530               1.00     6200.00
00531               0.40     6200.00
00532               0.60     6200.00
00533               1.00     6200.00
00534               0.40     6200.00
00535               0.60     6000.00
00536               0.40     6000.00
00537               0.20     6000.00
00538               0.60     6000.00
00539               1.00     6000.00
00540               0.40     6000.00
00541               0.20     6000.00
00542               1.20     5600.00
00543               0.60     5600.00
00544               0.20     5600.00
00545               0.60     5600.00
00546               0.60     5600.00
00547               0.40     5600.00
00548               0.60     5400.00
00549               1.00     5400.00
00550               0.60     5200.00
00551               0.60     5400.00
00552               0.60     5400.00
00553               0.40     5400.00
00554               0.60     5200.00
00555               0.40     5200.00
00556               0.40     5000.00
00557               0.60     5000.00
00558               0.40     4800.00
00559               0.60     4800.00
00560               0.40     4800.00
00561               0.40     4800.00
00562               0.60     4600.00
00563               0.40     4600.00
00564               0.40     4600.00
00565               0.60     4400.00
00566               0.60     4600.00
00567               0.60     4400.00
00568               0.20     4400.00
00569               0.40     4200.00
00570               0.40     4400.00
00571              -0.20     4000.00
00572               0.40     4000.00
00573               0.40     4000.00
00574               0.00     4000.00
00575               0.60     4000.00
00576               0.20     4000.00
00577              -0.20     3800.00
00578               0.40     3600.00
00579               0.20     3800.00
00580               0.20     3600.00
00581              -0.20     3600.00
00582               0.20     3600.00
00583               0.40     3400.00
00584               0.20     3200.00
00585              -0.20     3400.00
00586               0.20     3200.00
00587              -0.20     3200.00
00588               0.20     3200.00
00589               0.20     3000.00
00590              -0.20     3000.00
00591               0.20     3000.00
00592               0.20     3000.00
00593              -0.20     2800.00
00594               0.00     3000.00
00595               0.20     2800.00
00596               0.40     2800.00
00597               0.40     2600.00
00598              -0.40     2600.00
00599               0.80     2800.00
00600               0.60     2400.00
00601              -1.20     2400.00
00602               0.80     2200.00
00603               0.40     2200.00
00604              -1.20     2200.00
00605               0.40     2000.00
00606               0.60     2200.00
00607              -0.80     2000.00
00608               0.40     2000.00
00609               1.00     2000.00
00610              -0.60     1600.00
00611              -0.20     1800.00
00612               1.00     1600.00
00613              -0.40     1600.00
00614              -0.40     1400.00
00615               0.20     1600.00
00616               0.20     1400.00
00617              -0.60     1200.00
00618              -0.20     1400.00
00619               0.20     1400.00
00620              -0.20     1000.00
00621              -0.20     1200.00
00622              -0.20     1200.00
00623               0.00     1000.00
00624              -0.40      800.00
00625              -0.20      800.00
00626              -0.60      600.00
00627               0.20      600.00
00628              -0.20      400.00
00629              -0.40      600.00
00630              -0.20      400.00
00631              -0.20      400.00
00632              -1.20      400.00
00633               0.20      400.00
00634              -0.20        0.00
00635              -1.00        0.00
00636              -0.40        0.00
00637              -0.60        0.00
00638              -0.40        0.00
00639               0.20     -200.00
00640               0.20     -200.00
00641              -0.20     -400.00
00642              -0.40     -400.00
00643              -0.80     -200.00
00644              -0.20     -400.00
00645               0.20     -600.00
00646               7.60     -600.00
00647              25.00     -800.00
00648             -22.20    -1000.00
00649             -25.00    -1200.00
00650              -6.20     -400.00
00651              25.00    -1000.00
00652              21.40    -1200.00
00653             -25.00    -1000.00
00654              24.20    -1000.00
00655              25.00    -1200.00
00656             -24.20    -1600.00
00657             -25.00     -800.00
00658              25.00    -1600.00
00659              25.00    -1600.00
00660             -25.00    -1200.00
00661             -25.00    -1800.00
00662              25.00    -1800.00
00663               7.80    -2000.00
00664             -25.00    -1600.00
00665              25.00    -2200.00
00666              25.00    -2000.00
00667             -25.00    -1800.00
00668              25.00    -2400.00
00669              25.00    -2200.00
00670             -25.00    -2000.00
00671             -25.00    -2400.00
00672              25.00    -2400.00
00673              25.00    -2400.00
00674             -25.00    -2400.00
00675               7.80    -2600.00
00676              25.00    -2600.00
00677             -25.00    -2600.00
00678             -25.00    -2800.00
00679              25.00    -2800.00
00680               7.40    -2800.00
00681             -25.00    -3000.00
00682              25.00    -3200.00
00683              25.00    -2800.00
00684             -25.00    -3200.00
00685              16.20    -3200.00
00686              25.00    -3200.00
00687             -25.00    -3400.00
00688             -25.00    -3400.00
00689              25.00    -3600.00
00690              -2.60    -3400.00
00691             -25.00    -3600.00
00692              23.80    -3600.00
00693              20.20    -3600.00
00694             -25.00    -4000.00
00695              -0.60    -3800.00
00696              22.60    -4000.00
00697             -10.80    -4000.00
00698             -15.00    -4000.00
00699              14.20    -4000.00
00700               6.20    -4000.00
00701             -18.00    -4200.00
00702               1.00    -4200.00
00703              13.80    -4400.00
00704             -10.80    -4400.00
00705              -8.60    -4400.00
00706              13.20    -4400.00
00707              -1.80    -4400.00
00708             -14.00    -4600.00
00709               7.40    -4800.00
00710               5.20    -4600.00
00711             -13.60    -4800.00
00712               2.00    -4800.00
00713               9.20    -4800.00
00714              -9.20    -5000.00
00715              -5.00    -5000.00
00716               8.20    -5000.00
00717              -2.80    -5200.00
00718              -8.60    -5000.00
00719               4.60    -5200.00
00720               2.40    -5400.00
00721              -7.60    -5200.00
00722              -0.20    -5400.00
00723               3.80    -5400.00
00724              -5.20    -5400.00
00725              -3.60    -5600.00
00726               3.60    -5600.00
00727              -0.60    -5600.00
00728              -4.80    -5800.00
00729               0.40    -5800.00
00730               1.80    -5800.00
00731              -3.80    -5800.00
00732              -2.20    -5800.00
00733               2.00    -5800.00
00734              -1.60    -6000.00
00735              -3.00    -6000.00
00736               0.60    -6000.00
00737              -0.20    -6000.00
00738              -2.80    -6200.00
00739              -1.00    -6000.00
00740              -0.20    -6200.00
00741              -1.80    -6200.00
00742              -0.60    -6200.00
00743              -0.60    -6400.00
00744              -2.00    -6400.00
00745              -1.20    -6400.00
00746              -0.60    -6400.00
00747              -1.40    -6400.00
00748              -1.40    -6600.00
00749              -0.20    -6600.00
00750              -1.00    -6600.00
00751              -2.00    -6600.00
00752              -1.20    -6600.00
00753              -0.60    -6800.00
00754              -0.80    -6600.00
00755              -1.80    -6800.00
00756              -1.00    -6800.00
00757              -0.60    -6800.00
00758              -2.00    -7000.00
00759              -1.80    -6800.00
00760              -0.80    -6800.00
00761              -2.00    -7200.00
00762              -2.00    -7200.00
00763              -0.60    -7200.00
00764              -1.20    -7200.00
00765              -2.20    -7000.00
00766              -1.00    -7200.00
00767              -0.60    -7200.00
00768              -2.40    -7400.00
00769              -1.20    -7400.00
00770              -0.40    -7400.00
00771              -1.80    -7200.00
00772              -2.20    -7400.00
00773              -0.60    -7400.00
00774              -1.60    -7400.00
00775              -2.20    -7400.00
00776              -1.20    -7600.00
00777              -0.80    -7400.00
00778              -2.20    -7600.00
00779              -1.40    -7600.00
00780              -0.40    -7600.00
00781              -2.20    -7600.00
00782              -2.20    -7600.00
00783              -0.40    -7600.00
00784              -1.80    -7600.00
00785              -2.00    -7600.00
00786              -0.80    -7800.00
00787              -1.20    -7600.00
00788              -2.20    -7800.00
00789              -1.60    -7800.00
00790              -1.00    -8000.00
00791              -1.20    -7800.00
00792              -1.40    -7800.00
00793              -1.80    -8000.00
00794              -1.40    -8000.00
00795              -1.00    -8000.00
00796              -1.20    -8000.00
00797              -2.20    -8000.00
00798              -1.20    -7800.00
00799              -1.20    -8000.00
00800              -1.20    -8000.00
00801              -1.40    -8000.00
00802              -1.20    -8000.00
00803              -2.00    -8000.00
00804              -1.40    -8000.00
00805              -1.20    -8000.00
00806              -1.60    -8000.00
00807              -1.20    -8000.00
00808              -1.60    -8000.00
00809              -1.20    -8000.00
00810              -1.00    -8200.00
00811              -1.40    -8000.00
00812              -1.60    -8200.00
00813              -1.00    -8000.00
00814              -1.20    -8200.00
00815              -1.80    -8200.00
00816              -1.00    -8000.00
00817              -1.20    -8200.00
00818              -2.20    -8200.00
00819              -1.40    -8200.00
00820              -0.60    -8200.00
00821              -1.40    -8000.00
00822              -1.20    -8000.00
00823              -1.00    -8200.00
00824              -1.40    -8200.00
00825              -1.40    -8000.00
00826              -1.40    -8200.00
00827              -1.60    -8000.00
00828              -1.40    -8200.00
00829              -1.80    -8000.00
00830              -1.20    -8000.00
00831              -1.60    -8000.00
00832              -1.80    -8200.00
00833              -1.20    -8200.00
00834              -1.40    -8200.00
00835              -1.80    -8000.00
00836              -1.60    -8200.00
00837              -1.20    -8000.00
00838              -1.40    -8000.00
00839              -1.20    -8000.00
00840              -1.60    -8000.00
00841              -1.40    -8000.00
00842              -1.00    -8000.00
00843              -2.00    -8000.00
00844              -2.00    -8000.00
00845              -1.00    -8000.00
00846              -1.40    -8000.00
00847              -1.80    -8000.00
00848              -1.20    -8000.00
00849              -1.80    -8000.00
00850              -1.40    -8000.00
00851              -1.80    -7800.00
00852              -1.80    -7600.00
00853              -1.20    -7800.00
00854              -1.80    -7800.00
00855              -1.40    -7600.00
00856              -1.20    -7800.00
00857              -1.40    -7600.00
00858              -1.20    -7600.00
00859              -1.00    -7800.00
00860              -1.80    -7600.00
00861              -1.80    -7600.00
00862              -0.80    -7600.00
00863              -1.40    -7400.00
00864              -2.00    -7400.00
00865              -0.80    -7400.00
00866              -1.00    -7400.00
00867              -1.40    -7400.00
00868              -1.20    -7400.00
00869              -1.00    -7400.00
00870              -1.40    -7200.00
00871              -1.60    -7400.00
00872              -0.40    -7200.00
00873              -1.20    -7200.00
00874              -1.80    -7200.00
00875              -1.00    -7400.00
00876              -0.60    -7200.00
00877              -1.40    -7200.00
00878              -1.40    -7000.00
00879              -0.80    -7200.00
00880              -1.20    -7200.00
00881              -1.40    -7000.00
00882              -1.00    -7200.00
00883              -1.00    -7000.00
00884              -1.20    -7000.00
00885              -1.20    -7000.00
00886              -1.20    -6800.00
00887              -1.00    -6800.00
00888              -1.00    -6800.00
00889              -1.00    -6800.00
00890              -1.20    -6800.00
00891              -1.00    -6600.00
00892              -1.20    -6800.00
00893              -1.40    -6600.00
00894              -1.40    -6600.00
00895              -1.20    -6600.00
00896              -1.40    -6600.00
00897              -1.20    -6600.00
00898              -1.40    -6400.00
00899              -1.20    -6400.00
00900              -0.80    -6400.00
00901              -1.20    -6400.00
00902              -1.40    -6400.00
00903              -0.60    -6200.00
00904              -1.20    -6200.00
00905              -1.40    -6200.00
00906              -1.00    -6000.00
00907              -1.20    -6000.00
00908              -1.20    -6000.00
00909              -1.00    -6000.00
00910              -1.20    -5800.00
00911              -1.40    -5800.00
00912              -1.20    -5800.00
00913              -1.00    -5800.00
00914              -1.20    -5800.00
00915              -1.20    -5600.00
00916              -0.80    -5600.00
00917              -1.00    -5600.00
00918              -1.20    -5600.00
00919              -0.60    -5400.00
00920              -0.60    -5400.00
00921              -1.40    -5200.00
00922              -0.80    -5200.00
00923              -0.60    -5200.00
00924              -1.20    -5200.00
00925              -1.20    -5200.00
00926              -1.00    -5200.00
00927              -1.20    -5000.00
00928              -1.00    -5000.00
00929              -0.80    -5000.00
00930              -0.40    -5000.00
00931              -1.00    -4600.00
00932              -1.00    -4600.00
00933              -0.20    -4600.00
00934              -0.60    -4600.00
00935              -1.20    -4600.00
00936              -0.60    -4400.00
00937              -0.60    -4400.00
00938              -1.20    -4400.00
00939              -0.80    -4400.00
00940              -0.60    -4200.00
00941              -1.00    -4200.00
00942              -0.60    -4200.00
00943              -0.60    -4000.00
00944              -0.60    -4000.00
00945              -0.60    -4000.00
00946              -0.40    -4000.00
00947              -0.60    -4000.00
00948              -1.00    -3800.00
00949              -0.60    -3800.00
00950              -0.40    -3800.00
00951              -1.20    -3600.00
00952              -1.00    -3600.00
00953              -0.60    -3400.00
00954              -0.60    -3400.00
00955              -0.60    -3400.00
00956              -0.40    -3400.00
00957              -0.60    -3400.00
00958              -1.00    -3200.00
00959              -0.60    -3200.00
00960              -0.80    -3200.00
00961              -0.60    -3000.00
00962              -0.60    -3000.00
00963              -0.60    -3000.00
00964              -0.80    -2800.00
00965              -0.60    -2800.00
00966              -0.80    -2800.00
00967              -0.40    -2800.00
00968              -1.20    -2600.00
00969              -0.60    -2600.00
00970              -0.60    -2600.00
00971              -0.40    -2400.00
00972              -0.40    -2400.00
00973              -1.20    -2200.00
00974              -1.00    -2400.00
00975               0.20    -2000.00
00976              -1.20    -2000.00
00977              -1.20    -2000.00
00978               0.40    -2000.00
00979              -1.00    -2000.00
00980              -1.00    -1800.00
00981               0.40    -1800.00
00982              -1.20    -1800.00
00983              -1.20    -1800.00
00984               0.20    -1600.00
00985              -0.60    -1600.00
00986              -1.20    -1600.00
00987               0.20    -1400.00
00988               0.00    -1200.00
00989              -1.20    -1400.00
00990              -0.40    -1200.00
00991               1.00    -1000.00
00992              -1.40    -1000.00
00993              -1.20    -1000.00
00994               1.00     -800.00
00995              -0.80     -800.00
00996              -0.80     -800.00
00997               0.60     -800.00
00998              -1.00     -600.00
00999              -0.60     -400.00
01000               0.60     -400.00
01001              -1.00     -200.00
01002              -1.00     -400.00
01003               0.40     -400.00
01004              -0.20     -200.00
01005              -1.00     -200.00
01006               0.00     -200.00
01007              -0.20        0.00
01008              -0.60        0.00
01009              -0.20        0.00
01010               1.00      400.00
01011               0.60        0.00
01012               0.20      200.00
01013              -1.00      400.00
01014               0.80      400.00
01015               0.40      400.00
01016              -1.00      600.00
01017               2.20      400.00
01018              12.40      800.00
01019               5.20     1200.00
01020             -25.00     1000.00
01021             -25.00      800.00
01022              15.60      800.00
01023              25.00     1400.00
01024             -22.80     1000.00
01025             -25.00     1200.00
01026              25.00     1400.00
01027              25.00     1600.00
01028             -25.00     1200.00
01029             -23.00     1600.00
01030              25.00     1800.00
01031             -21.20     1200.00
01032             -25.00     2000.00
01033              25.00     1800.00
01034              25.00     1800.00
01035             -25.00     2000.00
01036              25.00     2000.00
01037              25.00     2000.00
01038             -25.00     2000.00
01039             -25.00     2400.00
01040              25.00     2000.00
01041               5.80     2400.00
01042             -25.00     2400.00
01043              16.40     2200.00
01044              25.00     2400.00
01045             -25.00     2800.00
01046             -25.00     2400.00
01047              25.00     2600.00
01048              25.00     2800.00
01049             -25.00     3000.00
01050              25.00     2800.00
01051              25.00     3000.00
01052             -25.00     3000.00
01053              -8.20     3000.00
01054              25.00     3000.00
01055             -25.00     3200.00
01056             -25.00     3200.00
01057              25.00     3200.00
01058               4.40     3400.00
01059             -25.00     3400.00
01060              21.20     3600.00
01061              23.80     3600.00
01062             -25.00     3800.00
01063              -1.40     3600.00
01064              25.00     3800.00
01065             -13.20     3800.00
01066             -10.80     4000.00
01067              16.60     3800.00
01068               1.40     4000.00
01069             -13.20     4000.00
01070               6.80     4000.00
01071               9.40     4000.00
01072              -7.80     4400.00
01073              -4.60     4200.00
01074              10.60     4400.00
01075               0.40     4400.00
01076              -8.60     4400.00
01077               5.80     4400.00
01078               6.60     4600.00
01079              -7.60     4600.00
01080              -0.40     4600.00
01081               8.60     4800.00
01082              -4.20     4600.00
01083              -3.60     4600.00
01084               7.00     4800.00
01085               1.00     5000.00
01086              -5.40     4800.00
01087               4.00     5200.00
01088               3.40     5000.00
01089              -3.60     5200.00
01090               0.00     5200.00
01091               4.40     5400.00
01092              -1.00     5400.00
01093              -1.40     5400.00
01094               2.60     5600.00
01095               1.20     5400.00
01096              -1.60     5400.00
01097               1.40     5600.00
01098               2.00     5600.00
01099              -1.00     5600.00
01100               0.40     5800.00
01101               2.20     5800.00
01102              -0.60     5800.00
01103              -0.20     6000.00
01104               2.60     6000.00
01105               0.40     6000.00
01106              -0.80     6000.00
01107               1.60     6200.00
01108               1.00     6000.00
01109              -1.40     6200.00
01110               1.20     6200.00
01111               1.20     6200.00
01112              -0.60     6400.00
01113               1.20     6400.00
01114               1.80     6400.00
01115               0.00     6400.00
01116               0.20     6600.00
01117               1.20     6400.00
01118               0.40     6600.00
01119              -0.20     6600.00
01120               1.20     6600.00
01121               1.40     6600.00
01122               0.40     6800.00
01123               0.20     6800.00
01124               1.20     6800.00
01125               1.00     6800.00
01126              -0.40     6800.00
01127               1.00     7000.00
01128               2.00     6800.00
01129               0.60     7000.00
01130               0.60     7000.00
01131               1.20     7000.00
01132               0.60     7200.00
01133               0.40     7000.00
01134               1.00     7000.00
01135               1.40     7000.00
01136               0.20     7200.00
01137               1.20     7200.00
01138               1.80     7200.00
01139               0.20     7400.00
01140              -0.40     7200.00
01141               2.00     7200.00
01142               1.00     7400.00
01143               0.40     7400.00
01144               1.20     7600.00
01145               2.00     7400.00
01146              -0.20     7400.00
01147               0.60     7400.00
01148               1.40     7600.00
01149               0.40     7600.00
01150               0.60     7600.00
01151               1.20     7600.00
01152               1.40     7600.00
01153               0.40     7600.00
01154               0.60     7400.00
01155               1.20     7800.00
01156               0.20     7800.00
01157               0.40     7800.00
01158               1.20     7800.00
01159               1.00     7800.00
01160               0.40     7600.00
01161               1.40     7800.00
01162               1.40     7800.00
01163               0.20     7800.00
01164               1.00     7800.00
01165               0.40     7800.00
01166               0.60     7800.00
01167               2.00     7800.00
01168               0.40     8000.00
01169               0.40     8200.00
01170               1.80     7800.00
01171              -0.20     8000.00
01172               0.20     7800.00
01173               2.00     8000.00
01174               0.80     8000.00
01175               0.20     8000.00
01176               1.80     8200.00
01177               0.80     8000.00
01178              -0.20     8200.00
01179               1.80     8000.00
01180               1.40     8200.00
01181               0.40     8200.00
01182               1.20     8000.00
01183               1.80     8200.00
01184               0.20     8000.00
01185               0.20     8200.00
01186               1.80     8000.00
01187               0.20     8200.00
01188               1.00     8000.00
01189               2.00     8000.00
01190               0.40     8200.00
01191               0.40     8000.00
01192               2.00     8200.00
01193               0.40     8200.00
01194               0.40     8200.00
01195               1.40     8000.00
01196               2.00     8200.00
01197               0.60     8000.00
01198               0.20     8200.00
01199               2.20     8200.00
01200               0.40     8200.00
01201              -1.00     8200.00
01202               3.00     8200.00
01203               2.60     8000.00
01204              -2.00     8000.00
01205               0.60     8200.00
01206               3.60     8000.00
01207               0.20     8000.00
01208              -0.20     8000.00
01209               2.20     8200.00
01210               1.40     8000.00
01211               0.00     8000.00
01212               0.60     8200.00
01213               1.80     8200.00
01214               1.40     8000.00
01215               0.40     8000.00
01216               0.80     7800.00
01217               2.00     8000.00
01218               0.40     7800.00
01219               0.20     7800.00
01220               1.20     7800.00
01221               1.20     7800.00
01222               0.20     7800.00
01223               0.40     7800.00
01224               1.60     7800.00
01225               1.00     7800.00
01226               1.40     7800.00
01227               0.80     7800.00
01228               0.40     7600.00
01229               0.60     7800.00
01230               0.60     7800.00
01231               0.60     7800.00
01232               1.00     7600.00
01233               1.40     7600.00
01234               0.60     7600.00
01235               1.00     7600.00
01236               1.00     7600.00
01237               0.40     7600.00
01238               0.60     7400.00
01239               0.60     7400.00
01240               0.60     7400.00
01241               1.40     7400.00
01242               1.00     7200.00
01243               0.20     7200.00
01244               1.00     7200.00
01245               1.20     7200.00
01246               0.40     7200.00
01247               0.40     7200.00
01248               1.00     7000.00
01249               1.00     7200.00
01250               0.60     7200.00
01251               1.00     7000.00
01252               0.60     7000.00
01253               0.60     7000.00
01254               1.00     7000.00
01255               0.60     7000.00
01256               0.60     7000.00
01257               1.00     6800.00
01258               1.00     6800.00
01259               1.00     6800.00
01260               0.40     6800.00
01261               0.40     6800.00
01262               1.20     6800.00
01263               0.40     6800.00
01264               0.40     6400.00
01265               1.00     6600.00
01266               1.00     6600.00
01267               0.60     6400.00
01268               1.00     6400.00
01269               0.80     6400.00
01270               0.40     6400.00
01271               1.20     6400.00
01272               1.00     6400.00
01273               0.20     6200.00
01274               1.00     6200.00
01275               1.20     6200.00
01276               0.20     6000.00
01277               0.60     6000.00
01278               1.00     6200.00
01279               0.40     6000.00
01280               0.40     6000.00
01281               1.00     6000.00
01282               0.20     5800.00
01283               0.60     5800.00
01284               0.60     5600.00
01285               0.20     5800.00
01286               0.60     5600.00
01287               0.40     5600.00
01288               0.40     5600.00
01289               0.40     5400.00
01290               0.80     5400.00
01291               0.40     5400.00
01292               0.40     5400.00
01293               0.20     5400.00
01294               0.40     5400.00
01295               0.40     5200.00
01296               0.40     5200.00
01297               0.20     5000.00
01298               0.20     5000.00
01299               0.40     5200.00
01300               0.40     4800.00
01301               0.20     4800.00
01302               0.40     4800.00
01303               0.40     4800.00
01304               0.40     4600.00
01305               0.40     4600.00
01306               0.20     4600.00
01307               0.20     4600.00
01308               0.40     4400.00
01309               0.20     4400.00
01310              -0.20     4400.00
01311               1.00     4400.00
01312               0.20     4200.00
01313               0.20     4000.00
01314               0.40     4000.00
01315               0.20     4000.00
01316               0.20     3800.00
01317               0.20     4000.00
01318               0.40     4000.00
01319               0.20     3800.00
01320               0.40     3800.00
01321               0.40     3600.00
01322               0.20     3600.00
01323               0.20     3600.00
01324               0.20     3600.00
01325               0.60     3600.00
01326               0.40     3600.00
01327              -0.20     3200.00
01328               0.40     3200.00
01329               0.40     3200.00
01330               0.00     3200.00
01331               0.40     3000.00
01332               0.60     3200.00
01333               0.40     3000.00
01334               0.00     3000.00
01335               0.20     2800.00
01336               0.20     2800.00
01337              -0.20     2800.00
01338               0.40     2800.00
01339               0.40     2800.00
01340              -0.60     2400.00
01341               0.60     2400.00
01342               0.20     2400.00
01343              -0.40     2200.00
01344               0.80     2400.00
01345               0.20     2200.00
01346              -0.60     2200.00
01347               0.20     2200.00
01348               0.60     2000.00
01349              -0.60     2000.00
01350              -0.40     2000.00
01351               0.40     2000.00
01352              -0.20     1800.00
01353              -0.60     1600.00
01354               0.20     1600.00
01355               0.40     1600.00
01356              -0.60     1400.00
01357              -0.40     1400.00
01358               0.40     1400.00
01359              -0.40     1200.00
01360              -0.80     1200.00
01361               0.20     1200.00
01362               0.00     1200.00
01363              -0.20     1200.00
01364              -0.40      800.00
01365              -0.60      800.00
01366              -0.20      800.00
01367              -0.40      800.00
01368              -1.00      600.00
01369              -0.40      600.00
01370              -0.20      600.00
01371              -0.40      400.00
01372              -0.20      400.00
01373              -0.20      400.00
01374              -0.60      200.00
01375              -0.40      200.00
01376              -0.20      200.00
01377              -0.60      200.00
01378              -0.20        0.00
01379               0.00        0.00
01380              -0.20     -200.00
01381               0.40     -200.00
01382               0.20     -400.00
01383              -0.20     -400.00
01384              -1.00     -200.00
01385               0.20     -400.00
01386               0.40     -400.00
01387               0.40     -600.00
01388              13.40     -600.00
01389              18.20    -1000.00
01390             -25.00    -1000.00
01391             -25.00    -1000.00
01392              25.00     -800.00
01393              25.00    -1000.00
01394             -25.00    -1200.00
01395             -25.00     -800.00
01396              25.00    -1200.00
01397              25.00    -1400.00
01398             -25.00    -1600.00
01399             -25.00    -1000.00
01400              25.00    -1600.00
01401              25.00    -1800.00
01402             -25.00    -1000.00
01403              25.00    -2000.00
01404              25.00    -1600.00
01405             -25.00    -1800.00
01406             -25.00    -1800.00
01407              25.00    -2000.00
01408              13.00    -1800.00
01409             -25.00    -2000.00
01410              25.00    -2400.00
01411              25.00    -2200.00
01412             -25.00    -2200.00
01413             -18.00    -2400.00
01414              25.00    -2400.00
01415              -6.20    -2400.00
01416             -25.00    -2800.00
01417              25.00    -2600.00
01418              25.00    -2600.00
01419             -25.00    -2800.00
01420              -9.80    -2800.00
01421              25.00    -3000.00
01422             -25.00    -3000.00
01423             -25.00    -3000.00
01424              25.00    -3200.00
01425              -1.00    -3000.00
01426             -25.00    -3200.00
01427              25.00    -3200.00
01428              25.00    -3400.00
01429             -25.00    -3400.00
01430              -0.60    -3400.00
01431              25.00    -3600.00
01432             -25.00    -3400.00
01433             -25.00    -3600.00
01434              25.00    -3800.00
01435               1.80    -3600.00
01436             -25.00    -4000.00
01437              12.60    -3800.00
01438              15.60    -4000.00
01439             -18.60    -4000.00
01440              -6.20    -4000.00
01441              17.20    -4000.00
01442              -3.60    -4200.00
01443             -16.60    -4200.00
01444               9.80    -4400.00
01445               8.20    -4400.00
01446             -15.00    -4400.00
01447              -2.20    -4400.00
01448              13.80    -4400.00
01449              -9.00    -4600.00
01450              -9.20    -4400.00
01451              11.80    -4800.00
01452              -2.20    -4600.00
01453             -11.20    -4800.00
01454               7.80    -4800.00
01455               3.60    -5000.00
01456             -11.60    -5000.00
01457               1.40    -5000.00
01458               7.80    -5000.00
01459              -8.60    -5000.00
01460              -4.60    -5200.00
01461               7.40    -5200.00
01462              -1.40    -5200.00
01463              -7.40    -5200.00
01464               3.00    -5400.00
01465               2.60    -5600.00
01466              -6.80    -5600.00
01467              -1.80    -5600.00
01468               5.00    -5600.00
01469              -3.00    -5800.00
01470              -4.60    -5600.00
01471               2.60    -5800.00
01472               0.80    -5800.00
01473              -5.00    -5800.00
01474              -1.20    -6000.00
01475               1.80    -6000.00
01476              -2.80    -6000.00
01477              -2.20    -6000.00
01478               1.00    -6000.00
01479              -2.00    -6000.00
01480              -3.00    -6200.00
01481               0.40    -6200.00
01482              -1.00    -6400.00
01483              -2.20    -6200.00
01484               0.20    -6400.00
01485              -0.60    -6400.00
01486              -2.40    -6600.00
01487              -0.60    -6400.00
01488              -1.80    -6600.00
01489              -2.20    -6600.00
01490              -1.00    -6600.00
01491              -0.60    -6600.00
01492              -1.80    -6800.00
01493              -1.80    -6600.00
01494              -1.00    -6800.00
01495              -1.80    -6600.00
01496              -1.20    -6800.00
01497              -1.00    -6600.00
01498              -0.60    -6800.00
01499              -1.20    -6800.00
01500              -2.60    -7000.00
01501              -1.20    -6800.00
01502              -1.00    -7200.00
01503              -2.20    -7200.00
01504              -1.40    -7000.00
01505               0.20    -7000.00
01506              -1.40    -7200.00
01507              -3.00    -7200.00
01508              -0.20    -7200.00
01509              -1.00    -7200.00
01510              -2.80    -7200.00
01511              -1.20    -7200.00
01512              -0.20    -7200.00
01513              -1.80    -7200.00
01514              -2.00    -7400.00
01515              -0.60    -7400.00
01516              -0.60    -7400.00
01517              -2.20    -7400.00
01518              -1.20    -7400.00
01519              -0.20    -7400.00
01520              -1.80    -7400.00
01521              -2.00    -7600.00
01522              -1.20    -7600.00
01523              -1.20    -7400.00
01524              -1.60    -7600.00
01525              -1.00    -7600.00
01526              -1.20    -7600.00
01527              -1.00    -7600.00
01528              -1.20    -7600.00
01529              -1.80    -7600.00
01530              -1.20    -7800.00
01531              -1.40    -8000.00
01532              -1.20    -7600.00
01533              -1.20    -7800.00
01534              -1.20    -7800.00
01535              -1.80    -8000.00
01536              -1.80    -7800.00
01537              -0.80    -7800.00
01538              -1.20    -7800.00
01539              -1.40    -8000.00
01540              -0.60    -8000.00
01541              -2.20    -8000.00
01542              -2.00    -8000.00
01543              -1.20    -8000.00
01544              -1.00    -8000.00
01545              -1.80    -8000.00
01546              -1.20    -8000.00
01547              -1.40    -8000.00
01548              -1.60    -8000.00
01549              -1.20    -8000.00
01550              -2.20    -8000.00
01551              -1.20    -8000.00
01552              -0.60    -8000.00
01553              -2.20    -8000.00
01554              -2.00    -8000.00
01555              -0.40    -8200.00
01556              -2.80    -8200.00
01557              -3.00    -8000.00
01558               0.40    -8200.00
01559              -1.00    -8000.00
01560              -3.60    -8000.00
01561              -0.60    -8200.00
01562              -0.60    -8200.00
01563              -2.80    -8200.00
01564              -1.00    -8000.00
01565              -0.40    -8000.00
01566              -2.20    -8200.00
01567              -2.00    -8200.00
01568              -1.20    -8200.00
01569              -2.00    -8000.00
01570              -2.00    -8000.00
01571              -1.20    -8000.00
01572              -1.00    -8000.00
01573              -1.80    -8000.00
01574              -1.40    -8000.00
01575              -1.60    -8000.00
01576              -1.20    -8000.00
01577              -1.20    -8000.00
01578              -1.40    -8000.00
01579              -1.40    -8000.00
01580              -1.40    -8000.00
01581              -1.20    -8000.00
01582              -1.20    -8000.00
01583              -1.60    -8000.00
01584              -1.40    -8000.00
01585              -1.40    -8000.00
01586              -1.20    -8000.00
01587              -1.00    -8000.00
01588              -1.20    -7600.00
01589              -1.40    -8000.00
01590              -1.20    -8000.00
01591              -1.20    -8000.00
01592              -1.40    -8000.00
01593              -1.00    -7600.00
01594              -1.00    -7800.00
01595              -1.20    -7800.00
01596              -1.20    -8000.00
01597              -1.20    -7600.00
01598              -1.40    -7600.00
01599              -1.80    -7600.00
01600              -1.00    -7600.00
01601              -1.20    -7600.00
01602              -1.60    -7600.00
01603              -1.00    -7400.00
01604              -1.00    -7400.00
01605              -1.60    -7600.00
01606              -1.20    -7400.00
01607              -1.00    -7400.00
01608              -1.00    -7400.00
01609              -1.80    -7400.00
01610              -1.60    -7400.00
01611              -1.00    -7400.00
01612              -1.40    -7400.00
01613              -2.00    -7200.00
01614              -1.00    -7200.00
01615              -1.00    -7200.00
01616              -1.40    -7200.00
01617              -1.40    -7200.00
01618              -1.00    -7200.00
01619              -1.80    -7200.00
01620              -1.40    -7200.00
01621              -0.60    -7200.00
01622              -1.20    -7000.00
01623              -2.00    -7200.00
01624              -0.60    -7000.00
01625              -1.00    -7000.00
01626              -2.20    -6800.00
01627              -0.80    -7000.00
01628              -0.60    -6800.00
01629              -1.80    -6800.00
01630              -1.20    -7000.00
01631              -1.00    -6800.00
01632              -1.20    -6600.00
01633              -1.40    -6600.00
01634              -1.20    -6600.00
01635              -1.20    -6600.00
01636              -1.20    -6400.00
01637              -1.20    -6600.00
01638              -1.00    -6600.00
01639              -1.20    -6400.00
01640              -1.00    -6400.00
01641              -0.60    -6600.00
01642              -1.80    -6400.00
01643              -1.60    -6400.00
01644              -0.60    -6200.00
01645              -1.00    -6200.00
01646              -1.40    -6000.00
01647              -0.80    -6200.00
01648              -0.60    -6000.00
01649              -1.20    -6000.00
01650              -1.20    -6000.00
01651              -0.60    -6000.00
01652              -1.20    -5800.00
01653              -1.40    -5800.00
01654              -0.60    -5800.00
01655              -0.80    -5800.00
01656              -1.40    -5600.00
01657              -1.00    -5600.00
01658              -0.40    -5600.00
01659              -1.40    -5600.00
01660              -1.20    -5400.00
01661              -0.40    -5600.00
01662              -1.00    -5600.00
01663              -1.40    -5400.00
01664              -0.40    -5200.00
01665              -0.80    -5200.00
01666              -1.40    -5200.00
01667              -0.80    -5000.00
01668              -0.60    -5000.00
01669              -1.20    -5000.00
01670              -1.00    -5000.00
01671              -0.40    -4800.00
01672              -1.20    -4600.00
01673              -1.20    -4800.00
01674              -0.40    -4600.00
01675              -1.20    -4600.00
01676              -1.40    -4600.00
01677              -0.80    -4600.00
01678              -1.00    -4400.00
01679              -1.40    -4400.00
01680              -0.60    -4400.00
01681              -0.60    -4400.00
01682              -0.60    -4400.00
01683              -1.00    -4200.00
01684              -1.00    -4000.00
01685              -0.40    -4200.00
01686              -1.20    -4000.00
01687              -0.60    -4000.00
01688              -0.40    -4000.00
01689              -1.60    -4000.00
01690              -1.00    -3800.00
01691              -0.60    -3800.00
01692              -1.40    -3600.00
01693              -0.60    -3600.00
01694              -0.60    -3600.00
01695              -1.20    -3400.00
01696              -1.00    -3400.00
01697              -1.00    -3400.00
01698              -0.60    -3400.00
01699              -0.40    -3400.00
01700              -1.00    -3200.00
01701              -1.00    -3000.00
01702              -0.60    -3200.00
01703              -1.00    -2800.00
01704              -0.60    -3200.00
01705              -0.40    -2800.00
01706              -0.60    -2800.00
01707              -1.00    -2800.00
01708              -0.60    -2800.00
01709              -0.60    -2600.00
01710              -1.00    -2600.00
01711              -0.40    -2600.00
01712              -0.20    -2600.00
01713              -0.80    -2400.00
01714              -0.60    -2400.00
01715              -0.40    -2400.00
01716              -0.60    -2400.00
01717              -0.60    -2000.00
01718              -0.60    -2000.00
01719              -0.40    -2000.00
01720              -0.60    -2000.00
01721              -0.60    -2000.00
01722              -0.60    -1800.00
01723              -0.40    -1800.00
01724              -0.40    -1600.00
01725              -0.60    -1600.00
01726              -0.40    -1600.00
01727              -0.20    -1400.00
01728              -0.40    -1200.00
01729              -0.60    -1400.00
01730               0.00    -1400.00
01731               0.00    -1200.00
01732              -1.20    -1200.00
01733              -0.20    -1000.00
01734               0.40    -1000.00
01735              -1.40    -1000.00
01736              -0.40     -800.00
01737               1.00     -800.00
01738              -1.00     -800.00
01739              -2.00     -800.00
01740               0.20     -800.00
01741               0.40     -600.00
01742              -0.80     -400.00
01743               0.20     -400.00
01744              -0.60     -400.00
01745              -1.40     -400.00
01746              -0.40        0.00
01747               0.20     -200.00
01748              -0.60     -200.00
01749              -0.20        0.00
01750               0.60        0.00
01751              -0.60        0.00
01752              -0.40      200.00
01753               1.40      200.00
01754              -0.80      200.00
01755              -1.80      400.00
01756               2.00      400.00
01757               1.00      400.00
01758              -2.00      400.00
01759               3.00      600.00
01760              15.40      800.00
01761              -3.40     1200.00
01762             -25.00     1000.00
01763             -16.20      800.00
01764              25.00      800.00
01765              25.00     1400.00
01766             -25.00      800.00
01767             -25.00     1200.00
01768              25.00     1400.00
01769              25.00     1200.00
01770             -25.00     1600.00
01771              25.00     1400.00
01772              25.00     2000.00
01773             -25.00     1400.00
01774             -25.00     2000.00
01775              25.00     1600.00
01776             -14.20     2000.00
01777             -25.00     2000.00
01778              25.00     2000.00
01779              25.00     2000.00
01780             -25.00     2200.00
01781              11.60     2200.00
01782              25.00     2000.00
01783             -25.00     2400.00
01784             -25.00     2400.00
01785              25.00     2200.00
01786              25.00     2600.00
01787             -25.00     2400.00
01788             -24.60     2400.00
01789              25.00     2800.00
01790             -13.20     2800.00
01791             -25.00     2800.00
01792              25.00     2800.00
01793              25.00     3200.00
01794             -25.00     2800.00
01795              25.00     3000.00
01796              25.00     3000.00
01797             -25.00     3200.00
01798              -7.00     3200.00
01799              25.00     3200.00
01800             -21.80     3200.00
01801             -25.00     3600.00
01802              25.00     3400.00
01803               5.40     3800.00
01804             -25.00     3600.00
01805              13.80     3600.00
01806              15.80     3800.00
01807             -21.40     3800.00
01808               0.40     4000.00
01809              16.60     4000.00
01810              -6.60     3800.00
01811              -8.60     4000.00
01812              10.00     4000.00
01813               4.20     4000.00
01814              -9.40     4200.00
01815              -1.80     4400.00
01816              10.80     4200.00
01817              -3.40     4400.00
01818              -6.80     4400.00
01819               8.40     4600.00
01820               3.00     4600.00
01821              -8.80     4600.00
01822               3.80     4800.00
01823               6.80     4800.00
01824              -7.40     4600.00
01825               0.40     4800.00
01826               7.60     4800.00
01827              -4.60     4800.00
01828              -3.60     5000.00
01829               6.60     5200.00
01830               0.20     5000.00
01831              -4.20     5200.00
01832               3.60     5400.00
01833               3.60     5400.00
01834              -3.80     5400.00
01835               0.40     5400.00
01836               3.40     5400.00
01837              -0.60     5400.00
01838              -1.80     5600.00
01839               3.20     5600.00
01840               1.40     5600.00
01841              -1.80     5600.00
01842               1.60     5800.00
01843               2.80     6000.00
01844              -1.80     6000.00
01845              -1.00     6000.00
01846               2.60     6000.00
01847               0.60     6000.00
01848              -1.20     6000.00
01849               2.20     6000.00
01850               2.00     6200.00
01851              -1.00     6200.00
01852               1.20     6200.00
01853               2.20     6200.00
01854              -0.40     6400.00
01855              -0.40     6400.00
01856               2.00     6400.00
01857               0.40     6400.00
01858              -0.20     6400.00
01859               1.80     6400.00
01860               1.80     6400.00
01861               0.00     6600.00
01862               1.20     6600.00
01863               0.60     6800.00
01864               0.20     6800.00
01865               0.60     6800.00
01866               0.60     6800.00
01867               1.20     7000.00
01868               0.60     6800.00
01869               1.00     6800.00
01870               0.80     7000.00
01871               0.40     7000.00
01872               0.40     7000.00
01873               0.40     7000.00
01874               1.00     7000.00
01875               0.20     7200.00
01876               1.00     7200.00
01877               1.00     7200.00
01878               0.20     7200.00
01879               1.40     7200.00
01880               0.60     7200.00
01881               0.40     7200.00
01882               0.40     7200.00
01883               1.20     7200.00
01884               1.00     7200.00
01885               0.40     7200.00
01886               1.00     7200.00
01887               1.00     7400.00
01888               0.20     7600.00
01889               0.60     7600.00
01890               1.00     7600.00
01891               0.40     7600.00
01892               0.20     7800.00
01893               1.20     7600.00
01894               0.40     7600.00
01895               0.40     7600.00
01896               1.00     7600.00
01897               1.20     7800.00
01898               0.60     7600.00
01899               1.00     7800.00
01900               1.20     7800.00
01901               0.40     7800.00
01902               0.40     7800.00
01903               1.00     7800.00
01904               0.60     7800.00
01905               0.20     7800.00
01906               1.20     7800.00
01907               1.20     7800.00
01908               0.80     7800.00
01909               0.60     8000.00
01910               1.60     7800.00
01911               0.60     7800.00
01912               0.40     8200.00
01913               1.20     8000.00
01914               1.40     8200.00
01915               0.20     8000.00
01916               1.40     8200.00
01917               1.40     8000.00
01918               0.40     8000.00
01919               0.60     8000.00
01920               1.80     8000.00
01921               1.00     8200.00
01922               0.60     8000.00
01923               1.20     8200.00
01924               1.00     8200.00
01925               0.40     8000.00
01926               1.00     8200.00
01927               1.40     8000.00
01928               1.00     8200.00
01929               1.00     8000.00
01930               1.20     8200.00
01931               1.20     8000.00
01932               0.60     8000.00
01933               1.00     8200.00
01934               1.20     8000.00
01935               1.00     8000.00
01936               0.60     8200.00
01937               1.00     8200.00
01938               1.00     8000.00
01939               0.40     8200.00
01940               1.00     8200.00
01941               1.20     8000.00
01942               0.80     8200.00
01943               0.60     8000.00
01944               1.20     8000.00
01945               0.60     8200.00
01946               0.60     8200.00
01947               1.20     8000.00
01948               1.00     8000.00
01949               0.40     8000.00
01950               1.00     8000.00
01951               1.00     8000.00
01952               0.60     8000.00
01953               1.00     8000.00
01954               1.00     8000.00
01955               0.80     8000.00
01956               1.00     8000.00
01957               1.00     7800.00
01958               0.60     8200.00
01959               1.20     8000.00
01960               1.20     7800.00
01961               1.00     7800.00
01962               1.00     7800.00
01963               1.00     7800.00
01964               0.80     7800.00
01965               0.80     7800.00
01966               1.00     7800.00
01967               0.80     7800.00
01968               0.80     7600.00
01969               0.60     7800.00
01970               1.00     7800.00
01971               1.00     7600.00
01972               1.20     7800.00
01973               1.00     7600.00
01974               0.80     7800.00
01975               1.20     7400.00
01976               1.20     7600.00
01977               0.40     7600.00
01978               0.60     7600.00
01979               1.20     7600.00
01980               0.60     7600.00
01981               0.60     7200.00
01982               1.00     7200.00
01983               1.20     7400.00
01984               0.60     7200.00
01985               1.00     7400.00
01986               1.00     7200.00
01987               0.60     7200.00
01988               1.00     7200.00
01989               1.00     7200.00
01990               1.00     7200.00
01991               0.80     7200.00
01992               1.20     7000.00
01993               1.20     7000.00
01994               0.40     7000.00
01995               1.00     7000.00
01996               1.00     7000.00
01997               0.60     6800.00
01998               0.60     6800.00
01999               0.60     6800.00
02000               0.60     6800.00
02001               0.60     6800.00
02002               0.60     6800.00
02003               1.00     6600.00
02004               0.60     6600.00
02005               0.60     6600.00
02006               1.00     6800.00
02007               0.40     6600.00
02008               0.40     6400.00
02009               1.20     6600.00
02010               0.20     6400.00
02011               0.40     6400.00
02012               1.80     6400.00
02013              -0.20     6200.00
02014              -0.20     6200.00
02015               1.20     6200.00
02016               0.40     6200.00
02017               0.20     6200.00
02018               1.40     6000.00
02019               0.40     6000.00
02020               0.00     6000.00
02021               1.00     6000.00
02022               0.40     6000.00
02023               0.40     6000.00
02024               0.60     6000.00
02025               0.80     5600.00
02026               0.40     6000.00
02027               0.40     5600.00
02028               0.80     5600.00
02029               0.40     5600.00
02030               0.40     5400.00
02031               0.60     5400.00
02032               0.80     5400.00
02033               0.60     5400.00
02034               0.00     5200.00
02035               1.00     5400.00
02036               1.00     5400.00
02037               0.00     5200.00
02038               0.40     5200.00
02039               1.00     5000.00
02040               0.40     5000.00
02041               0.20     4800.00
02042               0.80     4800.00
02043               0.80     4800.00
02044               0.20     4800.00
02045               0.40     4800.00
02046               0.60     4800.00
02047               0.20     4600.00
02048               0.40     4600.00
02049               0.20     4600.00
02050               0.60     4400.00
02051               0.40     4400.00
02052               0.40     4400.00
02053               0.40     4400.00
02054               0.40     4400.00
02055               0.40     4200.00
02056               0.40     4000.00
02057               0.40     4000.00
02058               0.40     4000.00
02059               0.20     4000.00
02060              -0.20     3800.00
02061               0.20     3800.00
02062               0.20     3800.00
02063               0.40     3600.00
02064               0.20     3600.00
02065               0.20     3800.00
02066               0.40     3400.00
02067               0.20     3600.00
02068               0.20     3400.00
02069               0.00     3200.00
02070               0.20     3200.00
02071               0.40     3200.00
02072              -0.20     3200.00
02073               0.00     3000.00
02074               0.20     3000.00
02075              -0.20     3000.00
02076              -0.20     2800.00
02077               0.20     2800.00
02078               0.00     2800.00
02079               0.20     2800.00
02080               0.00     2800.00
02081               0.00     2800.00
02082              -0.20     2600.00
02083               0.20     2400.00
02084              -0.40     2400.00
02085               0.20     2400.00
02086               0.20     2200.00
02087              -0.40     2200.00
02088              -0.20     2200.00
02089               0.20     2200.00
02090              -0.40     2000.00
02091              -0.40     2000.00
02092               0.20     2000.00
02093              -0.20     1800.00
02094              -0.20     1800.00
02095               0.40     1600.00
02096               0.00     1600.00
02097               0.20     1600.00
02098               0.20     1600.00
02099              -0.40     1400.00
02100               0.20     1400.00
02101              -0.40     1400.00
02102              -0.20     1200.00
02103               0.20     1200.00
02104              -0.20     1200.00
02105              -0.40      800.00
02106               0.20     1000.00
02107              -0.40      800.00
02108              -0.20      800.00
02109               0.00      800.00
02110              -0.20      600.00
02111               0.20      400.00
02112               0.00      600.00
02113              -0.20      600.00
02114              -0.20      400.00
02115              -0.20      200.00
02116              -0.60      400.00
02117              -0.40      200.00
02118              -0.40        0.00
02119              -0.40        0.00
02120              -0.20        0.00
02121               0.20     -200.00
02122              -0.20        0.00
02123               0.40     -200.00
02124               1.00     -200.00
02125              -1.20     -400.00
02126              -0.60     -400.00
02127               1.20     -400.00
02128              -0.60     -400.00
02129               1.80     -400.00
02130              21.80     -800.00
02131               3.80     -800.00
02132             -25.00    -1000.00
02133             -25.00     -800.00
02134              25.00     -800.00
02135              25.00    -1000.00
02136             -25.00    -1400.00
02137             -25.00     -800.00
02138              25.00    -1600.00
02139              25.00    -1600.00
02140             -25.00    -1200.00
02141             -19.60    -1400.00
02142              25.00    -1600.00
02143              12.80    -1800.00
02144             -25.00    -1200.00
02145              25.00    -1800.00
02146              25.00    -1800.00
02147             -25.00    -1600.00
02148              11.80    -2200.00
02149              25.00    -2000.00
02150             -25.00    -2000.00
02151             -25.00    -2000.00
02152              25.00    -2400.00
02153               6.80    -2000.00
02154             -25.00    -2200.00
02155              25.00    -2600.00
02156              25.00    -2400.00
02157             -25.00    -2400.00
02158             -25.00    -2600.00
02159              25.00    -2600.00
02160              25.00    -2600.00
02161             -25.00    -2800.00
02162              25.00    -3000.00
02163              25.00    -2800.00
02164             -25.00    -3000.00
02165              -4.60    -3200.00
02166              25.00    -3200.00
02167             -25.00    -3200.00
02168             -25.00    -3200.00
02169              25.00    -3200.00
02170               2.60    -3200.00
02171             -25.00    -3400.00
02172              25.00    -3400.00
02173              25.00    -3600.00
02174             -25.00    -3400.00
02175              -6.60    -3600.00
02176              25.00    -3600.00
02177             -16.00    -3600.00
02178             -22.20    -3800.00
02179              21.20    -4000.00
02180               5.80    -3800.00
02181             -20.40    -4000.00
02182               2.20    -4200.00
02183              15.80    -4200.00
02184             -11.00    -4200.00
02185             -11.40    -4200.00
02186              13.80    -4400.00
02187               1.20    -4400.00
02188             -15.60    -4400.00
02189               6.40    -4400.00
02190               9.80    -4400.00
02191             -13.40    -4600.00
02192              -3.20    -4600.00
02193              11.80    -4600.00
02194              -7.80    -4800.00
02195              -8.40    -4600.00
02196              10.40    -4800.00
02197              -1.20    -5000.00
02198             -10.60    -5000.00
02199               5.00    -5000.00
02200               3.80    -5000.00
02201              -9.20    -5000.00
02202              -1.40    -5200.00
02203               6.20    -5200.00
02204              -4.80    -5200.00
02205              -4.60    -5400.00
02206               4.20    -5400.00
02207              -1.40    -5400.00
02208              -5.60    -5400.00
02209               0.60    -5600.00
02210               2.20    -5600.00
02211              -4.20    -5600.00
02212              -2.20    -5800.00
02213               2.00    -5800.00
02214              -1.80    -5800.00
02215              -4.20    -5800.00
02216               0.40    -5800.00
02217              -0.20    -6000.00
02218              -3.40    -6000.00
02219              -0.80    -6000.00
02220               0.60    -6200.00
02221              -2.60    -6000.00
02222              -1.80    -6200.00
02223               0.40    -6000.00
02224              -1.40    -6400.00
02225              -2.00    -6200.00
02226              -0.40    -6400.00
02227              -1.20    -6400.00
02228              -2.20    -6600.00
02229              -0.80    -6600.00
02230              -1.00    -6400.00
02231              -2.20    -6600.00
02232              -0.80    -6600.00
02233              -0.40    -6600.00
02234              -1.60    -6600.00
02235              -1.40    -6600.00
02236              -0.60    -6600.00
02237              -1.20    -6800.00
02238              -2.00    -6800.00
02239              -0.60    -6800.00
02240              -0.40    -6800.00
02241              -1.60    -6800.00
02242              -1.80    -7000.00
02243              -0.60    -7200.00
02244              -1.40    -7000.00
02245              -1.80    -7200.00
02246              -1.00    -7200.00
02247              -0.60    -7000.00
02248              -1.80    -7200.00
02249              -1.20    -7200.00
02250              -0.60    -7400.00
02251              -1.80    -7200.00
02252              -1.80    -7200.00
02253              -0.60    -7200.00
02254              -1.20    -7400.00
02255              -2.00    -7400.00
02256              -0.60    -7400.00
02257              -1.20    -7400.00
02258              -2.00    -7400.00
02259              -1.20    -7600.00
02260              -1.00    -7400.00
02261              -2.00    -7400.00
02262              -1.80    -7600.00
02263              -0.80    -7600.00
02264              -1.40    -7600.00
02265              -2.00    -7600.00
02266              -1.00    -7600.00
02267              -0.60    -7600.00
02268              -2.20    -7600.00
02269              -1.40    -7800.00
02270              -0.60    -7800.00
02271              -1.80    -8000.00
02272              -2.20    -7800.00
02273              -1.20    -7600.00
02274              -1.80    -7800.00
02275              -1.80    -8000.00
02276              -1.20    -7800.00
02277              -1.20    -8000.00
02278              -1.80    -8000.00
02279              -0.80    -8000.00
02280              -1.80    -8000.00
02281              -2.00    -8000.00
02282              -1.40    -8000.00
02283              -1.40    -8000.00
02284              -1.80    -8000.00
02285              -1.20    -8000.00
02286              -1.60    -8000.00
02287              -1.40    -8000.00
02288              -1.00    -8000.00
02289              -1.40    -8000.00
02290              -1.20    -8000.00
02291              -1.40    -8000.00
02292              -1.80    -8000.00
02293              -1.00    -8200.00
02294              -1.20    -8000.00
02295              -1.60    -8200.00
02296              -1.40    -8000.00
02297              -1.00    -8000.00
02298              -1.80    -8000.00
02299              -1.80    -8000.00
02300              -1.00    -8200.00
02301              -1.80    -8200.00
02302              -1.40    -8200.00
02303              -1.00    -8200.00
02304              -1.40    -8000.00
02305              -1.20    -8000.00
02306              -1.20    -8200.00
02307              -1.20    -8000.00
02308              -1.20    -8000.00
02309              -1.40    -8200.00
02310              -1.40    -8000.00
02311              -1.00    -8000.00
02312              -1.40    -8200.00
02313              -1.20    -8200.00
02314              -1.20    -8000.00
02315              -1.20    -8200.00
02316              -2.00    -8000.00
02317              -1.00    -8000.00
02318              -0.80    -8000.00
02319              -2.20    -8000.00
02320              -1.20    -8000.00
02321              -0.40    -8200.00
02322              -2.40    -8000.00
02323              -1.60    -8000.00
02324              -0.40    -8000.00
02325              -2.00    -8000.00
02326              -2.20    -8000.00
02327              -0.60    -8000.00
02328              -1.60    -8000.00
02329              -2.20    -8000.00
02330              -0.60    -8000.00
02331              -1.00    -7800.00
02332              -2.20    -8000.00
02333              -1.00    -8000.00
02334              -1.00    -7800.00
02335              -2.00    -7800.00
02336              -1.80    -7800.00
02337              -1.00    -8000.00
02338              -1.80    -7600.00
02339              -2.00    -7800.00
02340              -1.00    -7600.00
02341              -1.40    -7600.00
02342              -1.80    -7800.00
02343              -1.20    -7600.00
02344              -1.20    -7600.00
02345              -1.80    -7600.00
02346              -1.40    -7600.00
02347              -1.00    -7600.00
02348              -1.40    -7600.00
02349              -1.40    -7400.00
02350              -1.20    -7400.00
02351              -1.40    -7400.00
02352              -1.40    -7400.00
02353              -1.40    -7400.00
02354              -1.20    -7400.00
02355              -1.20    -7200.00
02356              -1.20    -7200.00
02357              -1.20    -7200.00
02358              -1.20    -7400.00
02359              -1.20    -7200.00
02360              -1.20    -7200.00
02361              -0.80    -7200.00
02362              -1.20    -7200.00
02363              -1.20    -7000.00
02364              -1.20    -7200.00
02365              -1.20    -7200.00
02366              -1.40    -7000.00
02367              -1.20    -7200.00
02368              -1.20    -7000.00
02369              -1.20    -6800.00
02370              -1.80    -6800.00
02371              -0.60    -6800.00
02372              -0.60    -6800.00
02373              -1.80    -6800.00
02374              -1.00    -6600.00
02375              -0.20    -6600.00
02376              -1.80    -6600.00
02377              -1.20    -6600.00
02378              -0.40    -6600.00
02379              -1.40    -6600.00
02380              -1.40    -6600.00
02381              -0.40    -6600.00
02382              -1.20    -6200.00
02383              -1.40    -6400.00
02384              -1.00    -6200.00
02385              -1.00    -6200.00
02386              -1.40    -6200.00
02387              -1.00    -6400.00
02388              -1.00    -6400.00
02389              -1.20    -6000.00
02390              -1.00    -6000.00
02391              -1.00    -6000.00
02392              -1.40    -6000.00
02393              -1.20    -6000.00
02394              -1.20    -5800.00
02395              -1.20    -5800.00
02396              -1.20    -5800.00
02397              -1.20    -5800.00
02398              -1.00    -5800.00
02399              -0.80    -5600.00
02400              -1.20    -5600.00
02401              -1.20    -5600.00
02402              -0.80    -5400.00
02403              -1.20    -5400.00
02404              -2.00    -5400.00
02405              -0.60    -5200.00
02406              -0.60    -5200.00
02407              -1.80    -5200.00
02408              -1.20    -5200.00
02409              -0.80    -5200.00
02410              -1.40    -5000.00
02411              -1.20    -5000.00
02412              -1.00    -5000.00
02413              -1.20    -5000.00
02414              -1.00    -4600.00
02415              -1.00    -4600.00
02416              -0.60    -4600.00
02417              -0.60    -4600.00
02418              -1.20    -4600.00
02419              -1.40    -4600.00
02420              -0.40    -4400.00
02421              -1.20    -4400.00
02422              -0.40    -4400.00
02423              -1.00    -4200.00
02424              -1.20    -4400.00
02425              -0.20    -4200.00
02426              -1.20    -4200.00
02427              -2.00    -4200.00
02428               0.20    -4000.00
02429              -1.00    -4000.00
02430              -1.40    -4000.00
02431               0.20    -4000.00
02432              -0.60    -4000.00
02433              -1.20    -3800.00
02434              -0.40    -3600.00
02435              -0.80    -3600.00
02436              -1.20    -3600.00
02437              -0.40    -3400.00
02438              -0.20    -3400.00
02439              -0.60    -3400.00
02440              -0.60    -3400.00
02441              -0.40    -3400.00
02442              -1.00    -3200.00
02443              -1.00    -3200.00
02444              -0.60    -3200.00
02445              -0.60    -3000.00
02446              -0.40    -3000.00
02447              -0.60    -3000.00
02448              -0.60    -2800.00
02449              -0.40    -2800.00
02450              -1.20    -2800.00
02451              -1.00    -2600.00
02452               0.20    -2600.00
02453              -0.60    -2600.00
02454              -1.00    -2400.00
02455              -0.40    -2400.00
02456              -0.60    -2400.00
02457              -1.00    -2200.00
02458              -0.40    -2200.00
02459              -0.40    -2000.00
02460              -0.60    -2000.00
02461              -0.60    -2000.00
02462              -0.40    -1800.00
02463              -1.00    -2000.00
02464              -1.00    -1800.00
02465              -0.40    -1800.00
02466              -0.40    -1600.00
02467              -0.60    -1600.00
02468              -0.60    -1600.00
02469              -0.20    -1600.00
02470              -0.60    -1200.00
02471              -0.60    -1400.00
02472              -0.40    -1200.00
02473              -0.20    -1200.00
02474              -0.60    -1200.00
02475              -0.40    -1200.00
02476              -0.60    -1000.00
02477              -0.60    -1000.00
02478              -0.20    -1000.00
02479              -0.20     -800.00
02480              -0.60     -800.00
02481              -0.40     -600.00
02482              -0.20     -600.00
02483              -0.20     -400.00
02484              -0.40     -400.00
02485              -0.20     -400.00
02486              -0.40     -400.00
02487              -0.60     -200.00
02488              -0.60     -200.00
02489              -0.40     -200.00
02490              -0.20     -200.00
02491              -0.60     -200.00
02492               0.20        0.00
02493               0.60        0.00
02494               0.40        0.00
02495               0.60      200.00
02496               0.00      200.00
02497              -0.40      200.00
02498               0.20      600.00
02499               0.40      400.00
02500               1.00      600.00
02501               6.20      800.00
02502              13.40     1000.00
02503             -12.60     1200.00
02504             -25.00      800.00
02505              -8.40      600.00
02506              25.00     1200.00
02507              25.00     1200.00
02508             -25.00     1200.00
02509               0.40     1200.00
02510              25.00     1800.00
02511             -25.00     1000.00
02512             -25.00     1600.00
02513              25.00     1400.00
02514              25.00     1800.00
02515             -25.00     1400.00
02516              22.60     2000.00
02517              25.00     1800.00
02518             -25.00     1800.00
02519             -25.00     2000.00
02520              25.00     2000.00
02521              -4.40     2000.00
02522             -25.00     2400.00
02523              25.00     2000.00
02524              25.00     2200.00
02525             -25.00     2400.00
02526             -25.00     2400.00
02527              25.00     2200.00
02528              18.20     2800.00
02529             -25.00     2400.00
02530              10.60     2400.00
02531              25.00     2800.00
02532             -25.00     2800.00
02533             -25.00     2800.00
02534              25.00     2800.00
02535             -13.20     3000.00
02536             -25.00     3000.00
02537              25.00     3200.00
02538              21.00     3200.00
02539             -25.00     3200.00
02540              19.40     3000.00
02541              25.00     3400.00
02542             -25.00     3400.00
02543             -11.60     3200.00
02544              25.00     3400.00
02545             -10.00     3600.00
02546             -23.80     3600.00
02547              22.80     3600.00
02548               6.80     3800.00
02549             -21.00     4000.00
02550               7.60     4000.00
02551              12.60     4000.00
02552             -11.40     4000.00
02553              -4.40     4000.00
02554              12.60     4200.00
02555               0.00     4000.00
02556             -10.20     4400.00
02557               5.00     4400.00
02558               9.00     4400.00
02559              -8.40     4400.00
02560              -2.20     4600.00
02561              10.00     4600.00
02562              -2.20     4800.00
02563              -7.00     4600.00
02564               7.80     4800.00
02565               2.20     4600.00
02566              -7.40     4800.00
02567               3.20     4800.00
02568               6.20     5000.00
02569              -5.40     4800.00
02570              -0.40     5000.00
02571               6.20     5200.00
02572              -1.40     5200.00
02573              -3.20     5400.00
02574               4.20     5200.00
02575               2.00     5400.00
02576              -2.80     5400.00
02577               1.20     5400.00
02578               2.80     5600.00
02579              -1.20     5600.00
02580              -0.60     5600.00
02581               2.60     5600.00
02582               0.60     5600.00
02583              -1.20     5600.00
02584               1.40     5800.00
02585               2.00     6000.00
02586              -1.40     5800.00
02587               0.20     6000.00
02588               1.80     6000.00
02589               0.20     6000.00
02590              -0.40     6000.00
02591               1.80     6200.00
02592               0.40     6200.00
02593               0.20     6200.00
02594               0.60     6200.00
02595               0.40     6400.00
02596              -0.40     6200.00
02597               1.00     6400.00
02598               1.00     6400.00
02599               0.00     6400.00
02600               0.20     6400.00
02601               1.00     6600.00
02602               0.40     6400.00
02603               0.40     6800.00
02604               1.00     6600.00
02605               1.00     6600.00
02606               0.40     6800.00
02607               0.40     6600.00
02608               1.00     6800.00
02609               0.20     6800.00
02610               0.40     7000.00
02611               1.00     6800.00
02612               1.00     7000.00
02613               0.20     7000.00
02614               1.00     7000.00
02615               1.00     7000.00
02616               0.60     7000.00
02617               0.60     7000.00
02618               1.20     7200.00
02619               0.40     7000.00
02620               0.60     7200.00
02621               1.40     7200.00
02622               1.00     7200.00
02623               0.20     7200.00
02624               1.00     7200.00
02625               1.80     7400.00
02626               0.40     7600.00
02627               0.60     7400.00
02628               1.40     7400.00
02629               1.00     7600.00
02630               0.20     7600.00
02631               1.00     7600.00
02632               1.20     7600.00
02633               0.40     7800.00
02634               1.00     7600.00
02635               1.80     7600.00
02636               0.60     7600.00
02637               1.00     7800.00
02638               1.20     7800.00
02639               1.00     7600.00
02640               0.60     7800.00
02641               1.60     7800.00
02642               0.80     7800.00
02643               0.60     7800.00
02644               1.00     8000.00
02645               1.20     7800.00
02646               0.80     7800.00
02647               1.20     7800.00
02648               1.40     8000.00
02649               1.00     7800.00
02650               0.40     8000.00
02651               1.00     7800.00
02652               1.80     8000.00
02653               0.40     8200.00
02654               1.00     8000.00
02655               1.00     8200.00
02656               0.80     7800.00
02657               0.40     8000.00
02658               1.20     8000.00
02659               1.00     8000.00
02660               0.60     8000.00
02661               1.00     8200.00
02662               1.20     8000.00
02663               1.00     8000.00
02664               0.60     8200.00
02665               1.00     8000.00
02666               1.00     8200.00
02667               1.00     8200.00
02668               0.80     8200.00
02669               1.00     8200.00
02670               0.60     8200.00
02671               0.40     8000.00
02672               1.20     8200.00
02673               1.00     8200.00
02674               0.60     8200.00
02675               0.60     8000.00
02676               1.00     8200.00
02677               1.00     8200.00
02678               1.00     8000.00
02679               0.80     8200.00
02680               1.20     8400.00
02681               1.20     8200.00
02682               0.40     8000.00
02683               1.40     8200.00
02684               1.60     8000.00
02685               0.20     8200.00
02686               1.00     8200.00
02687               2.00     8000.00
02688               0.20     8200.00
02689               0.60     8200.00
02690               1.80     8000.00
02691               0.60     8000.00
02692               0.40     7800.00
02693               1.80     8200.00
02694               1.00     8000.00
02695               0.60     8000.00
02696               1.40     8200.00
02697               1.00     8000.00
02698               0.80     7800.00
02699               1.00     7800.00
02700               1.20     8000.00
02701               1.00     8000.00
02702               1.20     7800.00
02703               1.20     8000.00
02704               0.20     7800.00
02705               1.00     7800.00
02706               1.20     7800.00
02707               0.20     7800.00
02708               1.20     7800.00
02709               1.40     8000.00
02710               0.80     7800.00
02711               0.40     7800.00
02712               1.00     7800.00
02713               1.20     7600.00
02714               0.60     7600.00
02715               0.40     7600.00
02716               1.20     7600.00
02717               1.00     7600.00
02718               0.40     7600.00
02719               0.60     7400.00
02720               1.00     7600.00
02721               0.60     7600.00
02722               0.20     7600.00
02723               0.60     7200.00
02724               1.00     7400.00
02725               0.20     7400.00
02726               1.00     7200.00
02727               1.20     7400.00
02728               0.40     7200.00
02729               0.60     7200.00
02730               1.00     7200.00
02731               0.40     7200.00
02732               0.60     7000.00
02733               0.80     7200.00
02734               1.00     7200.00
02735               1.00     7200.00
02736               0.40     7000.00
02737               0.60     7000.00
02738               1.00     6800.00
02739               0.40     6800.00
02740               0.60     6800.00
02741               1.20     6800.00
02742               0.60     6800.00
02743               0.40     6800.00
02744               1.00     6800.00
02745               1.00     6800.00
02746               0.20     6600.00
02747               0.80     6600.00
02748               1.00     6600.00
02749               0.40     6400.00
02750               0.40     6400.00
02751               0.60     6400.00
02752               0.60     6600.00
02753               0.20     6400.00
02754               0.60     6400.00
02755               1.20     6200.00
02756               0.40     6200.00
02757               0.60     6200.00
02758               1.00     6200.00
02759               0.40     6200.00
02760               0.40     6000.00
02761               0.60     6000.00
02762               0.60     6000.00
02763               0.40     6000.00
02764               1.00     6000.00
02765               0.80     6000.00
02766               0.20     6000.00
02767               0.60     6000.00
02768               0.60     5800.00
02769               0.40     5600.00
02770               0.60     5600.00
02771               0.60     5600.00
02772               0.60     5600.00
02773               0.60     5400.00
02774               0.60     5600.00
02775               0.40     5400.00
02776               0.40     5400.00
02777               0.60     5200.00
02778               0.60     5400.00
02779               0.40     5200.00
02780               0.40     5200.00
02781               0.60     5000.00
02782               0.20     4800.00
02783               0.20     5000.00
02784               0.40     5000.00
02785               0.40     4800.00
02786               0.20     4800.00
02787               0.20     4600.00
02788               0.40     4600.00
02789               0.20     4600.00
02790              -0.20     4600.00
02791               0.40     4400.00
02792               0.20     4400.00
02793              -0.20     4400.00
02794               0.40     4200.00
02795               0.40     4400.00
02796               0.20     4400.00
02797               0.40     4000.00
02798               0.40     4000.00
02799              -0.20     4000.00
02800               0.40     4000.00
02801               0.40     4000.00
02802               0.00     4000.00
02803               0.20     3800.00
02804               0.40     3800.00
02805              -0.20     3600.00
02806               0.20     3600.00
02807               0.60     3600.00
02808               0.20     3600.00
02809               0.40     3400.00
02810               0.40     3400.00
02811              -0.20     3200.00
02812               0.40     3200.00
02813               0.20     3200.00
02814               0.00     3000.00
02815               0.40     3200.00
02816              -0.40     3000.00
02817               0.60     2800.00
02818               0.60     3000.00
02819              -0.40     2800.00
02820               0.20     2800.00
02821               1.00     2800.00
02822              -0.60     2600.00
02823              -0.20     2600.00
02824               1.00     2600.00
02825               0.00     2400.00
02826              -0.20     2400.00
02827               0.80     2400.00
02828               0.00     2200.00
02829              -0.20     2200.00
02830               0.40     2000.00
02831               0.20     2000.00
02832              -0.40     2000.00
02833               0.20     2000.00
02834               0.20     2000.00
02835               0.20     2000.00
02836               0.20     1800.00
02837              -0.20     1600.00
02838               0.20     1400.00
02839               0.20     1600.00
02840              -0.20     1400.00
02841              -0.20     1400.00
02842               0.40     1400.00
02843              -0.80     1200.00
02844              -0.20     1200.00
02845               0.20     1200.00
02846              -0.60     1000.00
02847              -0.40      800.00
02848               0.20     1000.00
02849              -0.40      800.00
02850              -0.80      600.00
02851              -0.20      600.00
02852               0.20      600.00
02853              -0.60      600.00
02854              -0.20      600.00
02855              -0.20      400.00
02856              -0.40      400.00
02857              -0.60      400.00
02858              -0.40      200.00
02859              -0.40      200.00
02860              -0.40        0.00
02861              -0.60        0.00
02862              -0.40        0.00
02863              -0.20        0.00
02864              -0.40     -200.00
02865               0.40     -200.00
02866               0.40     -400.00
02867              -1.00     -200.00
02868              -0.60     -400.00
02869              -0.20     -400.00
02870              -0.60     -400.00
02871               4.80     -400.00
02872              25.00     -800.00
02873             -12.60    -1000.00
02874             -25.00    -1200.00
02875             -23.40     -400.00
02876              25.00     -800.00
02877              25.00    -1200.00
02878             -25.00    -1200.00
02879             -20.40     -800.00
02880              25.00    -1400.00
02881              21.00    -1600.00
02882             -25.00     -800.00
02883              25.00    -1800.00
02884              25.00    -1600.00
02885             -25.00    -1600.00
02886             -25.00    -1400.00
02887              25.00    -1800.00
02888              25.00    -1800.00
02889             -25.00    -1600.00
02890              25.00    -2400.00
02891              25.00    -2000.00
02892             -25.00    -1800.00
02893               2.80    -2400.00
02894              25.00    -2400.00
02895             -25.00    -2000.00
02896             -25.00    -2400.00
02897              25.00    -2400.00
02898              25.00    -2400.00
02899             -25.00    -2400.00
02900             -25.00    -2600.00
02901              25.00    -2800.00
02902             -21.40    -2600.00
02903             -25.00    -2800.00
02904              25.00    -2800.00
02905              25.00    -3000.00
02906             -25.00    -2800.00
02907              25.00    -3000.00
02908              25.00    -3000.00
02909             -25.00    -3200.00
02910              -8.20    -3200.00
02911              25.00    -3400.00
02912             -25.00    -3200.00
02913             -25.00    -3400.00
02914              25.00    -3400.00
02915              14.60    -3400.00
02916             -25.00    -3600.00
02917              12.40    -3800.00
02918              25.00    -3600.00
02919             -25.00    -3600.00
02920             -11.20    -3800.00
02921              25.00    -4000.00
02922              -4.20    -4000.00
02923             -20.00    -4000.00
02924              10.20    -4200.00
02925              11.60    -4000.00
02926             -18.00    -4200.00
02927              -4.20    -4200.00
02928              16.20    -4200.00
02929              -7.60    -4200.00
02930             -13.20    -4400.00
02931              12.60    -4400.00
02932               2.80    -4600.00
02933             -15.60    -4400.00
02934               4.00    -4600.00
02935               9.20    -4800.00
02936             -13.00    -4800.00
02937              -2.80    -4800.00
02938              11.00    -4800.00
02939              -6.60    -4800.00
02940              -8.40    -5000.00
02941               8.40    -5000.00
02942               0.40    -5200.00
02943             -10.40    -5200.00
02944               2.60    -5200.00
02945               5.00    -5200.00
02946              -7.60    -5200.00
02947              -2.20    -5200.00
02948               5.20    -5400.00
02949              -3.60    -5400.00
02950              -5.80    -5600.00
02951               3.00    -5400.00
02952               1.20    -5600.00
02953              -5.80    -5600.00
02954              -0.60    -5800.00
02955               3.00    -5800.00
02956              -3.60    -5800.00
02957              -3.60    -6000.00
02958               2.00    -5800.00
02959              -0.80    -6000.00
02960              -3.80    -5800.00
02961               0.20    -6000.00
02962               0.40    -6000.00
02963              -3.00    -6000.00
02964              -1.20    -6000.00
02965               0.60    -6200.00
02966              -1.80    -6400.00
02967              -1.80    -6400.00
02968              -0.20    -6400.00
02969              -1.20    -6400.00
02970              -2.00    -6400.00
02971              -0.60    -6400.00
02972              -1.00    -6600.00
02973              -1.80    -6600.00
02974              -1.00    -6800.00
02975              -0.40    -6600.00
02976              -1.80    -6800.00
02977              -2.00    -6600.00
02978              -0.60    -6800.00
02979              -1.20    -6800.00
02980              -1.80    -6800.00
02981              -0.60    -6800.00
02982              -0.80    -6800.00
02983              -2.20    -6800.00
02984              -1.80    -7000.00
02985              -0.60    -7000.00
02986              -1.80    -7000.00
02987              -2.20    -7000.00
02988              -0.60    -7200.00
02989              -0.60    -7200.00
02990              -2.20    -7200.00
02991              -1.40    -7200.00
02992              -0.60    -7200.00
02993              -2.20    -7200.00
02994              -1.80    -7400.00
02995              -0.20    -7400.00
02996              -1.60    -7200.00
02997              -2.20    -7400.00
02998              -0.60    -7400.00
02999              -1.20    -7400.00
03000              -3.00    -7400.00
03001              -1.00    -7400.00
03002              -0.20    -7400.00
03003              -2.80    -7600.00
03004              -1.80    -7400.00
03005               0.80    -7600.00
03006              -2.20    -7600.00
03007              -2.80    -7600.00
03008               0.20    -7600.00
03009              -0.60    -7800.00
03010              -2.80    -7600.00
03011              -1.80    -7800.00
03012               0.20    -7800.00
03013              -1.60    -7800.00
03014              -3.40    -7800.00
03015              -0.40    -7800.00
03016              -0.20    -7800.00
03017              -3.00    -7600.00
03018              -1.20    -8000.00
03019               0.40    -8000.00
03020              -1.40    -7800.00
03021              -2.60    -8000.00
03022              -0.60    -7800.00
03023              -0.40    -8000.00
03024              -2.80    -8000.00
03025              -1.20    -8000.00
03026              -0.40    -8000.00
03027              -1.40    -8000.00
03028              -3.00    -8000.00
03029              -1.20    -8000.00
03030              -0.60    -8200.00
03031              -2.80    -8000.00
03032              -0.60    -8000.00
03033               0.20    -8000.00
03034              -1.80    -8200.00
03035              -1.80    -8000.00
03036              -1.40    -8000.00
03037              -1.40    -8200.00
03038              -2.60    -8000.00
03039              -0.60    -8000.00
03040              -0.60    -8200.00
03041              -2.00    -8000.00
03042              -1.00    -8000.00
03043              -1.40    -8200.00
03044              -2.20    -8200.00
03045              -2.00    -8000.00
03046              -1.20    -8200.00
03047              -1.20    -8000.00
03048              -2.00    -8000.00
03049              -1.00    -8200.00
03050              -1.20    -8000.00
03051              -2.20    -8000.00
03052              -1.80    -8200.00
03053              -1.00    -8000.00
03054              -2.00    -8000.00
03055              -1.40    -8200.00
03056              -1.00    -8000.00
03057              -1.80    -8000.00
03058              -2.00    -8200.00
03059              -1.20    -8000.00
03060              -2.00    -8000.00
03061              -2.20    -8000.00
03062              -1.00    -8000.00
03063              -1.20    -8000.00
03064              -2.00    -8000.00
03065              -1.20    -8000.00
03066              -1.20    -8000.00
03067              -2.00    -8000.00
03068              -1.80    -8000.00
03069              -1.20    -8000.00
03070              -1.20    -8000.00
03071              -2.00    -7600.00
03072              -1.00    -7800.00
03073              -1.20    -8000.00
03074              -1.80    -7800.00
03075              -1.20    -8000.00
03076              -1.00    -7800.00
03077              -1.40    -7800.00
03078              -1.40    -8000.00
03079              -1.20    -7600.00
03080              -1.20    -7800.00
03081              -1.80    -7600.00
03082              -1.00    -7600.00
03083              -1.00    -7600.00
03084              -1.80    -7600.00
03085              -1.40    -7600.00
03086              -0.60    -7400.00
03087              -1.40    -7600.00
03088              -1.20    -7600.00
03089              -1.20    -7600.00
03090              -1.00    -7400.00
03091              -1.40    -7400.00
03092              -2.00    -7400.00
03093              -0.40    -7400.00
03094              -1.20    -7600.00
03095              -1.80    -7200.00
03096              -1.40    -7400.00
03097              -0.20    -7200.00
03098              -2.20    -7400.00
03099              -1.80    -7200.00
03100              -0.20    -7200.00
03101              -1.00    -7200.00
03102              -2.00    -7200.00
03103              -0.40    -7200.00
03104              -1.20    -7200.00
03105              -3.00    -7000.00
03106              -1.80    -7200.00
03107               0.60    -7200.00
03108              -1.80    -7000.00
03109              -3.40    -7000.00
03110              -0.60    -7000.00
03111              -0.20    -6800.00
03112              -2.00    -6800.00
03113              -1.20    -6800.00
03114              -0.60    -6800.00
03115              -1.20    -6800.00
03116              -2.20    -6600.00
03117              -1.60    -6600.00
03118              -0.60    -6600.00
03119              -1.20    -6400.00
03120              -2.00    -6600.00
03121              -1.00    -6400.00
03122              -0.40    -6400.00
03123              -2.00    -6400.00
03124              -1.40    -6400.00
03125              -0.60    -6400.00
03126              -1.80    -6400.00
03127              -1.80    -6400.00
03128              -1.00    -6000.00
03129              -1.20    -6000.00
03130              -1.00    -6000.00
03131              -0.60    -6000.00
03132              -1.20    -6000.00
03133              -1.20    -6000.00
03134              -1.20    -6000.00
03135              -1.40    -5800.00
03136              -1.20    -5800.00
03137              -0.60    -5800.00
03138              -1.20    -5800.00
03139              -1.80    -5600.00
03140              -1.00    -5600.00
03141              -0.40    -5600.00
03142              -1.20    -5600.00
03143              -1.00    -5600.00
03144              -0.60    -5400.00
03145              -1.00    -5600.00
03146              -0.80    -5200.00
03147              -0.60    -5200.00
03148              -1.20    -5200.00
03149              -1.20    -5200.00
03150              -0.40    -5000.00
03151              -1.00    -5000.00
03152              -1.20    -5000.00
03153              -0.60    -5000.00
03154              -0.60    -5000.00
03155              -1.20    -4800.00
03156              -0.80    -4600.00
03157              -0.40    -4600.00
03158              -1.00    -4600.00
03159              -1.00    -4600.00
03160              -0.60    -4600.00
03161              -1.00    -4400.00
03162              -0.60    -4400.00
03163              -0.60    -4400.00
03164              -0.60    -4400.00
03165              -1.00    -4400.00
03166              -0.80    -4200.00
03167              -0.60    -4200.00
03168              -0.80    -4200.00
03169              -0.60    -4000.00
03170              -0.40    -4000.00
03171              -0.60    -4000.00
03172              -0.60    -4000.00
03173              -0.60    -4000.00
03174              -1.00    -3800.00
03175              -1.00    -3600.00
03176              -0.60    -3600.00
03177              -0.60    -3600.00
03178              -1.00    -3400.00
03179              -0.80    -3600.00
03180              -0.60    -3400.00
03181              -0.60    -3400.00
03182              -1.00    -3200.00
03183              -1.00    -3200.00
03184              -0.60    -3200.00
03185              -0.60    -3200.00
03186              -0.60    -3200.00
03187              -0.60    -3000.00
03188              -1.00    -2800.00
03189              -0.60    -2800.00
03190              -0.60    -2800.00
03191              -0.60    -2800.00
03192              -0.60    -2800.00
03193              -0.60    -2600.00
03194              -0.60    -2600.00
03195              -0.60    -2600.00
03196              -0.60    -2400.00
03197              -0.60    -2400.00
03198              -0.60    -2400.00
03199              -0.40    -2200.00
03200              -0.40    -2000.00
03201              -0.60    -2000.00
03202              -0.40    -2000.00
03203              -0.60    -1800.00
03204              -0.60    -2000.00
03205              -0.40    -1800.00
03206              -0.60    -1600.00
03207              -0.60    -1800.00
03208               0.20    -1800.00
03209              -0.60    -1600.00
03210              -0.40    -1600.00
03211              -0.20    -1400.00
03212              -0.60    -1400.00
03213              -1.00    -1400.00
03214              -0.20    -1200.00
03215              -0.20    -1000.00
03216              -0.60    -1000.00
03217              -0.60    -1000.00
03218              -0.20     -800.00
03219              -0.40     -800.00
03220              -0.60     -800.00
03221              -0.40     -800.00
03222              -0.20     -800.00
03223              -0.40     -800.00
03224              -0.40     -400.00
03225               0.20     -600.00
03226              -0.60     -400.00
03227              -0.40     -400.00
03228              -0.40     -400.00
03229              -0.40     -200.00
03230              -0.40     -200.00
03231               0.20        0.00
03232              -0.20        0.00
03233              -1.00        0.00
03234              -0.20        0.00
03235               0.40      200.00
03236               0.40      200.00
03237               0.60      400.00
03238              -1.00      400.00
03239              -0.40      400.00
03240               0.60      400.00
03241              -0.20      600.00
03242               1.00      600.00
03243              10.00      800.00
03244               9.40     1000.00
03245             -21.80      800.00
03246             -25.00     1000.00
03247               5.00      600.00
03248              25.00     1400.00
03249              -0.20     1200.00
03250             -25.00     1400.00
03251              25.00     1200.00
03252              25.00     1800.00
03253             -25.00     1000.00
03254             -25.00     1600.00
03255              25.00     1600.00
03256              20.60     1400.00
03257             -25.00     1800.00
03258              25.00     2000.00
03259              25.00     1600.00
03260             -25.00     1800.00
03261               5.80     2000.00
03262              25.00     2000.00
03263             -25.00     2000.00
03264             -25.00     2400.00
03265              25.00     2000.00
03266              25.00     2200.00
03267             -25.00     2400.00
03268              -1.40     2200.00
03269              25.00     2200.00
03270             -14.60     2800.00
03271             -25.00     2400.00
03272              25.00     2800.00
03273              25.00     2800.00
03274             -25.00     2800.00
03275               2.80     2800.00
03276              25.00     3000.00
03277             -25.00     3000.00
03278             -25.00     3000.00
03279              25.00     3200.00
03280             -12.40     3200.00
03281             -25.00     3200.00
03282              25.00     3200.00
03283              20.80     3400.00
03284             -25.00     3400.00
03285               9.80     3400.00
03286              25.00     3600.00
03287             -23.40     3800.00
03288             -11.00     3600.00
03289              25.00     3800.00
03290              -6.00     3600.00
03291             -16.40     4000.00
03292              13.60     3800.00
03293               6.40     4000.00
03294             -13.00     4000.00
03295               1.40     4000.00
03296              11.60     4000.00
03297              -3.80     4200.00
03298              -8.20     4400.00
03299               8.20     4400.00
03300               4.60     4400.00
03301              -9.60     4400.00
03302               2.20     4400.00
03303               9.40     4600.00
03304              -5.80     4400.00
03305              -4.00     4600.00
03306               9.00     4600.00
03307              -2.00     4800.00
03308              -6.20     4800.00
03309               5.80     4800.00
03310               3.60     4800.00
03311              -6.20     4800.00
03312               2.20     5200.00
03313               4.60     5000.00
03314              -3.60     5200.00
03315              -1.80     5200.00
03316               4.40     5400.00
03317               0.20     5400.00
03318              -1.80     5400.00
03319               1.80     5400.00
03320               1.40     5600.00
03321              -1.00     5400.00
03322              -0.40     5600.00
03323               2.00     5600.00
03324               0.60     5600.00
03325              -0.80     5600.00
03326               2.20     5800.00
03327               1.00     6000.00
03328              -1.00     6000.00
03329               1.00     6000.00
03330              -0.20     6000.00
03331               2.20     6200.00
03332              -0.40     6000.00
03333               1.20     6200.00
03334               1.00     6200.00
03335               1.00     6200.00
03336               0.40     6200.00
03337              -0.40     6400.00
03338               2.00     6200.00
03339               1.00     6400.00
03340              -0.80     6400.00
03341               1.80     6400.00
03342               0.80     6400.00
03343               1.00     6400.00
03344              -0.40     6600.00
03345               1.40     6800.00
03346               1.60     6600.00
03347              -0.60     6600.00
03348               1.00     6800.00
03349               2.40     6800.00
03350              -0.40     6800.00
03351              -0.40     6800.00
03352               2.60     6800.00
03353               1.00     7000.00
03354              -0.40     7000.00
03355               1.00     7000.00
03356               1.40     7000.00
03357               0.60     7000.00
03358               0.40     7200.00
03359               1.60     7000.00
03360               1.20     7000.00
03361               0.20     7000.00
03362               1.20     7200.00
03363               1.80     7200.00
03364               0.20     7200.00
03365               0.40     7200.00
03366               1.80     7200.00
03367               1.00     7200.00
03368              -0.40     7400.00
03369               0.60     7400.00
03370               1.80     7200.00
03371               1.00     7400.00
03372              -0.20     7600.00
03373               1.20     7600.00
03374               0.60     7600.00
03375              -0.20     7600.00
03376               1.80     7600.00
03377               2.00     7800.00
03378               0.40     7800.00
03379               0.40     7600.00
03380               1.40     7800.00
03381               0.20     7600.00
03382               0.20     7800.00
03383               1.40     7800.00
03384               1.00     7800.00
03385               0.40     8000.00
03386               0.80     7800.00
03387               1.00     7800.00
03388              -0.40     7600.00
03389               1.00     8000.00
03390               2.00     7800.00
03391               0.80     8000.00
03392               1.00     8200.00
03393               1.40     8000.00
03394               0.80     8000.00
03395               0.20     7800.00
03396               1.00     8000.00
03397               1.20     8200.00
03398               0.20     8000.00
03399               1.00     8000.00
03400               1.80     8000.00
03401               0.40     8200.00
03402               0.40     8200.00
03403               1.40     8000.00
03404               1.00     8000.00
03405               0.60     8000.00
03406               1.00     8200.00
03407               1.20     8000.00
03408               0.80     8200.00
03409               0.80     8000.00
03410               1.00     8200.00
03411               1.40     8000.00
03412               1.00     8000.00
03413               1.00     8200.00
03414               1.60     8000.00
03415               1.00     8000.00
03416               0.60     8200.00
03417               1.00     8200.00
03418               1.00     8200.00
03419               1.00     8000.00
03420               0.60     8200.00
03421               1.20     8000.00
03422               2.00     8200.00
03423               1.00     8000.00
03424               0.40     8000.00
03425               1.80     8200.00
03426               0.60     8200.00
03427               0.40     8000.00
03428               1.40     8200.00
03429               1.20     8000.00
03430               0.40     8200.00
03431               1.00     7800.00
03432               1.20     8000.00
03433               0.60     8000.00
03434               0.60     8000.00
03435               1.20     8200.00
03436               1.00     8000.00
03437               0.60     8000.00
03438               1.00     8200.00
03439               0.80     8000.00
03440               0.60     8200.00
03441               0.60     7800.00
03442               1.00     8000.00
03443               0.60     8000.00
03444               0.60     8000.00
03445               0.80     7800.00
03446               0.80     7800.00
03447               0.80     7800.00
03448               0.40     7800.00
03449               1.40     7800.00
03450               1.20     7800.00
03451               0.00     7800.00
03452               1.40     7800.00
03453               1.20     7600.00
03454              -0.60     7800.00
03455               1.20     7600.00
03456               1.40     7800.00
03457              -0.20     7600.00
03458               1.00     7600.00
03459               2.00     7600.00
03460               0.20     7600.00
03461               0.60     7600.00
03462               1.40     7600.00
03463               0.40     7600.00
03464               0.20     7400.00
03465               1.00     7400.00
03466               1.00     7200.00
03467               0.40     7400.00
03468               1.00     7200.00
03469               1.20     7200.00
03470               0.60     7200.00
03471               1.00     7200.00
03472               1.20     7200.00
03473               0.60     7200.00
03474               0.60     7200.00
03475               1.00     7000.00
03476               0.40     7200.00
03477               0.60     7000.00
03478               0.60     7000.00
03479               1.00     7000.00
03480               1.00     7000.00
03481               0.80     7000.00
03482               1.00     6800.00
03483               1.20     6800.00
03484               0.60     6800.00
03485               0.60     6800.00
03486               1.00     6800.00
03487               0.60     6800.00
03488               0.60     6600.00
03489               1.00     6600.00
03490               1.00     6800.00
03491               0.80     6600.00
03492               1.00     6400.00
03493               1.00     6400.00
03494               0.40     6400.00
03495               0.80     6400.00
03496               0.60     6200.00
03497               0.40     6200.00
03498               0.40     6200.00
03499               0.80     6200.00
03500               0.40     6200.00
03501               0.60     6200.00
03502               0.60     6000.00
03503               0.60     6000.00
03504               0.40     6000.00
03505               0.40     6000.00
03506               0.60     6000.00
03507               0.20     5800.00
03508               0.40     6000.00
03509               1.00     5800.00
03510              -0.20     5600.00
03511               0.40     5600.00
03512               1.20     5600.00
03513               0.00     5400.00
03514               0.20     5600.00
03515               1.40     5600.00
03516               0.20     5400.00
03517               0.20     5400.00
03518               1.00     5400.00
03519               0.60     5400.00
03520              -0.40     5200.00
03521               0.60     5200.00
03522               0.40     5000.00
03523               0.20     5200.00
03524               1.00     4800.00
03525               0.40     5000.00
03526               0.20     4800.00
03527               0.60     4800.00
03528               0.40     4800.00
03529              -0.20     4600.00
03530               0.60     4600.00
03531               0.40     4600.00
03532               0.40     4600.00
03533               0.40     4400.00
03534               0.40     4400.00
03535               0.20     4400.00
03536               0.40     4400.00
03537               0.40     4400.00
03538               0.40     4200.00
03539               0.60     4200.00
03540               0.40     4000.00
03541               0.20     4000.00
03542               0.60     4000.00
03543               0.40     3800.00
03544               0.20     3800.00
03545               0.40     3600.00
03546               0.40     3800.00
03547               0.40     3600.00
03548               0.40     3600.00
03549               0.40     3600.00
03550               0.40     3600.00
03551               0.20     3400.00
03552               0.40     3200.00
03553               0.20     3200.00
03554               0.20     3200.00
03555               0.20     3200.00
03556               0.20     3200.00
03557               0.20     3000.00
03558               0.20     3000.00
03559               0.20     3000.00
03560               0.20     2800.00
03561               0.20     2800.00
03562               0.00     2800.00
03563               0.40     2800.00
03564              -0.20     2600.00
03565               0.00     2400.00
03566               0.20     2600.00
03567              -0.20     2400.00
03568              -0.20     2200.00
03569               0.20     2200.00
03570              -0.20     2000.00
03571               0.00     2200.00
03572               0.00     2000.00
03573              -0.40     2000.00
03574              -0.20     2000.00
03575              -0.20     2000.00
03576              -0.40     1800.00
03577               0.20     1800.00
03578              -0.20     1800.00
03579              -0.40     1600.00
03580              -0.20     1800.00
03581              -0.40     1600.00
03582              -0.40     1400.00
03583              -0.20     1400.00
03584              -0.40     1400.00
03585              -0.20     1400.00
03586              -0.60     1200.00
03587              -0.40     1200.00
03588              -0.60     1200.00
03589               0.20     1000.00
03590              -0.20      800.00
03591              -0.60      800.00
03592               0.20      800.00
03593              -0.20      600.00
03594              -0.40      600.00
03595              -0.40      600.00
03596              -0.40      400.00
03597               0.00      400.00
03598              -0.60      400.00
03599              -0.60      400.00
03600               0.20      200.00
03601              -0.60      200.00
03602              -1.00        0.00
03603               0.20        0.00
03604               0.20     -200.00
03605              -0.40        0.00
03606               0.20     -200.00
03607               1.00     -200.00
03608              -0.20     -400.00
03609              -1.60     -200.00
03610               0.20     -400.00
03611               0.40     -400.00
03612              -0.40     -400.00
03613              10.00     -800.00
03614              24.20     -800.00
03615             -25.00    -1200.00
03616             -25.00    -1000.00
03617               8.20     -600.00
03618              25.00    -1000.00
03619               3.80    -1200.00
03620             -25.00     -800.00
03621              25.00    -1000.00
03622              25.00    -1200.00
03623             -25.00    -1600.00
03624             -25.00     -800.00
03625              25.00    -1800.00
03626              25.00    -1800.00
03627             -25.00    -1200.00
03628              -4.60    -1800.00
03629              25.00    -1800.00
03630             -25.00    -1800.00
03631             -25.00    -1800.00
03632              25.00    -2400.00
03633              25.00    -2000.00
03634             -25.00    -1800.00
03635              25.00    -2400.00
03636              25.00    -2200.00
03637             -25.00    -2000.00
03638             -25.00    -2400.00
03639              25.00    -2600.00
03640              25.00    -2400.00
03641             -25.00    -2600.00
03642              25.00    -2800.00
03643              25.00    -2800.00
03644             -25.00    -2800.00
03645             -25.00    -2800.00
03646              25.00    -2800.00
03647             -19.40    -2800.00
03648             -25.00    -3200.00
03649              25.00    -3200.00
03650              25.00    -3200.00
03651             -25.00    -3200.00
03652              25.00    -3200.00
03653              25.00    -3400.00
03654             -25.00    -3200.00
03655             -18.80    -3400.00
03656              25.00    -3600.00
03657             -11.60    -3400.00
03658             -25.00    -3600.00
03659              25.00    -3800.00
03660              13.80    -3600.00
03661             -25.00    -3800.00
03662               4.20    -4000.00
03663              21.20    -4000.00
03664             -14.00    -4000.00
03665             -12.60    -4200.00
03666              16.40    -4000.00
03667               3.20    -4200.00
03668             -18.80    -4200.00
03669               4.40    -4200.00
03670              13.20    -4200.00
03671             -13.40    -4400.00
03672              -6.00    -4400.00
03673              14.20    -4400.00
03674              -4.40    -4400.00
03675             -12.40    -4600.00
03676               9.00    -4600.00
03677               3.40    -4800.00
03678             -12.60    -4600.00
03679               3.80    -4800.00
03680               6.80    -4800.00
03681              -9.20    -5000.00
03682              -2.60    -5000.00
03683               7.60    -5000.00
03684              -4.60    -5000.00
03685              -6.20    -5200.00
03686               5.20    -5200.00
03687              -0.20    -5400.00
03688              -6.20    -5200.00
03689               2.60    -5400.00
03690               2.00    -5400.00
03691              -5.60    -5400.00
03692              -1.20    -5600.00
03693               2.60    -5600.00
03694              -2.20    -5600.00
03695              -3.40    -5800.00
03696               1.00    -5600.00
03697               0.20    -5800.00
03698              -3.00    -5800.00
03699              -1.40    -5800.00
03700               1.00    -6000.00
03701              -2.80    -6000.00
03702              -2.00    -6000.00
03703               0.40    -6000.00
03704              -1.60    -6000.00
03705              -2.80    -6200.00
03706               0.20    -6000.00
03707              -0.20    -6400.00
03708              -3.00    -6400.00
03709              -1.00    -6400.00
03710              -0.60    -6600.00
03711              -2.80    -6400.00
03712              -1.20    -6400.00
03713               0.40    -6600.00
03714              -1.40    -6600.00
03715              -2.60    -6600.00
03716              -0.40    -6600.00
03717              -0.60    -6600.00
03718              -2.60    -6800.00
03719              -0.60    -6600.00
03720              -0.40    -6800.00
03721              -1.80    -6800.00
03722              -2.00    -6800.00
03723              -0.40    -6800.00
03724              -1.20    -6800.00
03725              -2.20    -6800.00
03726              -1.20    -6800.00
03727              -0.40    -7200.00
03728              -1.40    -7000.00
03729              -1.40    -7200.00
03730              -0.60    -7200.00
03731              -1.20    -7200.00
03732              -2.20    -7200.00
03733              -1.00    -7200.00
03734              -0.40    -7200.00
03735              -1.60    -7400.00
03736              -1.40    -7200.00
03737              -0.40    -7200.00
03738              -1.40    -7400.00
03739              -1.80    -7400.00
03740              -0.40    -7400.00
03741              -1.00    -7400.00
03742              -2.20    -7400.00
03743              -1.00    -7400.00
03744              -0.60    -7400.00
03745              -2.20    -7600.00
03746              -1.20    -7600.00
03747              -0.40    -7600.00
03748              -1.60    -7600.00
03749              -1.60    -7600.00
03750              -0.60    -7600.00
03751              -1.20    -7600.00
03752              -2.00    -7600.00
03753              -1.20    -7600.00
03754              -1.20    -7800.00
03755              -2.00    -7800.00
03756              -1.80    -7600.00
03757              -0.60    -8000.00
03758              -1.80    -8000.00
03759              -2.00    -7800.00
03760              -1.20    -8000.00
03761              -1.40    -7800.00
03762              -1.20    -8000.00
03763              -0.60    -8000.00
03764              -2.20    -8000.00
03765              -1.80    -8000.00
03766              -1.20    -8000.00
03767              -1.40    -8000.00
03768              -2.00    -8000.00
03769              -2.00    -8000.00
03770              -1.00    -8000.00
03771              -1.00    -8000.00
03772              -2.80    -8000.00
03773              -1.80    -8000.00
03774               0.20    -8000.00
03775              -2.20    -8200.00
03776              -2.80    -8000.00
03777              -0.20    -8200.00
03778              -0.80    -8000.00
03779              -2.60    -8200.00
03780              -1.40    -8000.00
03781              -0.80    -8200.00
03782              -2.00    -8200.00
03783              -1.80    -8200.00
03784              -1.20    -8200.00
03785              -1.80    -8000.00
03786              -1.40    -8200.00
03787              -1.00    -8000.00
03788              -1.20    -8000.00
03789              -2.00    -8200.00
03790              -1.40    -8000.00
03791              -1.20    -8200.00
03792              -1.60    -8000.00
03793              -1.80    -8200.00
03794              -1.00    -8200.00
03795              -1.20    -8200.00
03796              -1.40    -8200.00
03797              -1.20    -8000.00
03798              -1.20    -8000.00
03799              -1.80    -8000.00
03800              -1.20    -8000.00
03801              -1.40    -8000.00
03802              -1.80    -8000.00
03803              -1.20    -8000.00
03804              -0.60    -8000.00
03805              -2.00    -8000.00
03806              -1.40    -8000.00
03807              -0.60    -8000.00
03808              -1.40    -8000.00
03809              -1.60    -7800.00
03810              -1.40    -8000.00
03811              -1.20    -8000.00
03812              -1.20    -7800.00
03813              -1.80    -8000.00
03814              -1.20    -8000.00
03815              -1.20    -7800.00
03816              -1.80    -8000.00
03817              -1.20    -7800.00
03818              -0.60    -8000.00
03819              -1.80    -8000.00
03820              -1.80    -7800.00
03821              -1.20    -7800.00
03822              -1.40    -7600.00
03823              -1.40    -7600.00
03824              -1.80    -7600.00
03825              -1.20    -7600.00
03826              -0.60    -7800.00
03827              -2.80    -7600.00
03828              -1.20    -7600.00
03829              -0.40    -7600.00
03830              -2.80    -7600.00
03831              -0.40    -7400.00
03832              -0.60    -7400.00
03833              -3.20    -7400.00
03834              -1.00    -7400.00
03835              -0.40    -7400.00
03836              -3.00    -7400.00
03837              -1.20    -7600.00
03838               0.20    -7400.00
03839              -2.40    -7200.00
03840              -2.20    -7400.00
03841               0.40    -7200.00
03842              -1.40    -7400.00
03843              -2.60    -7200.00
03844              -0.60    -7200.00
03845              -0.60    -7200.00
03846              -2.60    -7200.00
03847              -1.20    -7000.00
03848              -0.60    -7000.00
03849              -2.20    -7000.00
03850              -1.80    -6800.00
03851              -0.60    -7000.00
03852              -1.00    -6800.00
03853              -1.80    -6800.00
03854              -1.00    -6800.00
03855              -0.60    -6800.00
03856              -1.40    -6800.00
03857              -1.40    -6600.00
03858              -0.60    -6800.00
03859              -1.20    -6600.00
03860              -1.40    -6600.00
03861              -0.80    -6600.00
03862              -1.00    -6400.00
03863              -1.40    -6400.00
03864              -1.20    -6400.00
03865              -0.60    -6400.00
03866              -1.00    -6400.00
03867              -1.40    -6400.00
03868              -1.00    -6200.00
03869              -1.00    -6200.00
03870              -1.00    -6200.00
03871              -1.00    -6000.00
03872              -1.20    -6200.00
03873              -0.60    -6000.00
03874              -0.60    -6000.00
03875              -1.20    -6000.00
03876              -1.00    -5800.00
03877              -1.00    -5800.00
03878              -1.20    -5800.00
03879              -1.00    -5800.00
03880              -0.80    -5800.00
03881              -1.20    -5800.00
03882              -1.00    -5600.00
03883              -0.40    -5800.00
03884              -1.40    -5600.00
03885              -1.20    -5400.00
03886              -0.40    -5600.00
03887              -1.00    -5600.00
03888              -1.20    -5600.00
03889              -0.60    -5200.00
03890              -0.60    -5200.00
03891              -1.40    -5200.00
03892              -1.00    -5200.00
03893              -1.20    -5200.00
03894              -1.40    -5000.00
03895              -1.00    -5200.00
03896              -0.60    -5000.00
03897              -1.20    -4600.00
03898              -1.00    -4800.00
03899              -0.60    -4800.00
03900              -1.00    -4600.00
03901              -1.40    -4600.00
03902              -0.60    -4600.00
03903              -0.60    -4600.00
03904              -1.20    -4400.00
03905              -1.00    -4400.00
03906              -0.60    -4400.00
03907              -1.00    -4400.00
03908              -1.20    -4400.00
03909              -1.20    -4200.00
03910              -1.00    -4000.00
03911              -1.00    -4000.00
03912              -1.00    -4000.00
03913              -0.40    -4000.00
03914              -1.00    -4000.00
03915              -0.80    -4000.00
03916              -0.40    -3800.00
03917              -1.00    -3600.00
03918              -1.20    -3600.00
03919              -0.40    -3600.00
03920              -0.60    -3600.00
03921              -1.20    -3600.00
03922              -0.40    -3400.00
03923              -0.40    -3400.00
03924              -1.20    -3400.00
03925              -0.60    -3400.00
03926              -0.20    -3200.00
03927              -1.00    -3000.00
03928              -0.80    -3200.00
03929              -0.40    -3000.00
03930              -0.60    -2800.00
03931              -1.00    -2800.00
03932              -0.40    -2800.00
03933              -0.60    -2800.00
03934              -0.60    -2600.00
03935              -0.40    -2800.00
03936              -0.40    -2400.00
03937              -1.00    -2600.00
03938              -0.60    -2400.00
03939              -0.60    -2400.00
03940              -0.40    -2400.00
03941              -0.60    -2200.00
03942              -0.60    -2000.00
03943              -0.40    -2200.00
03944              -0.60    -2000.00
03945              -0.60    -2000.00
03946              -0.60    -1800.00
03947              -0.40    -1800.00
03948              -0.60    -1800.00
03949              -0.40    -1600.00
03950              -0.20    -1600.00
03951              -0.80    -1600.00
03952              -0.80    -1600.00
03953              -0.20    -1600.00
03954              -0.60    -1400.00
03955              -0.60    -1200.00
03956              -0.40    -1200.00
03957              -0.60    -1200.00
03958              -1.20    -1200.00
03959              -0.60    -1000.00
03960              -0.40    -1000.00
03961              -0.60     -800.00
03962              -0.40     -800.00
03963              -0.20     -800.00
03964              -1.00     -600.00
03965              -0.40     -600.00
03966               0.20     -600.00
03967              -0.80     -400.00
03968              -0.60     -400.00
03969              -0.20     -200.00
03970              -0.60     -200.00
03971              -0.60     -400.00
03972              -0.20     -200.00
03973              -0.40        0.00
03974              -1.00     -200.00
03975              -0.40        0.00
03976               0.40        0.00
03977              -0.20      200.00
03978               0.60      200.00
03979              -0.20      400.00
03980              -1.00      400.00
03981               0.20      400.00
03982               0.40      400.00
03983              -0.40      400.00
03984               2.60      600.00
03985              13.00      800.00
03986               2.40      800.00
03987             -25.00      800.00
03988             -22.40      800.00
03989              23.40      800.00
03990              25.00     1400.00
03991             -25.00     1000.00
03992             -25.00     1200.00
03993              25.00     1400.00
03994              25.00     1400.00
03995             -25.00     1200.00
03996               5.80     1400.00
03997              25.00     1800.00
03998             -25.00     1400.00
03999             -25.00     2000.00
04000              25.00     1800.00
04001              25.00     1800.00
04002             -25.00     2000.00
04003              25.00     2000.00
04004              25.00     2000.00
04005             -25.00     2200.00
04006             -14.00     2200.00
04007              25.00     2000.00
04008              -9.20     2400.00
04009             -25.00     2600.00
04010              25.00     2200.00
04011              25.00     2400.00
04012             -25.00     2800.00
04013             -25.00     2400.00
04014              25.00     2800.00
04015              11.80     2800.00
04016             -25.00     2800.00
04017              25.00     2800.00
04018              25.00     3000.00
04019             -25.00     3000.00
04020               4.20     3000.00
04021              25.00     3000.00
04022             -25.00     3200.00
04023             -25.00     3000.00
04024              25.00     3200.00
04025              -4.40     3200.00
04026             -25.00     3400.00
04027              25.00     3400.00
04028              18.80     3600.00
04029             -25.00     3600.00
04030               3.00     3600.00
04031              22.80     3800.00
04032             -15.60     3800.00
04033              -8.00     3800.00
04034              16.20     3800.00
04035              -0.80     4000.00
04036             -12.40     4000.00
04037               7.00     4000.00
04038               8.20     4000.00
04039              -8.60     4200.00
04040              -3.80     4200.00
04041              11.00     4400.00
04042              -1.00     4600.00
04043              -8.60     4400.00
04044               6.20     4400.00
04045               5.80     4600.00
04046              -8.20     4600.00
04047               0.80     4600.00
04048               8.00     4600.00
04049              -5.00     4800.00
04050              -3.00     4800.00
04051               7.00     4800.00
04052              -0.40     4800.00
04053              -4.80     5200.00
04054               4.40     5000.00
04055               2.80     5200.00
04056              -3.40     5400.00
04057               0.40     5200.00
04058               4.00     5400.00
04059              -1.80     5400.00
04060              -0.80     5600.00
04061               3.40     5400.00
04062               0.40     5400.00
04063              -2.00     5600.00
04064               1.80     5600.00
04065               2.40     5600.00
04066              -0.60     5800.00
04067               0.00     5600.00
04068               2.60     6000.00
04069               0.20     5800.00
04070              -1.00     6000.00
04071               2.00     6000.00
04072               1.60     6000.00
04073              -0.60     6000.00
04074               0.60     6200.00
04075               2.00     6000.00
04076              -0.40     6000.00
04077               0.20     6400.00
04078               1.80     6200.00
04079               1.00     6200.00
04080              -0.40     6400.00
04081               1.40     6400.00
04082               1.40     6400.00
04083              -0.40     6400.00
04084               0.20     6600.00
04085               1.60     6400.00
04086               0.20     6600.00
04087               0.20     6600.00
04088               1.40     6800.00
04089               1.00     6800.00
04090              -0.40     6600.00
04091               1.00     6800.00
04092               1.00     6800.00
04093              -0.20     6800.00
04094               0.40     6800.00
04095               1.60     6800.00
04096               0.40     7000.00
04097               0.40     7000.00
04098               1.40     7200.00
04099               0.40     7000.00
04100               0.20     7000.00
04101               1.20     7000.00
04102               1.00     7200.00
04103               0.20     7200.00
04104               1.00     7200.00
04105               1.20     7200.00
04106               0.20     7200.00
04107               0.40     7400.00
04108               1.20     7200.00
04109               0.40     7200.00
04110               0.40     7200.00
04111               1.20     7600.00
04112               1.40     7600.00
04113               0.20     7400.00
04114               0.60     7400.00
04115               1.40     7600.00
04116               1.20     7600.00
04117               0.00     7600.00
04118               1.40     7600.00
04119               1.20     7800.00
04120               0.20     7800.00
04121               1.40     7800.00
04122               1.40     7600.00
04123               0.40     7800.00
04124               1.00     7800.00
04125               1.40     7600.00
04126               0.00     7800.00
04127               0.40     7800.00
04128               1.80     7800.00
04129               1.20     7800.00
04130               0.20     8000.00
04131               0.40     8000.00
04132               1.00     8200.00
04133               1.80     8000.00
04134               1.00     8000.00
04135               1.20     7800.00
04136               0.80     8000.00
04137               0.20     8200.00
04138               1.00     8000.00
04139               1.20     8000.00
04140               0.60     8200.00
04141               1.40     8000.00
04142               1.20     8200.00
04143               0.60     8000.00
04144               1.00     8000.00
04145               1.20     8200.00
04146               0.40     8000.00
04147               1.00     8000.00
04148               2.60     8200.00
04149               0.40     8200.00
04150              -0.60     8000.00
04151               1.00     8200.00
04152               1.20     8000.00
04153               0.40     8200.00
04154               1.20     8200.00
04155               1.80     8200.00
04156               0.60     8000.00
04157               0.20     8200.00
04158               1.00     8000.00
04159               0.40     8200.00
04160               0.60     8000.00
04161               1.40     8200.00
04162               1.00     8200.00
04163               0.80     8000.00
04164               0.80     8200.00
04165               0.60     8000.00
04166               0.80     8200.00
04167               1.00     8000.00
04168               0.60     8200.00
04169               1.00     8000.00
04170               1.00     8200.00
04171               0.60     8200.00
04172               0.60     8000.00
04173               0.60     8200.00
04174               0.80     8200.00
04175               1.00     8000.00
04176               1.20     8000.00
04177               0.60     8200.00
04178               1.00     8200.00
04179               1.20     8000.00
04180               0.40     8000.00
04181               0.40     8200.00
04182               1.20     8000.00
04183               1.00     8000.00
04184               1.00     8000.00
04185               1.00     7800.00
04186               1.00     7800.00
04187               1.00     7800.00
04188               1.00     7800.00
04189               0.60     7800.00
04190               1.00     7800.00
04191               1.20     7800.00
04192               1.20     7800.00
04193               1.00     7800.00
04194               0.80     7800.00
04195               1.20     7600.00
04196               0.80     7600.00
04197               1.00     7600.00
04198               1.00     7600.00
04199               1.20     7800.00
04200               1.00     7600.00
04201               0.80     7600.00
04202               0.40     7400.00
04203               1.00     7600.00
04204               1.00     7600.00
04205               0.60     7400.00
04206               1.20     7400.00
04207               1.00     7400.00
04208               1.00     7600.00
04209               0.80     7200.00
04210               1.00     7400.00
04211               1.00     7200.00
04212               0.80     7200.00
04213               1.20     7200.00
04214               0.60     7200.00
04215               0.60     7000.00
04216               0.60     7200.00
04217               0.60     7000.00
04218               0.40     7000.00
04219               0.80     7000.00
04220               1.00     7000.00
04221               0.80     6800.00
04222               0.40     7000.00
04223               0.80     7000.00
04224               0.60     7000.00
04225               0.60     6800.00
04226               0.60     6800.00
04227               0.40     6800.00
04228               1.00     6800.00
04229               1.00     6800.00
04230               0.20     6800.00
04231               0.40     6600.00
04232               1.00     6800.00
04233               0.40     6400.00
04234               0.60     6600.00
04235               1.00     6400.00
04236               0.40     6400.00
04237               0.40     6400.00
04238               0.80     6200.00
04239               0.40     6200.00
04240               0.20     6200.00
04241               1.00     6200.00
04242               0.60     6000.00
04243               0.60     6200.00
04244               0.60     6000.00
04245               0.80     6200.00
04246               0.40     6000.00
04247               0.40     6000.00
04248               0.60     6000.00
04249               0.40     5800.00
04250               0.40     6000.00
04251               0.40     5800.00
04252               0.60     5800.00
04253               0.40     5600.00
04254               0.60     5600.00
04255               1.00     5600.00
04256               0.40     5600.00
04257               0.40     5400.00
04258               0.60     5400.00
04259               1.00     5400.00
04260               0.20     5400.00
04261               0.40     5400.00
04262               1.00     5200.00
04263               0.40     5200.00
04264               0.20     5000.00
04265               0.60     5200.00
04266               0.40     5000.00
04267               0.20     4800.00
04268               0.60     4800.00
04269               0.60     4800.00
04270               1.00     4800.00
04271               0.40     4800.00
04272               0.40     4600.00
04273               0.60     4600.00
04274               0.40     4600.00
04275               0.20     4400.00
04276               0.40     4400.00
04277               0.40     4400.00
04278               0.20     4200.00
04279               0.20     4400.00
04280               0.40     4200.00
04281               0.20     4000.00
04282               0.20     4000.00
04283               0.40     4000.00
04284               0.20     4000.00
04285               0.20     4000.00
04286               0.40     3800.00
04287               0.40     3800.00
04288               0.40     3800.00
04289              -0.20     3800.00
04290               0.20     3600.00
04291               0.20     3600.00
04292               0.20     3200.00
04293               0.20     3200.00
04294               0.00     3400.00
04295              -0.20     3200.00
04296               0.20     3200.00
04297               0.00     3200.00
04298              -0.20     3000.00
04299               0.20     3000.00
04300              -0.20     3000.00
04301               0.20     3000.00
04302               0.20     2800.00
04303               0.20     2800.00
04304              -0.20     2800.00
04305               0.40     2800.00
04306               0.00     2600.00
04307              -0.20     2600.00
04308               0.40     2400.00
04309              -0.40     2400.00
04310              -0.40     2400.00
04311               0.00     2400.00
04312              -0.20     2200.00
04313               0.20     2000.00
04314              -0.40     2200.00
04315               0.40     2000.00
04316              -0.20     2000.00
04317               0.20     2000.00
04318              -0.20     2000.00
04319              -0.20     1800.00
04320               0.20     1600.00
04321               0.20     1800.00
04322              -0.60     1600.00
04323               0.40     1400.00
04324               0.40     1600.00
04325              -0.60     1200.00
04326               0.40     1400.00
04327               0.20     1200.00
04328              -0.20     1000.00
04329              -0.40     1200.00
04330               0.40     1200.00
04331               0.20      800.00
04332               0.20      800.00
04333               1.20      800.00
04334              -6.20      800.00
04335               5.40      600.00
04336              -4.20      600.00
04337              -5.00      400.00
04338               8.40      600.00
04339              -4.60      400.00
04340               6.80      400.00
04341              -1.80      200.00
04342              -1.80      200.00
04343               0.20        0.00
04344              -3.20     -200.00
04345              -2.00        0.00
04346              -3.00     -200.00
04347               2.80     -200.00
04348               4.20     -200.00
04349              -0.20        0.00
04350              -1.20     -400.00
04351               3.00     -400.00
04352              -5.40     -400.00
04353               1.20     -400.00
04354              -2.80     -600.00
04355              16.40     -400.00
04356              18.20    -1000.00
04357             -25.00    -1000.00
04358             -25.00     -800.00
04359              25.00     -800.00
04360              25.00    -1000.00
04361             -25.00    -1600.00
04362             -25.00     -600.00
04363              25.00    -1400.00
04364              25.00    -1400.00
04365             -25.00    -1400.00
04366             -25.00    -1200.00
04367              25.00    -1600.00
04368              25.00    -1800.00
04369             -25.00    -1000.00
04370              25.00    -2000.00
04371              25.00    -2000.00
04372             -25.00    -1600.00
04373             -25.00    -2000.00
04374              25.00    -2200.00
04375             -21.20    -1800.00
04376             -25.00    -2000.00
04377              25.00    -2400.00
04378              25.00    -2000.00
04379             -25.00    -2200.00
04380               2.00    -2400.00
04381              25.00    -2400.00
04382             -25.00    -2400.00
04383             -25.00    -2600.00
04384              25.00    -2600.00
04385              25.00    -2600.00
04386             -25.00    -2800.00
04387              17.40    -2800.00
04388              25.00    -2800.00
04389             -25.00    -2800.00
04390             -25.00    -3200.00
04391              25.00    -3200.00
04392             -22.80    -3000.00
04393             -25.00    -3200.00
04394              25.00    -3200.00
04395              24.80    -3400.00
04396             -25.00    -3400.00
04397              11.60    -3600.00
04398              25.00    -3600.00
04399             -25.00    -3400.00
04400             -19.60    -3600.00
04401              25.00    -3600.00
04402              -5.40    -3600.00
04403             -25.00    -3800.00
04404              16.40    -4000.00
04405              13.20    -4000.00
04406             -20.40    -4000.00
04407              -3.60    -4000.00
04408              18.60    -4200.00
04409              -6.80    -4200.00
04410             -16.80    -4200.00
04411              12.20    -4200.00
04412               6.60    -4400.00
04413             -17.20    -4400.00
04414               2.20    -4600.00
04415              12.80    -4400.00
04416             -11.40    -4600.00
04417              -7.60    -4600.00
04418              12.40    -4600.00
04419              -4.40    -4800.00
04420             -11.60    -4800.00
04421               9.20    -4800.00
04422               2.60    -4600.00
04423             -11.80    -5000.00
04424               2.60    -5000.00
04425               6.60    -5000.00
04426              -8.60    -5000.00
04427              -3.80    -5200.00
04428               7.00    -5200.00
04429              -3.40    -5400.00
04430              -6.80    -5200.00
04431               3.80    -5400.00
04432               0.60    -5600.00
04433              -6.20    -5600.00
04434              -0.40    -5600.00
04435               3.40    -5600.00
04436              -3.00    -5600.00
04437              -4.20    -5800.00
04438               2.00    -5600.00
04439               0.20    -6000.00
04440              -4.60    -6000.00
04441              -0.60    -5800.00
04442               1.80    -6000.00
04443              -3.00    -6000.00
04444              -2.20    -6000.00
04445               1.40    -6000.00
04446              -1.80    -6000.00
04447              -3.00    -6200.00
04448               0.40    -6200.00
04449              -0.60    -6200.00
04450              -1.80    -6400.00
04451              -0.60    -6400.00
04452              -0.80    -6400.00
04453              -2.00    -6400.00
04454              -1.00    -6600.00
04455              -0.80    -6600.00
04456              -2.00    -6600.00
04457              -1.40    -6400.00
04458              -0.40    -6600.00
04459              -0.60    -6600.00
04460              -2.00    -6600.00
04461              -1.40    -6800.00
04462              -0.20    -6800.00
04463              -1.80    -6800.00
04464              -1.60    -6800.00
04465              -0.20    -6800.00
04466              -1.00    -6800.00
04467              -2.20    -6800.00
04468              -1.20    -6800.00
04469              -0.60    -7000.00
04470              -1.80    -7000.00
04471              -1.40    -7200.00
04472              -0.40    -7000.00
04473              -1.40    -7200.00
04474              -2.00    -7200.00
04475              -0.80    -7400.00
04476              -1.20    -7400.00
04477              -2.20    -7400.00
04478              -0.60    -7200.00
04479              -0.60    -7400.00
04480              -2.20    -7400.00
04481              -1.20    -7400.00
04482              -1.20    -7400.00
04483              -2.00    -7400.00
04484              -2.00    -7400.00
04485              -1.20    -7400.00
04486              -1.20    -7600.00
04487              -2.00    -7400.00
04488              -0.60    -7600.00
04489              -1.40    -7600.00
04490              -2.20    -7600.00
04491              -1.20    -7600.00
04492              -0.60    -7600.00
04493              -2.20    -7600.00
04494              -1.20    -7800.00
04495              -0.80    -7800.00
04496              -2.00    -7800.00
04497              -2.00    -7800.00
04498              -1.80    -7800.00
04499              -1.20    -7800.00
04500              -1.20    -8000.00
04501              -1.40    -8000.00
04502              -1.20    -8000.00
04503              -1.80    -7600.00
04504              -1.00    -7800.00
04505              -0.60    -7800.00
04506              -2.20    -8000.00
04507              -1.20    -8000.00
04508              -0.80    -8000.00
04509              -1.80    -8000.00
04510              -1.80    -8000.00
04511              -1.20    -8000.00
04512              -1.80    -8000.00
04513              -1.40    -8000.00
04514              -1.20    -8000.00
04515              -1.40    -8000.00
04516              -1.20    -8000.00
04517              -1.80    -8000.00
04518              -1.20    -8000.00
04519              -1.20    -8000.00
04520              -1.40    -8000.00
04521              -1.80    -8000.00
04522              -1.20    -8000.00
04523              -1.60    -8000.00
04524              -1.80    -8000.00
04525              -1.20    -8200.00
04526              -1.40    -8000.00
04527              -1.80    -8200.00
04528              -1.20    -8200.00
04529              -1.20    -8000.00
04530              -1.40    -8000.00
04531              -1.40    -8200.00
04532              -1.20    -8200.00
04533              -1.40    -8000.00
04534              -1.60    -8000.00
04535              -1.40    -8200.00
04536              -1.20    -8200.00
04537              -1.80    -8000.00
04538              -1.80    -8200.00
04539              -1.20    -8000.00
04540              -1.80    -8200.00
04541              -1.80    -8000.00
04542              -1.40    -8000.00
04543              -1.60    -8000.00
04544              -1.80    -8000.00
04545              -1.20    -8000.00
04546              -1.60    -8000.00
04547              -1.80    -8000.00
04548              -1.40    -8000.00
04549              -1.40    -8000.00
04550              -1.40    -8000.00
04551              -1.40    -8000.00
04552              -1.80    -8000.00
04553              -1.20    -8000.00
04554              -1.40    -8000.00
04555              -1.80    -7800.00
04556              -1.40    -8000.00
04557              -1.40    -7800.00
04558              -1.20    -8000.00
04559              -1.40    -7800.00
04560              -1.40    -7600.00
04561              -1.40    -8000.00
04562              -1.40    -8000.00
04563              -1.40    -7600.00
04564              -1.40    -8000.00
04565              -1.40    -7600.00
04566              -1.20    -7600.00
04567              -1.20    -7800.00
04568              -1.40    -7600.00
04569              -1.40    -7600.00
04570              -1.20    -7600.00
04571              -1.60    -7600.00
04572              -1.40    -7400.00
04573              -1.60    -7600.00
04574              -1.20    -7400.00
04575              -1.40    -7400.00
04576              -1.40    -7400.00
04577              -1.60    -7400.00
04578              -1.20    -7400.00
04579              -1.20    -7400.00
04580              -1.20    -7200.00
04581              -1.20    -7400.00
04582              -1.00    -7200.00
04583              -1.20    -7200.00
04584              -1.20    -7200.00
04585              -1.20    -7200.00
04586              -1.00    -7000.00
04587              -1.00    -7200.00
04588              -1.20    -7200.00
04589              -1.80    -7200.00
04590              -0.60    -7200.00
04591              -1.20    -7200.00
04592              -1.80    -6800.00
04593              -0.60    -6800.00
04594              -1.20    -6800.00
04595              -1.40    -6800.00
04596              -0.60    -6800.00
04597              -0.80    -6600.00
04598              -2.00    -6800.00
04599              -1.00    -6600.00
04600              -0.20    -6600.00
04601              -2.00    -6600.00
04602              -1.80    -6600.00
04603               0.00    -6600.00
04604              -1.60    -6400.00
04605              -2.00    -6600.00
04606              -0.40    -6400.00
04607              -1.20    -6400.00
04608              -2.20    -6400.00
04609              -0.60    -6400.00
04610              -1.00    -6200.00
04611              -1.80    -6400.00
04612              -1.00    -6200.00
04613              -1.00    -6200.00
04614              -1.40    -6000.00
04615              -1.40    -6000.00
04616              -1.20    -6000.00
04617              -1.00    -6000.00
04618              -1.60    -6000.00
04619              -1.40    -5800.00
04620              -1.00    -6000.00
04621              -1.00    -5800.00
04622              -1.20    -5800.00
04623              -1.20    -5800.00
04624              -1.00    -5600.00
04625              -0.60    -5600.00
04626              -1.20    -5600.00
04627              -1.20    -5600.00
04628              -0.60    -5600.00
04629              -1.20    -5600.00
04630              -1.80    -5400.00
04631              -1.00    -5200.00
04632              -0.60    -5200.00
04633              -1.40    -5200.00
04634              -1.20    -5000.00
04635              -0.40    -5000.00
04636              -1.00    -5000.00
04637              -1.20    -5000.00
04638              -0.60    -4600.00
04639              -1.00    -4800.00
04640              -1.20    -4800.00
04641              -0.60    -4600.00
04642              -0.40    -4600.00
04643              -1.00    -4600.00
04644              -1.00    -4400.00
04645              -0.40    -4600.00
04646              -0.60    -4600.00
04647              -1.40    -4400.00
04648              -1.40    -4400.00
04649              -0.20    -4400.00
04650              -0.60    -4200.00
04651              -1.20    -4200.00
04652               0.20    -4400.00
04653              -0.40    -4000.00
04654              -1.80    -4200.00
04655              -0.60    -4000.00
04656              -0.40    -3800.00
04657              -1.20    -4000.00
04658              -0.60    -3600.00
04659              -0.40    -3800.00
04660              -1.00    -3600.00
04661              -0.60    -3600.00
04662              -0.60    -3400.00
04663              -1.40    -3400.00
04664              -0.60    -3200.00
04665              -0.40    -3400.00
04666              -1.00    -3400.00
04667              -0.60    -3200.00
04668              -0.60    -3200.00
04669              -1.20    -3200.00
04670              -0.60    -3200.00
04671              -0.60    -3000.00
04672              -1.00    -2800.00
04673              -1.00    -2800.00
04674              -0.60    -2800.00
04675              -0.40    -2800.00
04676              -1.00    -2800.00
04677              -0.60    -2600.00
04678              -0.60    -2600.00
04679              -0.60    -2400.00
04680              -1.20    -2400.00
04681              -0.60    -2400.00
04682              -0.60    -2400.00
04683              -0.60    -2200.00
04684              -0.60    -2000.00
04685              -0.60    -2000.00
04686              -0.60    -2000.00
04687              -0.60    -2000.00
04688              -0.60    -2000.00
04689              -0.60    -2000.00
04690              -0.80    -1800.00
04691              -0.60    -1800.00
04692              -0.40    -1600.00
04693              -0.60    -1600.00
04694              -0.60    -1600.00
04695              -0.20    -1600.00
04696              -0.80    -1200.00
04697              -0.60    -1400.00
04698              -0.60    -1200.00
04699              -0.60    -1200.00
04700              -0.40    -1200.00
04701              -0.60    -1000.00
04702              -0.40    -1000.00
04703              -0.20     -800.00
04704              -0.60     -800.00
04705              -0.60     -600.00
04706              -0.20     -600.00
04707              -0.40     -800.00
04708              -0.20     -600.00
04709              -0.20     -400.00
04710              -0.40     -400.00
04711              -0.40     -200.00
04712              -0.40     -400.00
04713              -0.20     -200.00
04714              -0.60     -200.00
04715              -0.40     -200.00
04716              -0.40        0.00
04717              -0.20        0.00
04718               0.40        0.00
04719               1.00      200.00
04720               1.00      400.00
04721              -0.60      200.00
04722              -0.60      400.00
04723               0.40      400.00
04724               0.20      600.00
04725               0.20      600.00
04726               4.60      800.00
04727              14.00      800.00
04728              -6.60     1200.00
04729             -25.00      800.00
04730             -14.20      800.00
04731              25.00      800.00
04732              25.00     1400.00
04733             -25.00     1200.00
04734             -25.00     1000.00
04735              25.00     1600.00
04736              17.00     1200.00
04737             -25.00     1800.00
04738              25.00     1200.00
04739              25.00     2000.00
04740             -25.00     1200.00
04741             -22.00     2000.00
04742              25.00     1600.00
04743             -25.00     1800.00
04744             -25.00     2000.00
04745              25.00     2000.00
04746              25.00     1800.00
04747             -25.00     2200.00
04748              25.00     2200.00
04749              25.00     2000.00
04750             -25.00     2400.00
04751             -25.00     2400.00
04752              25.00     2000.00
04753              25.00     2400.00
04754             -25.00     2600.00
04755             -11.00     2400.00
04756              25.00     2800.00
04757             -25.00     2800.00
04758             -25.00     2800.00
04759              25.00     2800.00
04760              10.00     3000.00
04761             -25.00     3000.00
04762              25.00     3000.00
04763              25.00     3200.00
04764             -25.00     3400.00
04765               3.60     3200.00
04766              25.00     3400.00
04767             -25.00     3200.00
04768             -23.20     3400.00
04769              25.00     3600.00
04770               0.20     3600.00
04771             -25.00     3600.00
04772              17.00     3600.00
04773              13.00     3600.00
04774             -20.40     3800.00
04775               2.60     3800.00
04776              14.00     3800.00
04777              -7.60     4000.00
04778              -7.00     3800.00
04779              10.60     4000.00
04780               3.00     4200.00
04781              -9.00     4200.00
04782               1.80     4200.00
04783               9.40     4200.00
04784              -5.80     4400.00
04785              -4.60     4400.00
04786               9.00     4600.00
04787               1.00     4600.00
04788              -8.60     4600.00
04789               6.00     4600.00
04790               4.60     4800.00
04791              -7.40     4800.00
04792               2.00     4800.00
04793               7.40     4800.00
04794              -4.40     5200.00
04795              -2.20     5200.00
04796               6.00     5200.00
04797               0.20     5200.00
04798              -3.60     5200.00
04799               2.40     5400.00
04800               2.80     5400.00
04801              -2.60     5400.00
04802               0.60     5400.00
04803               2.60     5600.00
04804              -0.60     5400.00
04805              -1.20     5600.00
04806               2.60     5600.00
04807               0.60     5600.00
04808              -1.40     5600.00
04809               1.20     5600.00
04810               1.80     5800.00
04811              -0.20     6000.00
04812               0.20     6000.00
04813               1.40     6000.00
04814               0.20     6000.00
04815              -0.80     6000.00
04816               1.20     6000.00
04817               1.20     6200.00
04818              -0.20     6200.00
04819               0.40     6200.00
04820               1.40     6200.00
04821               0.20     6200.00
04822              -0.20     6400.00
04823               1.20     6400.00
04824               0.60     6400.00
04825               0.40     6400.00
04826               0.60     6600.00
04827               1.20     6600.00
04828               0.40     6600.00
04829               0.40     6400.00
04830               0.80     6800.00
04831               1.00     6800.00
04832               0.40     6800.00
04833               1.00     6800.00
04834               0.40     6800.00
04835               0.20     6800.00
04836               1.00     7000.00
04837               1.20     7000.00
04838               0.20     7000.00
04839               0.60     7000.00
04840               1.20     7000.00
04841               0.60     7200.00
04842               0.40     7000.00
04843               1.20     7200.00
04844               1.20     7200.00
04845               0.40     7200.00
04846               1.00     7200.00
04847               1.00     7200.00
04848               0.40     7200.00
04849               0.60     7400.00
04850               1.60     7200.00
04851               0.80     7400.00
04852               0.40     7200.00
04853               1.20     7600.00
04854               1.20     7600.00
04855               0.40     7400.00
04856               1.00     7400.00
04857               1.20     7600.00
04858               0.60     7600.00
04859               0.60     7600.00
04860               1.40     7600.00
04861               1.00     7600.00
04862               0.60     7600.00
04863               1.20     7800.00
04864               1.00     7800.00
04865               0.40     7600.00
04866               1.00     7600.00
04867               0.60     7800.00
04868               0.40     7800.00
04869               1.00     7800.00
04870               1.20     7800.00
04871               1.00     7800.00
04872               0.60     8200.00
04873               1.00     7800.00
04874               0.80     7800.00
04875               0.60     8000.00
04876               0.40     8000.00
04877               1.40     8000.00
04878               1.00     8000.00
04879               1.00     8000.00
04880               0.60     7800.00
04881               0.40     8200.00
04882               0.20     8000.00
04883               1.00     8200.00
04884               1.20     8200.00
04885               0.40     8200.00
04886               0.40     8000.00
04887               1.40     8000.00
04888               1.00     8000.00
04889               0.20     8200.00
04890               1.20     8200.00
04891               1.40     8000.00
04892               0.40     8000.00
04893               1.00     8200.00
04894               1.40     8000.00
04895               1.00     8200.00
04896               0.40     8200.00
04897               1.00     8000.00
04898               1.00     8200.00
04899               0.60     8000.00
04900               1.00     8200.00
04901               1.00     8000.00
04902               0.60     8200.00
04903               0.60     8200.00
04904               1.40     8200.00
04905               1.20     8200.00
04906               0.60     8000.00
04907               1.20     8200.00
04908               1.20     8000.00
04909               1.00     8200.00
04910               0.80     8000.00
04911               1.00     8200.00
04912               1.20     8000.00
04913               0.60     8000.00
04914               0.20     8000.00
04915               1.60     8200.00
04916               1.20     8200.00
04917               0.40     8000.00
04918               1.40     8000.00
04919               1.00     8000.00
04920               1.20     8000.00
04921               1.00     8000.00
04922               0.60     7800.00
04923               2.00     8000.00
04924               0.40     8000.00
04925               0.60     8000.00
04926               0.60     7800.00
04927               1.20     8000.00
04928               0.80     7600.00
04929               0.60     8200.00
04930               1.00     7800.00
04931               1.00     7800.00
04932               0.80     7800.00
04933               0.60     7800.00
04934               1.20     7800.00
04935               0.80     7800.00
04936              -0.20     7800.00
04937               1.60     7600.00
04938               1.60     7600.00
04939              -1.00     7800.00
04940               0.80     7600.00
04941               2.60     7800.00
04942              -0.40     7400.00
04943               0.20     7800.00
04944               2.20     7600.00
04945               0.40     7600.00
04946              -0.40     7600.00
04947               1.00     7400.00
04948               1.00     7400.00
04949               0.40     7200.00
04950               0.40     7400.00
04951               1.40     7200.00
04952               1.80     7200.00
04953               0.60     7200.00
04954               0.20     7200.00
04955               1.40     7200.00
04956               1.00     7200.00
04957              -0.20     7200.00
04958               1.40     7000.00
04959               1.00     7200.00
04960              -0.20     7000.00
04961               1.40     7000.00
04962               1.00     7000.00
04963               0.20     7000.00
04964               0.20     6800.00
04965               1.20     7000.00
04966               1.20     6800.00
04967               0.60     7000.00
04968               0.60     6800.00
04969               1.80     6800.00
04970               0.60     6800.00
04971              -0.60     6800.00
04972               1.20     6600.00
04973               1.00     6800.00
04974               0.20     6400.00
04975               1.80     6600.00
04976               1.40     6400.00
04977               0.20     6600.00
04978               0.40     6400.00
04979               1.00     6400.00
04980               0.20     6200.00
04981               0.40     6400.00
04982               1.80     6200.00
04983               0.40     6000.00
04984               0.40     6200.00
04985               1.40     6200.00
04986               0.60     6000.00
04987               0.20     6000.00
04988               1.20     5800.00
04989               1.20     6000.00
04990               0.20     5800.00
04991               1.00     5800.00
04992               1.00     5800.00
04993               0.20     5600.00
04994               0.40     5600.00
04995               1.00     5600.00
04996               0.60     5600.00
04997               0.20     5400.00
04998               0.60     5400.00
04999               0.60     5400.00
05000              -0.20     5400.00
