Unit:(mV)
                     CH1         CH2
Frequency              ? 134.521 kHz
00001              -3.80    -4000.00
00002              -3.80    -4200.00
00003              -4.40    -4000.00
00004              -4.40    -4200.00
00005              -4.20    -4400.00
00006              -4.40    -4200.00
00007              -4.60    -4200.00
00008              -4.80    -4400.00
00009              -4.20    -4400.00
00010              -4.60    -4200.00
00011              -5.00    -4400.00
00012              -4.40    -4400.00
00013              -4.20    -4400.00
00014              -5.20    -4400.00
00015              -5.00    -4400.00
00016              -4.60    -4600.00
00017              -5.20    -4400.00
00018              -5.20    -4600.00
00019              -5.00    -4400.00
00020              -5.20    -4400.00
00021              -6.00    -4600.00
00022              -5.20    -4600.00
00023              -5.40    -4800.00
00024              -6.00    -4600.00
00025              -5.40    -4600.00
00026              -5.20    -4600.00
00027              -6.20    -4600.00
00028              -5.80    -4600.00
00029              -5.20    -4800.00
00030              -5.80    -4800.00
00031              -6.20    -4600.00
00032              -6.00    -4600.00
00033              -5.40    -4800.00
00034              -6.80    -4800.00
00035              -6.60    -4800.00
00036              -5.20    -4600.00
00037              -6.60    -4800.00
00038              -7.60    -4800.00
00039              -6.40    -4800.00
00040              -5.40    -4800.00
00041              -7.00    -5000.00
00042              -7.60    -4600.00
00043              -6.00    -5000.00
00044              -6.80    -4800.00
00045              -7.80    -4800.00
00046              -6.60    -4800.00
00047              -6.80    -5000.00
00048              -7.80    -4600.00
00049              -7.00    -5000.00
00050              -7.20    -5000.00
00051              -8.40    -5000.00
00052              -7.00    -5000.00
00053              -7.40    -5000.00
00054              -9.00    -4800.00
00055              -7.00    -5000.00
00056              -6.60    -5000.00
00057              -9.40    -5000.00
00058              -7.00    -5000.00
00059              -8.60    -4600.00
00060              -8.40    -5000.00
00061              -8.20    -4800.00
00062              -8.40    -5000.00
00063              -8.00    -5000.00
00064              -9.60    -5000.00
00065              -7.60    -5000.00
00066              -8.60    -5000.00
00067              -8.40    -5000.00
00068             -10.00    -5000.00
00069              -9.20    -5000.00
00070              -6.80    -5000.00
00071             -11.00    -5000.00
00072              -9.80    -5000.00
00073              -7.60    -5000.00
00074              -9.20    -5000.00
00075              -9.80    -5200.00
00076              -9.40    -5000.00
00077              -8.40    -5200.00
00078              -9.60    -4600.00
00079              -9.80    -5000.00
00080              -8.60    -4800.00
00081              -8.40    -5200.00
00082             -10.20    -5000.00
00083              -8.60    -5000.00
00084              -7.00    -5000.00
00085              -9.40    -5000.00
00086              -9.20    -5000.00
00087              -7.00    -5000.00
00088              -8.20    -4800.00
00089              -8.60    -5000.00
00090              -7.00    -5000.00
00091              -8.20    -4600.00
00092              -8.80    -5000.00
00093              -7.00    -4800.00
00094              -7.00    -4800.00
00095              -8.60    -4800.00
00096              -7.00    -4800.00
00097              -6.20    -5000.00
00098              -8.20    -4800.00
00099              -7.20    -4600.00
00100              -5.80    -5000.00
00101              -7.40    -4600.00
00102              -6.80    -4800.00
00103              -5.80    -4600.00
00104              -7.00    -4800.00
00105              -7.00    -4600.00
00106              -5.80    -4800.00
00107              -6.20    -4600.00
00108              -6.20    -4800.00
00109              -5.40    -4600.00
00110              -5.60    -4600.00
00111              -6.20    -4800.00
00112              -6.00    -4600.00
00113              -5.80    -4600.00
00114              -5.40    -4600.00
00115              -5.80    -4600.00
00116              -5.40    -4800.00
00117              -5.20    -4600.00
00118              -5.00    -4600.00
00119              -5.40    -4400.00
00120              -5.80    -4600.00
00121              -5.00    -4600.00
00122              -4.60    -4600.00
00123              -5.40    -4400.00
00124              -4.60    -4600.00
00125              -4.40    -4400.00
00126              -5.20    -4400.00
00127              -5.40    -4600.00
00128              -3.80    -4400.00
00129              -4.60    -4400.00
00130              -5.20    -4400.00
00131              -4.00    -4400.00
00132              -4.40    -4400.00
00133              -5.20    -4400.00
00134              -4.60    -4400.00
00135              -3.80    -4200.00
00136              -4.40    -4400.00
00137              -4.60    -4200.00
00138              -3.80    -4200.00
00139              -4.00    -4200.00
00140              -4.60    -4200.00
00141              -4.20    -4200.00
00142              -3.80    -4200.00
00143              -4.40    -4200.00
00144              -4.40    -4200.00
00145              -3.80    -4000.00
00146              -3.40    -4000.00
00147              -4.20    -4200.00
00148              -4.20    -4000.00
00149              -3.60    -4000.00
00150              -3.60    -4000.00
00151              -4.20    -4000.00
00152              -3.60    -4000.00
00153              -3.00    -4000.00
00154              -3.80    -3800.00
00155              -3.60    -4000.00
00156              -3.20    -3800.00
00157              -3.60    -3800.00
00158              -3.00    -3600.00
00159              -3.40    -3600.00
00160              -3.40    -3800.00
00161              -2.80    -3600.00
00162              -3.00    -3600.00
00163              -3.60    -3600.00
00164              -2.60    -3600.00
00165              -2.80    -3600.00
00166              -3.60    -3600.00
00167              -3.00    -3600.00
00168              -2.00    -3600.00
00169              -3.40    -3400.00
00170              -3.80    -3400.00
00171              -1.40    -3400.00
00172              -2.80    -3200.00
00173              -3.60    -3200.00
00174              -2.20    -3200.00
00175              -2.00    -3200.00
00176              -2.80    -3200.00
00177              -3.40    -3200.00
00178              -2.00    -3200.00
00179              -1.20    -3200.00
00180              -3.20    -3200.00
00181              -3.00    -3000.00
00182              -0.40    -3200.00
00183              -2.20    -3000.00
00184              -4.20    -3000.00
00185              -0.80    -2800.00
00186              -0.60    -2600.00
00187              -4.80    -2800.00
00188              -1.40    -2800.00
00189               0.20    -2600.00
00190              -3.80    -2600.00
00191              -2.80    -2800.00
00192              -0.20    -2800.00
00193              -2.20    -2600.00
00194              -3.20    -2600.00
00195              -0.40    -2800.00
00196              -1.40    -2600.00
00197              -2.20    -2400.00
00198              -1.60    -2400.00
00199              -2.00    -2600.00
00200              -2.00    -2400.00
00201              -2.00    -2400.00
00202              -2.20    -2400.00
00203              -1.20    -2400.00
00204              -1.20    -2400.00
00205              -2.20    -2200.00
00206              -1.80    -2200.00
00207              -1.20    -2000.00
00208              -1.80    -2000.00
00209              -1.80    -2000.00
00210              -1.20    -2000.00
00211              -1.40    -2000.00
00212              -1.80    -2000.00
00213              -1.40    -1800.00
00214              -1.20    -2000.00
00215              -1.80    -1800.00
00216              -2.00    -1800.00
00217              -1.20    -1800.00
00218              -1.20    -1600.00
00219              -1.80    -1600.00
00220              -1.80    -1600.00
00221              -0.60    -1600.00
00222              -1.00    -1600.00
00223              -1.80    -1600.00
00224              -1.20    -1600.00
00225              -0.60    -1400.00
00226              -1.20    -1200.00
00227              -1.20    -1200.00
00228              -0.60    -1200.00
00229              -1.20    -1200.00
00230              -1.40    -1200.00
00231              -0.60    -1200.00
00232              -0.60    -1000.00
00233              -1.20    -1000.00
00234              -1.20    -1000.00
00235              -0.60    -1000.00
00236              -0.60    -1000.00
00237              -1.20     -800.00
00238              -0.80     -800.00
00239              -0.20     -800.00
00240              -1.00     -800.00
00241              -1.00     -800.00
00242              -0.20     -600.00
00243              -0.40     -800.00
00244              -1.40     -600.00
00245              -0.60     -600.00
00246               0.20     -400.00
00247              -1.00     -400.00
00248              -1.00     -400.00
00249               0.20     -400.00
00250              -0.20     -200.00
00251              -1.00     -200.00
00252               0.00     -400.00
00253               0.20     -400.00
00254              -1.20     -200.00
00255              -0.40     -200.00
00256               0.40     -200.00
00257              -0.40        0.00
00258              -0.40        0.00
00259               0.40        0.00
00260               0.20        0.00
00261              -0.20      200.00
00262               0.40      200.00
00263               0.40      200.00
00264              -0.60      200.00
00265              -0.60      400.00
00266               0.40      400.00
00267               1.80      400.00
00268               9.40      600.00
00269               1.20      600.00
00270             -25.00      400.00
00271             -13.80      400.00
00272              25.00      800.00
00273              11.20      600.00
00274             -25.00      800.00
00275              -0.60      400.00
00276              25.00     1200.00
00277             -19.20      400.00
00278             -25.00     1200.00
00279              25.00      400.00
00280              25.00     1400.00
00281             -25.00      400.00
00282             -25.00     1400.00
00283              25.00      800.00
00284              25.00     1400.00
00285             -25.00      800.00
00286              25.00     1200.00
00287              25.00     1200.00
00288             -25.00     1400.00
00289             -25.00     1200.00
00290              25.00     1400.00
00291               1.40     1400.00
00292             -25.00     1800.00
00293              25.00     1400.00
00294              25.00     1400.00
00295             -25.00     1600.00
00296             -19.60     1800.00
00297              25.00     1600.00
00298             -19.40     1800.00
00299             -25.00     1800.00
00300              25.00     1600.00
00301              25.00     2000.00
00302             -25.00     2000.00
00303               8.20     2000.00
00304              25.00     1800.00
00305             -23.00     2200.00
00306             -25.00     2000.00
00307              25.00     2200.00
00308               5.80     2000.00
00309             -25.00     2200.00
00310              11.60     2000.00
00311              25.00     2400.00
00312             -24.60     2200.00
00313             -10.20     2400.00
00314              25.00     2200.00
00315              -4.20     2400.00
00316             -22.20     2200.00
00317              20.20     2400.00
00318              11.00     2400.00
00319             -22.00     2600.00
00320               8.80     2400.00
00321              17.00     2600.00
00322             -13.20     2800.00
00323              -4.00     2800.00
00324              18.20     2800.00
00325              -4.60     2800.00
00326              -7.40     2800.00
00327              10.60     2800.00
00328               5.80     2800.00
00329              -8.80     3000.00
00330               5.20     3000.00
00331               7.40     2800.00
00332              -3.00     3000.00
00333              -1.80     3000.00
00334               8.60     3000.00
00335               0.60     3000.00
00336              -2.80     3200.00
00337               5.20     3200.00
00338               5.20     3200.00
00339              -3.00     3200.00
00340               1.80     3200.00
00341               6.60     3200.00
00342              -0.20     3200.00
00343              -0.60     3400.00
00344               5.20     3200.00
00345               3.40     3200.00
00346              -1.40     3200.00
00347               3.80     3400.00
00348               4.20     3600.00
00349               0.60     3600.00
00350               1.40     3600.00
00351               5.20     3600.00
00352               1.40     3600.00
00353               1.20     3800.00
00354               3.40     3600.00
00355               3.40     3800.00
00356               1.00     3600.00
00357               3.40     3800.00
00358               3.60     3800.00
00359               2.20     4000.00
00360               2.40     3800.00
00361               3.80     3800.00
00362               2.80     3800.00
00363               2.60     3800.00
00364               3.80     4000.00
00365               3.40     4000.00
00366               2.60     4000.00
00367               3.00     4000.00
00368               4.40     4000.00
00369               2.80     4000.00
00370               2.80     4000.00
00371               4.40     4000.00
00372               4.20     4200.00
00373               2.20     4000.00
00374               4.40     4200.00
00375               4.40     4400.00
00376               2.60     4200.00
00377               3.40     4400.00
00378               6.00     4400.00
00379               3.00     4400.00
00380               3.40     4400.00
00381               5.40     4400.00
00382               4.40     4400.00
00383               3.00     4400.00
00384               5.20     4400.00
00385               5.00     4400.00
00386               3.60     4400.00
00387               4.20     4600.00
00388               5.80     4600.00
00389               4.20     4600.00
00390               3.80     4600.00
00391               5.80     4600.00
00392               4.60     4600.00
00393               4.40     4600.00
00394               5.00     4600.00
00395               5.60     4600.00
00396               4.40     4800.00
00397               5.00     4600.00
00398               5.40     4800.00
00399               5.20     4600.00
00400               4.40     4600.00
00401               5.40     4800.00
00402               6.00     4600.00
00403               5.20     4600.00
00404               5.00     4600.00
00405               6.40     4800.00
00406               5.80     4800.00
00407               4.80     4800.00
00408               6.20     4800.00
00409               6.80     4800.00
00410               5.40     4800.00
00411               6.20     4800.00
00412               6.80     4800.00
00413               6.60     4800.00
00414               5.60     4800.00
00415               6.80     4800.00
00416               6.80     4800.00
00417               6.20     5000.00
00418               6.80     5000.00
00419               7.60     4800.00
00420               6.60     5000.00
00421               6.20     4800.00
00422               7.80     5000.00
00423               7.40     5000.00
00424               6.60     5000.00
00425               7.60     5000.00
00426               7.60     5000.00
00427               7.00     5000.00
00428               7.40     5000.00
00429               8.20     5000.00
00430               7.60     5200.00
00431               7.80     5000.00
00432               8.40     5000.00
00433               7.80     5200.00
00434               7.80     5000.00
00435               8.40     5200.00
00436               8.20     5200.00
00437               8.20     5000.00
00438               8.60     5000.00
00439               8.40     5000.00
00440               8.60     5200.00
00441               9.00     5200.00
00442               8.60     5000.00
00443               9.00     5200.00
00444               8.60     5000.00
00445               9.00     5200.00
00446               8.40     5000.00
00447               9.00     5200.00
00448               8.60     5000.00
00449               8.80     5000.00
00450               8.60     5200.00
00451               8.60     5200.00
00452               8.40     5000.00
00453               8.60     5000.00
00454               8.40     5200.00
00455               8.40     5200.00
00456               8.20     4800.00
00457               7.60     5200.00
00458               8.20     5000.00
00459               7.80     5200.00
00460               7.40     4800.00
00461               7.40     5000.00
00462               7.20     4800.00
00463               7.00     5000.00
00464               7.40     5000.00
00465               6.80     5200.00
00466               6.80     5000.00
00467               6.80     4800.00
00468               6.40     5000.00
00469               6.60     4800.00
00470               6.80     5000.00
00471               6.00     4800.00
00472               6.20     4800.00
00473               6.80     4800.00
00474               5.60     4800.00
00475               5.20     4800.00
00476               6.80     4800.00
00477               6.60     4800.00
00478               4.60     4800.00
00479               5.40     4800.00
00480               7.40     4800.00
00481               4.40     4800.00
00482               4.60     4600.00
00483               6.60     4600.00
00484               5.40     4800.00
00485               4.40     4600.00
00486               5.20     4800.00
00487               5.80     4600.00
00488               5.20     4800.00
00489               4.60     4600.00
00490               5.60     4600.00
00491               4.40     4800.00
00492               4.60     4600.00
00493               5.60     4600.00
00494               3.60     4600.00
00495               4.20     4600.00
00496               4.60     4600.00
00497               5.00     4600.00
00498               3.80     4600.00
00499               4.40     4600.00
00500               5.00     4400.00
00501               4.00     4600.00
00502               3.60     4400.00
00503               4.20     4600.00
00504               4.40     4400.00
00505               3.60     4400.00
00506               4.20     4400.00
00507               4.40     4400.00
00508               4.00     4400.00
00509               3.00     4400.00
00510               3.80     4400.00
00511               4.20     4400.00
00512               3.40     4200.00
00513               3.80     4200.00
00514               3.40     4200.00
00515               3.00     4200.00
00516               4.40     4000.00
00517               3.60     4000.00
00518               2.60     4000.00
00519               3.80     4000.00
00520               4.20     4000.00
00521               2.60     4000.00
00522               2.80     4000.00
00523               3.60     4000.00
00524               3.00     3800.00
00525               2.60     3800.00
00526               3.00     3800.00
00527               2.80     3800.00
00528               3.00     3600.00
00529               2.60     3800.00
00530               2.00     3800.00
00531               2.80     3800.00
00532               3.60     3600.00
00533               2.40     3800.00
00534               2.60     3600.00
00535               3.40     3600.00
00536               1.80     3600.00
00537               1.00     3600.00
00538               4.40     3600.00
00539               3.40     3600.00
00540              -0.60     3600.00
00541               2.00     3600.00
00542               5.60     3400.00
00543               1.20     3200.00
00544              -0.40     3400.00
00545               4.40     3200.00
00546               2.80     3200.00
00547              -0.60     3200.00
00548               2.00     3200.00
00549               4.20     3200.00
00550               1.80     3200.00
00551               0.20     3200.00
00552               3.00     3200.00
00553               3.40     3000.00
00554               0.20     3000.00
00555               1.40     2800.00
00556               3.60     2800.00
00557               1.20     3000.00
00558               0.20     2800.00
00559               3.40     3000.00
00560               1.40     2800.00
00561               0.20     2800.00
00562               3.60     2800.00
00563               2.20     2800.00
00564              -0.60     2800.00
00565               2.60     2600.00
00566               3.00     2600.00
00567              -0.40     2600.00
00568               1.80     2600.00
00569               3.40     2400.00
00570               0.20     2400.00
00571              -0.20     2400.00
00572               3.40     2400.00
00573               1.80     2200.00
00574              -0.80     2200.00
00575               2.00     2200.00
00576               2.40     2200.00
00577               0.20     2200.00
00578               1.20     2200.00
00579               2.20     2000.00
00580               0.40     2200.00
00581               0.60     2000.00
00582               2.00     2000.00
00583               1.00     2000.00
00584               0.20     2000.00
00585               1.00     1800.00
00586               1.80     2000.00
00587               0.60     2000.00
00588               0.40     1800.00
00589               1.40     1600.00
00590               1.00     1800.00
00591              -0.20     1600.00
00592               0.80     1800.00
00593               1.00     1600.00
00594               0.40     1600.00
00595               0.40     1400.00
00596               1.00     1400.00
00597               0.20     1400.00
00598               0.00     1400.00
00599               1.00     1400.00
00600               0.60     1200.00
00601              -0.40     1200.00
00602               0.40     1200.00
00603               1.00     1000.00
00604              -0.60     1200.00
00605              -0.40     1000.00
00606               0.60     1000.00
00607               0.40      800.00
00608               0.20      800.00
00609               0.20      800.00
00610               0.20      800.00
00611               0.20      800.00
00612               0.00      800.00
00613              -0.20      600.00
00614               0.00      600.00
00615               0.20      600.00
00616              -0.20      600.00
00617              -0.20      600.00
00618               0.20      400.00
00619               0.20      400.00
00620              -0.60      400.00
00621               0.20      400.00
00622               0.60      400.00
00623              -0.60      200.00
00624              -0.40      400.00
00625               0.60      200.00
00626              -0.60        0.00
00627              -0.60        0.00
00628               0.20        0.00
00629               0.00        0.00
00630              -0.60        0.00
00631               0.20      200.00
00632               0.40        0.00
00633              -0.20        0.00
00634              -0.60     -200.00
00635               0.40     -200.00
00636              -0.20     -200.00
00637              -1.00     -200.00
00638               1.20     -400.00
00639              14.80     -400.00
00640               6.00     -600.00
00641             -25.00     -400.00
00642              -1.20     -400.00
00643              25.00     -400.00
00644               1.00     -400.00
00645             -25.00     -800.00
00646              19.80     -400.00
00647              25.00     -800.00
00648             -25.00     -800.00
00649             -25.00     -800.00
00650              25.00     -800.00
00651              25.00    -1000.00
00652             -25.00     -800.00
00653             -25.00     -800.00
00654              25.00    -1000.00
00655              25.00    -1400.00
00656             -25.00     -800.00
00657              25.00    -1400.00
00658              25.00    -1000.00
00659             -25.00    -1600.00
00660             -25.00    -1000.00
00661              25.00    -1600.00
00662              25.00    -1200.00
00663             -25.00    -1200.00
00664              25.00    -1600.00
00665              25.00    -1600.00
00666             -25.00    -1400.00
00667             -25.00    -1600.00
00668              25.00    -1600.00
00669              25.00    -1600.00
00670             -25.00    -1800.00
00671              25.00    -1800.00
00672              25.00    -1800.00
00673             -25.00    -1800.00
00674             -25.00    -1800.00
00675              25.00    -2000.00
00676              -6.00    -1800.00
00677             -25.00    -2000.00
00678              25.00    -2000.00
00679              25.00    -2000.00
00680             -25.00    -2000.00
00681             -11.80    -2000.00
00682              25.00    -2400.00
00683             -12.40    -2000.00
00684             -25.00    -2200.00
00685              25.00    -2400.00
00686              14.80    -2400.00
00687             -25.00    -2400.00
00688               5.80    -2600.00
00689              25.00    -2400.00
00690             -25.00    -2400.00
00691             -12.40    -2600.00
00692              25.00    -2600.00
00693              -9.20    -2600.00
00694             -18.80    -2600.00
00695              12.80    -2800.00
00696               3.40    -2600.00
00697             -16.40    -2800.00
00698               2.00    -2800.00
00699               6.60    -2800.00
00700              -8.40    -2800.00
00701              -6.80    -3000.00
00702               6.00    -2800.00
00703              -2.80    -2800.00
00704              -8.60    -3000.00
00705               2.00    -3200.00
00706               2.00    -2800.00
00707              -9.20    -3200.00
00708              -1.40    -3000.00
00709               3.40    -3200.00
00710              -6.60    -3200.00
00711              -5.40    -3400.00
00712               3.00    -3200.00
00713              -3.00    -3400.00
00714              -7.20    -3400.00
00715               0.80    -3400.00
00716              -0.40    -3400.00
00717              -7.00    -3400.00
00718              -2.80    -3400.00
00719               1.40    -3400.00
00720              -5.00    -3400.00
00721              -5.20    -3600.00
00722              -0.40    -3600.00
00723              -2.20    -3600.00
00724              -5.80    -3600.00
00725              -2.40    -3600.00
00726              -2.00    -3800.00
00727              -4.40    -3800.00
00728              -4.20    -3600.00
00729              -1.80    -4000.00
00730              -3.80    -3600.00
00731              -4.40    -3800.00
00732              -2.80    -3800.00
00733              -3.00    -4000.00
00734              -4.20    -4000.00
00735              -3.40    -4000.00
00736              -3.60    -4000.00
00737              -4.40    -4000.00
00738              -3.60    -4000.00
00739              -3.80    -4000.00
00740              -4.60    -4200.00
00741              -4.00    -4200.00
00742              -3.40    -4000.00
00743              -4.40    -4000.00
00744              -4.40    -4200.00
00745              -3.60    -4200.00
00746              -4.00    -4200.00
00747              -4.60    -4200.00
00748              -3.80    -4200.00
00749              -4.20    -4400.00
00750              -4.40    -4200.00
00751              -5.40    -4200.00
00752              -3.80    -4400.00
00753              -3.80    -4400.00
00754              -5.40    -4400.00
00755              -4.60    -4400.00
00756              -3.80    -4400.00
00757              -5.40    -4400.00
00758              -5.00    -4400.00
00759              -4.40    -4400.00
00760              -5.00    -4400.00
00761              -5.20    -4400.00
00762              -4.60    -4600.00
00763              -5.20    -4600.00
00764              -5.40    -4400.00
00765              -5.00    -4600.00
00766              -5.20    -4600.00
00767              -5.20    -4600.00
00768              -6.00    -4400.00
00769              -5.80    -4600.00
00770              -4.60    -4800.00
00771              -5.80    -4600.00
00772              -6.00    -4800.00
00773              -5.80    -4600.00
00774              -6.20    -4800.00
00775              -6.20    -4600.00
00776              -5.80    -4800.00
00777              -6.20    -4600.00
00778              -6.00    -4800.00
00779              -6.00    -5000.00
00780              -6.80    -4800.00
00781              -6.60    -5000.00
00782              -6.00    -5000.00
00783              -7.40    -4600.00
00784              -6.60    -4800.00
00785              -5.20    -4800.00
00786              -7.60    -4800.00
00787              -8.40    -5000.00
00788              -6.60    -5000.00
00789              -7.00    -5000.00
00790              -7.80    -4800.00
00791              -6.60    -5000.00
00792              -6.20    -5000.00
00793              -8.20    -5000.00
00794              -7.80    -5000.00
00795              -7.40    -5000.00
00796              -8.60    -4800.00
00797              -8.40    -5000.00
00798              -6.80    -5000.00
00799              -8.00    -4600.00
00800              -8.20    -5000.00
00801              -7.80    -5000.00
00802              -8.60    -5200.00
00803              -9.00    -5000.00
00804              -8.40    -5000.00
00805              -8.40    -5000.00
00806              -9.00    -5000.00
00807              -8.60    -5000.00
00808              -8.60    -5200.00
00809              -9.00    -5200.00
00810              -8.60    -5000.00
00811              -9.00    -5000.00
00812              -9.20    -5000.00
00813              -8.40    -5000.00
00814              -8.60    -5000.00
00815              -9.40    -5200.00
00816              -8.60    -5000.00
00817              -9.00    -5200.00
00818              -9.80    -5000.00
00819              -9.20    -5000.00
00820              -8.60    -5000.00
00821              -9.20    -5000.00
00822              -9.20    -5200.00
00823              -8.60    -5000.00
00824              -8.60    -5000.00
00825              -9.00    -5000.00
00826              -8.60    -5000.00
00827              -8.20    -5000.00
00828              -8.40    -5000.00
00829              -8.60    -5000.00
00830              -7.80    -5000.00
00831              -8.20    -5000.00
00832              -8.20    -5000.00
00833              -7.60    -5000.00
00834              -8.20    -5000.00
00835              -8.00    -5000.00
00836              -6.80    -5000.00
00837              -7.00    -5000.00
00838              -7.80    -4600.00
00839              -7.00    -5000.00
00840              -6.60    -5000.00
00841              -7.40    -4600.00
00842              -7.00    -4800.00
00843              -6.20    -4600.00
00844              -6.80    -4800.00
00845              -6.20    -4600.00
00846              -6.20    -4800.00
00847              -6.60    -5000.00
00848              -6.60    -4800.00
00849              -6.00    -4600.00
00850              -6.40    -4800.00
00851              -7.00    -4800.00
00852              -5.80    -5000.00
00853              -6.00    -4600.00
00854              -6.20    -4600.00
00855              -6.00    -4600.00
00856              -5.40    -4800.00
00857              -5.80    -4800.00
00858              -6.00    -4800.00
00859              -5.40    -4600.00
00860              -5.40    -4800.00
00861              -5.80    -4600.00
00862              -5.40    -4600.00
00863              -5.20    -4600.00
00864              -5.40    -4600.00
00865              -5.40    -4600.00
00866              -5.20    -4600.00
00867              -5.20    -4400.00
00868              -5.20    -4400.00
00869              -5.00    -4400.00
00870              -4.60    -4400.00
00871              -5.00    -4600.00
00872              -5.00    -4400.00
00873              -4.40    -4400.00
00874              -4.40    -4400.00
00875              -5.20    -4400.00
00876              -4.40    -4400.00
00877              -4.40    -4400.00
00878              -4.60    -4200.00
00879              -4.20    -4400.00
00880              -3.80    -4200.00
00881              -4.40    -4200.00
00882              -4.40    -4200.00
00883              -3.80    -4200.00
00884              -4.40    -4200.00
00885              -4.20    -4200.00
00886              -3.80    -4200.00
00887              -3.80    -4200.00
00888              -4.00    -4200.00
00889              -3.60    -4000.00
00890              -3.80    -4200.00
00891              -3.60    -4000.00
00892              -3.80    -4000.00
00893              -3.80    -4000.00
00894              -3.40    -4000.00
00895              -3.80    -4000.00
00896              -3.60    -3800.00
00897              -3.40    -4000.00
00898              -3.40    -4000.00
00899              -3.40    -4000.00
00900              -3.00    -3600.00
00901              -3.00    -3800.00
00902              -2.80    -3800.00
00903              -3.20    -3600.00
00904              -3.00    -3600.00
00905              -3.00    -3600.00
00906              -3.00    -3600.00
00907              -2.80    -3600.00
00908              -2.80    -3600.00
00909              -2.80    -3600.00
00910              -2.80    -3400.00
00911              -2.80    -3400.00
00912              -2.80    -3600.00
00913              -2.80    -3400.00
00914              -3.00    -3400.00
00915              -2.60    -3400.00
00916              -2.80    -3400.00
00917              -2.80    -3200.00
00918              -2.80    -3200.00
00919              -2.60    -3400.00
00920              -2.20    -3200.00
00921              -2.60    -3200.00
00922              -2.80    -3200.00
00923              -2.20    -3000.00
00924              -2.00    -3200.00
00925              -2.60    -3000.00
00926              -3.20    -3000.00
00927              -1.80    -2800.00
00928              -2.20    -2800.00
00929              -3.00    -2800.00
00930              -1.80    -2800.00
00931              -2.00    -2800.00
00932              -3.00    -2800.00
00933              -2.00    -2800.00
00934              -1.40    -2600.00
00935              -2.80    -2600.00
00936              -2.20    -2600.00
00937              -1.00    -2600.00
00938              -2.20    -2600.00
00939              -2.60    -2400.00
00940              -1.40    -2600.00
00941              -1.80    -2600.00
00942              -2.60    -2400.00
00943              -1.80    -2400.00
00944              -1.20    -2400.00
00945              -2.00    -2400.00
00946              -1.80    -2200.00
00947              -1.40    -2200.00
00948              -1.40    -2400.00
00949              -2.00    -2000.00
00950              -1.40    -2200.00
00951              -1.40    -2000.00
00952              -1.80    -2000.00
00953              -1.20    -2000.00
00954              -1.00    -2000.00
00955              -2.00    -2000.00
00956              -1.60    -1800.00
00957              -1.20    -2000.00
00958              -1.40    -1800.00
00959              -1.20    -1800.00
00960              -1.40    -1800.00
00961              -1.40    -1800.00
00962              -1.00    -1800.00
00963              -1.20    -1600.00
00964              -0.80    -1600.00
00965              -1.20    -1600.00
00966              -1.20    -1600.00
00967              -0.60    -1600.00
00968              -1.00    -1600.00
00969              -1.20    -1400.00
00970              -1.00    -1200.00
00971              -1.00    -1200.00
00972              -1.00    -1200.00
00973              -1.20    -1200.00
00974              -0.60    -1200.00
00975              -0.60    -1000.00
00976              -1.20    -1200.00
00977              -0.60    -1000.00
00978              -0.60    -1000.00
00979              -1.20    -1000.00
00980              -0.60    -1000.00
00981               0.20     -800.00
00982              -1.60     -800.00
00983              -0.60     -800.00
00984               0.20     -800.00
00985              -1.80     -800.00
00986              -0.60     -600.00
00987               0.20     -400.00
00988              -1.40     -800.00
00989              -0.60     -600.00
00990              -0.20     -600.00
00991              -1.00     -400.00
00992              -1.20     -400.00
00993              -0.20     -400.00
00994              -0.20     -200.00
00995              -0.80     -200.00
00996              -0.40     -200.00
00997              -0.20     -200.00
00998              -0.60     -200.00
00999              -0.60        0.00
01000              -0.80     -200.00
01001               0.00     -200.00
01002               0.20        0.00
01003              -1.00        0.00
01004              -0.20        0.00
01005               1.00      200.00
01006              -0.60        0.00
01007              -0.40        0.00
01008               0.40      400.00
01009              -0.60      200.00
01010               0.40      400.00
01011               5.60      400.00
01012              10.20      600.00
01013             -16.80      600.00
01014             -25.00      200.00
01015              25.00      600.00
01016              25.00      600.00
01017             -25.00      800.00
01018             -25.00      400.00
01019              25.00      800.00
01020              25.00      600.00
01021             -25.00     1000.00
01022             -14.80      400.00
01023              25.00     1400.00
01024               1.40      600.00
01025             -25.00     1400.00
01026              25.00      600.00
01027              25.00     1400.00
01028             -25.00      800.00
01029             -25.00     1400.00
01030              25.00     1200.00
01031             -10.00     1400.00
01032             -25.00     1200.00
01033              25.00     1400.00
01034              25.00     1400.00
01035             -25.00     1200.00
01036              -8.40     1800.00
01037              25.00     1400.00
01038             -24.40     1800.00
01039             -25.00     1400.00
01040              25.00     1600.00
01041              25.00     1600.00
01042             -25.00     2000.00
01043               4.60     1600.00
01044              25.00     1800.00
01045             -25.00     1800.00
01046             -25.00     2000.00
01047              25.00     1800.00
01048               6.60     2000.00
01049             -25.00     2000.00
01050              18.20     2000.00
01051              25.00     2000.00
01052             -25.00     2200.00
01053             -10.80     2000.00
01054              25.00     2200.00
01055              -2.60     2200.00
01056             -25.00     2200.00
01057              22.80     2200.00
01058              15.20     2200.00
01059             -24.60     2400.00
01060               2.60     2200.00
01061              25.00     2400.00
01062             -17.00     2400.00
01063              -6.60     2400.00
01064              20.60     2400.00
01065              -1.80     2800.00
01066             -14.80     2600.00
01067              14.80     2800.00
01068               6.00     2800.00
01069             -11.00     2800.00
01070               4.20     2800.00
01071              11.60     3000.00
01072              -6.00     2800.00
01073              -2.00     3000.00
01074               9.80     2800.00
01075               0.60     3000.00
01076              -4.40     2800.00
01077               5.80     3000.00
01078               6.00     3000.00
01079              -4.00     3000.00
01080               2.60     3200.00
01081               6.60     3200.00
01082               0.20     3200.00
01083              -2.00     3200.00
01084               7.00     3400.00
01085               2.60     3200.00
01086              -1.20     3200.00
01087               3.40     3200.00
01088               5.40     3600.00
01089              -1.00     3400.00
01090               2.00     3600.00
01091               5.00     3400.00
01092               2.20     3600.00
01093               0.20     3600.00
01094               5.00     3600.00
01095               3.40     3600.00
01096               0.40     3600.00
01097               2.80     3600.00
01098               4.40     3800.00
01099               2.00     3800.00
01100               2.00     3600.00
01101               4.20     3800.00
01102               3.00     3800.00
01103               2.20     3800.00
01104               3.00     3800.00
01105               4.20     3800.00
01106               2.20     4000.00
01107               3.20     3800.00
01108               3.80     4000.00
01109               3.40     4000.00
01110               2.40     3800.00
01111               4.40     4000.00
01112               2.80     4000.00
01113               2.80     4000.00
01114               3.40     4000.00
01115               4.00     4200.00
01116               2.80     4000.00
01117               3.60     4200.00
01118               3.80     4200.00
01119               3.40     4400.00
01120               3.40     4200.00
01121               4.20     4400.00
01122               3.80     4400.00
01123               3.00     4400.00
01124               4.20     4400.00
01125               4.20     4400.00
01126               3.60     4400.00
01127               3.80     4400.00
01128               4.40     4400.00
01129               3.40     4400.00
01130               4.60     4600.00
01131               4.20     4400.00
01132               4.40     4400.00
01133               4.60     4600.00
01134               4.40     4600.00
01135               4.20     4600.00
01136               5.80     4600.00
01137               4.20     4600.00
01138               4.40     4600.00
01139               5.80     4600.00
01140               5.20     4600.00
01141               4.20     4600.00
01142               6.20     4800.00
01143               5.40     4600.00
01144               4.20     4600.00
01145               6.00     4600.00
01146               5.80     4800.00
01147               4.60     4800.00
01148               5.40     4800.00
01149               6.80     4800.00
01150               5.60     4800.00
01151               5.80     4800.00
01152               6.60     4600.00
01153               6.60     4800.00
01154               5.80     4800.00
01155               6.00     5000.00
01156               6.60     4800.00
01157               6.60     4800.00
01158               6.00     4800.00
01159               6.60     4800.00
01160               6.80     5000.00
01161               6.80     5000.00
01162               6.80     4800.00
01163               7.60     5000.00
01164               7.00     4800.00
01165               7.20     4800.00
01166               7.20     5000.00
01167               7.00     5000.00
01168               7.60     4800.00
01169               7.60     4800.00
01170               7.60     5000.00
01171               7.80     5000.00
01172               8.20     4800.00
01173               7.20     4800.00
01174               7.40     5200.00
01175               8.20     5000.00
01176               8.20     4800.00
01177               7.40     4800.00
01178               8.20     5000.00
01179               8.40     5200.00
01180               8.20     5200.00
01181               8.40     5200.00
01182               8.80     5200.00
01183               8.40     5000.00
01184               7.80     4800.00
01185               8.80     5200.00
01186               8.60     5000.00
01187               8.40     5000.00
01188               9.00     5200.00
01189               9.00     5000.00
01190               7.80     5200.00
01191               8.40     5200.00
01192               9.20     5000.00
01193               8.20     5000.00
01194               8.20     5000.00
01195               9.20     5200.00
01196               8.40     5000.00
01197               7.40     5200.00
01198               8.40     5000.00
01199               8.60     5000.00
01200               7.40     4800.00
01201               7.60     4800.00
01202               8.20     5000.00
01203               7.60     5000.00
01204               7.40     5000.00
01205               7.40     5000.00
01206               7.40     5200.00
01207               6.80     5000.00
01208               7.40     4800.00
01209               7.00     5000.00
01210               6.60     4800.00
01211               6.60     4800.00
01212               6.80     4800.00
01213               6.20     5200.00
01214               6.80     4800.00
01215               6.80     4800.00
01216               6.20     5000.00
01217               6.20     4800.00
01218               6.00     4800.00
01219               5.80     4800.00
01220               6.00     4800.00
01221               6.20     4800.00
01222               5.40     4800.00
01223               5.40     4800.00
01224               6.60     4800.00
01225               5.20     4600.00
01226               4.80     4800.00
01227               6.60     4800.00
01228               6.00     4800.00
01229               4.40     4600.00
01230               5.20     4600.00
01231               6.00     4800.00
01232               5.20     4800.00
01233               4.20     4600.00
01234               4.60     4800.00
01235               5.20     4600.00
01236               4.60     4400.00
01237               4.60     4600.00
01238               5.40     4600.00
01239               5.00     4600.00
01240               4.20     4600.00
01241               4.40     4400.00
01242               4.40     4400.00
01243               3.60     4600.00
01244               4.40     4400.00
01245               4.80     4600.00
01246               3.60     4400.00
01247               3.80     4400.00
01248               4.40     4400.00
01249               3.80     4400.00
01250               3.40     4400.00
01251               3.60     4200.00
01252               4.00     4400.00
01253               3.80     4400.00
01254               3.40     4000.00
01255               3.40     4000.00
01256               3.80     4000.00
01257               3.40     4000.00
01258               3.00     4000.00
01259               3.60     4000.00
01260               3.40     4000.00
01261               3.40     4000.00
01262               3.60     4200.00
01263               2.80     4000.00
01264               3.00     4000.00
01265               3.20     4000.00
01266               2.80     4000.00
01267               2.80     4000.00
01268               3.40     3800.00
01269               3.00     4000.00
01270               2.80     3800.00
01271               2.80     3800.00
01272               2.80     3800.00
01273               2.80     3800.00
01274               3.20     3800.00
01275               2.80     3800.00
01276               2.60     3600.00
01277               2.80     3600.00
01278               2.60     3600.00
01279               2.20     3600.00
01280               2.60     3600.00
01281               2.80     3600.00
01282               2.40     3600.00
01283               2.60     3600.00
01284               2.60     3600.00
01285               2.60     3400.00
01286               2.40     3400.00
01287               2.60     3200.00
01288               2.20     3400.00
01289               2.00     3200.00
01290               2.60     3200.00
01291               2.20     3200.00
01292               1.80     3200.00
01293               2.20     3200.00
01294               2.20     3200.00
01295               1.80     3000.00
01296               2.00     3000.00
01297               2.00     3000.00
01298               2.00     3000.00
01299               1.80     3000.00
01300               1.80     3000.00
01301               1.80     2800.00
01302               1.80     2800.00
01303               1.80     2800.00
01304               1.80     2800.00
01305               1.80     2800.00
01306               1.40     2800.00
01307               1.20     2600.00
01308               1.80     2600.00
01309               1.20     2400.00
01310               1.20     2600.00
01311               1.40     2400.00
01312               1.20     2400.00
01313               1.00     2400.00
01314               1.20     2400.00
01315               1.00     2400.00
01316               1.20     2200.00
01317               1.00     2400.00
01318               1.00     2200.00
01319               1.40     2200.00
01320               1.40     2200.00
01321               0.60     2200.00
01322               1.00     2200.00
01323               1.20     2000.00
01324               0.60     2000.00
01325               0.60     2000.00
01326               1.00     2000.00
01327               1.00     2000.00
01328               0.60     1800.00
01329               1.00     2000.00
01330               0.60     1800.00
01331               0.40     1800.00
01332               1.00     1800.00
01333               1.00     1600.00
01334               0.40     1800.00
01335               1.00     1600.00
01336               0.60     1800.00
01337               0.40     1600.00
01338               0.40     1400.00
01339               0.40     1400.00
01340               0.60     1400.00
01341               0.40     1400.00
01342               0.40     1400.00
01343               0.40     1400.00
01344               0.40     1200.00
01345               0.40     1200.00
01346               0.60     1200.00
01347               0.20     1000.00
01348               0.40     1200.00
01349               0.40     1000.00
01350               0.40     1000.00
01351               0.20      800.00
01352               0.40      800.00
01353               0.40      800.00
01354               0.00      800.00
01355               0.20      800.00
01356               0.60      800.00
01357               0.20      800.00
01358               0.20      600.00
01359              -0.20      400.00
01360               0.20      600.00
01361               0.20      400.00
01362               0.20      600.00
01363               0.00      400.00
01364               0.20      400.00
01365               0.20      400.00
01366               0.20      400.00
01367              -0.40      400.00
01368               0.20      200.00
01369              -0.20      400.00
01370               0.00        0.00
01371              -0.60        0.00
01372              -0.40        0.00
01373              -0.20        0.00
01374              -0.40        0.00
01375              -0.60     -200.00
01376               0.20        0.00
01377              -0.40        0.00
01378              -0.40     -200.00
01379              -0.40     -200.00
01380              -0.40     -200.00
01381              -0.40     -400.00
01382               7.00     -200.00
01383              16.20     -600.00
01384             -25.00     -800.00
01385             -25.00     -200.00
01386              25.00     -400.00
01387              25.00     -600.00
01388             -25.00    -1000.00
01389             -25.00     -400.00
01390              25.00     -800.00
01391              25.00     -800.00
01392             -25.00    -1000.00
01393             -13.20     -400.00
01394              25.00    -1000.00
01395             -13.80    -1000.00
01396             -25.00    -1000.00
01397              25.00     -800.00
01398              25.00    -1000.00
01399             -25.00    -1000.00
01400             -25.00    -1000.00
01401              25.00    -1200.00
01402              25.00    -1400.00
01403             -25.00    -1000.00
01404              25.00    -1600.00
01405              25.00    -1400.00
01406             -25.00    -1600.00
01407             -25.00    -1200.00
01408              25.00    -1600.00
01409              16.40    -1600.00
01410             -25.00    -1400.00
01411              25.00    -1800.00
01412              25.00    -1600.00
01413             -25.00    -1600.00
01414             -25.00    -1600.00
01415              25.00    -2000.00
01416             -12.40    -1800.00
01417             -25.00    -1800.00
01418              25.00    -2000.00
01419              25.00    -2000.00
01420             -25.00    -1800.00
01421              -8.40    -2200.00
01422              25.00    -2000.00
01423             -19.60    -2000.00
01424             -25.00    -2000.00
01425              25.00    -2200.00
01426              18.20    -2000.00
01427             -25.00    -2200.00
01428               4.20    -2400.00
01429              25.00    -2400.00
01430             -25.00    -2400.00
01431             -18.80    -2400.00
01432              25.00    -2400.00
01433              -6.00    -2400.00
01434             -25.00    -2600.00
01435              19.40    -2400.00
01436               8.40    -2600.00
01437             -24.40    -2600.00
01438               2.00    -2800.00
01439              14.40    -2600.00
01440             -14.80    -2800.00
01441              -7.40    -2800.00
01442              10.00    -2800.00
01443              -3.80    -2800.00
01444             -11.60    -2800.00
01445               3.40    -3000.00
01446               2.80    -3000.00
01447              -9.80    -2800.00
01448              -2.20    -3000.00
01449               5.00    -3200.00
01450              -6.60    -3200.00
01451              -7.00    -3200.00
01452               3.80    -3200.00
01453              -3.00    -3200.00
01454              -9.00    -3200.00
01455               0.60    -3200.00
01456               1.60    -3400.00
01457              -8.20    -3400.00
01458              -3.00    -3400.00
01459               2.00    -3400.00
01460              -5.00    -3200.00
01461              -6.20    -3600.00
01462               2.00    -3400.00
01463              -2.00    -3400.00
01464              -7.00    -3400.00
01465              -2.00    -3600.00
01466               0.20    -3600.00
01467              -6.00    -3600.00
01468              -5.00    -3600.00
01469              -0.40    -3600.00
01470              -3.40    -3600.00
01471              -5.80    -3800.00
01472              -1.80    -3600.00
01473              -2.00    -3600.00
01474              -5.60    -3800.00
01475              -3.00    -3600.00
01476              -2.20    -4000.00
01477              -3.80    -4000.00
01478              -4.20    -4000.00
01479              -3.00    -4000.00
01480              -4.20    -4000.00
01481              -4.20    -4000.00
01482              -3.60    -4000.00
01483              -3.60    -4000.00
01484              -4.60    -4200.00
01485              -3.20    -4000.00
01486              -3.40    -4200.00
01487              -4.40    -4200.00
01488              -4.00    -4200.00
01489              -3.40    -4200.00
01490              -4.40    -4200.00
01491              -4.60    -4200.00
01492              -3.60    -4200.00
01493              -4.20    -4200.00
01494              -5.00    -4400.00
01495              -3.80    -4200.00
01496              -4.00    -4400.00
01497              -5.00    -4400.00
01498              -4.60    -4400.00
01499              -4.40    -4400.00
01500              -4.60    -4400.00
01501              -5.40    -4400.00
01502              -4.80    -4400.00
01503              -4.40    -4400.00
01504              -6.00    -4400.00
01505              -5.20    -4600.00
01506              -4.20    -4400.00
01507              -5.80    -4600.00
01508              -6.00    -4600.00
01509              -4.40    -4600.00
01510              -6.00    -4800.00
01511              -6.60    -4600.00
01512              -4.60    -4600.00
01513              -6.00    -4600.00
01514              -6.60    -4600.00
01515              -5.20    -4800.00
01516              -5.80    -4600.00
01517              -7.00    -4800.00
01518              -6.00    -4800.00
01519              -5.80    -4600.00
01520              -6.00    -4800.00
01521              -7.00    -4800.00
01522              -5.80    -4800.00
01523              -6.00    -4800.00
01524              -7.40    -4800.00
01525              -7.00    -5000.00
01526              -6.00    -4600.00
01527              -6.80    -4800.00
01528              -6.60    -4600.00
01529              -7.60    -5000.00
01530              -7.00    -4800.00
01531              -6.60    -4600.00
01532              -7.60    -4800.00
01533              -7.20    -4800.00
01534              -6.60    -5000.00
01535              -8.40    -4600.00
01536              -7.00    -5000.00
01537              -7.00    -5000.00
01538              -8.20    -4800.00
01539              -8.20    -5000.00
01540              -7.40    -5000.00
01541              -7.80    -4800.00
01542              -8.60    -5000.00
01543              -7.20    -5000.00
01544              -7.40    -5000.00
01545              -9.00    -5000.00
01546              -8.40    -5200.00
01547              -7.80    -5000.00
01548              -8.00    -5000.00
01549              -9.20    -5000.00
01550              -8.60    -5000.00
01551              -7.60    -5000.00
01552              -9.20    -5000.00
01553              -9.20    -4800.00
01554              -7.60    -5000.00
01555              -9.00    -5000.00
01556              -9.40    -5000.00
01557              -8.60    -5000.00
01558              -8.80    -5000.00
01559              -9.80    -5000.00
01560              -8.60    -5000.00
01561              -8.40    -5000.00
01562              -9.20    -5000.00
01563             -10.00    -5000.00
01564              -9.00    -5000.00
01565              -8.60    -5200.00
01566              -9.20    -5000.00
01567              -9.20    -5200.00
01568              -8.60    -5000.00
01569              -8.60    -5000.00
01570              -9.20    -5200.00
01571              -8.40    -5000.00
01572              -7.80    -5000.00
01573              -9.00    -5000.00
01574              -8.60    -5000.00
01575              -7.40    -5000.00
01576              -8.60    -5000.00
01577              -8.60    -5000.00
01578              -7.40    -5000.00
01579              -7.60    -4800.00
01580              -7.80    -5000.00
01581              -7.60    -5000.00
01582              -7.20    -4800.00
01583              -7.40    -5000.00
01584              -7.00    -4800.00
01585              -7.00    -4800.00
01586              -6.80    -4800.00
01587              -6.80    -5000.00
01588              -6.80    -4800.00
01589              -7.00    -4800.00
01590              -7.00    -4600.00
01591              -6.40    -4600.00
01592              -6.60    -4800.00
01593              -6.20    -4800.00
01594              -6.00    -4600.00
01595              -6.00    -4600.00
01596              -6.20    -4800.00
01597              -6.00    -4600.00
01598              -5.80    -4800.00
01599              -5.80    -4600.00
01600              -5.80    -4600.00
01601              -5.80    -4800.00
01602              -5.40    -4600.00
01603              -5.80    -4600.00
01604              -5.20    -4600.00
01605              -5.40    -4600.00
01606              -5.40    -4600.00
01607              -5.20    -4600.00
01608              -5.00    -4600.00
01609              -5.40    -4600.00
01610              -5.20    -4400.00
01611              -4.60    -4600.00
01612              -4.80    -4400.00
01613              -5.00    -4600.00
01614              -4.40    -4400.00
01615              -4.60    -4400.00
01616              -4.60    -4400.00
01617              -4.60    -4200.00
01618              -4.60    -4400.00
01619              -4.40    -4400.00
01620              -4.40    -4400.00
01621              -4.40    -4400.00
01622              -4.40    -4400.00
01623              -4.20    -4400.00
01624              -4.00    -4400.00
01625              -4.20    -4200.00
01626              -4.20    -4200.00
01627              -3.80    -4200.00
01628              -3.80    -4200.00
01629              -3.80    -4200.00
01630              -3.80    -4200.00
01631              -3.80    -4200.00
01632              -3.80    -4200.00
01633              -3.60    -4000.00
01634              -4.20    -4200.00
01635              -3.80    -4200.00
01636              -3.40    -4000.00
01637              -4.20    -4000.00
01638              -3.60    -4000.00
01639              -3.60    -4000.00
01640              -4.20    -4000.00
01641              -3.00    -3800.00
01642              -3.60    -3800.00
01643              -3.60    -3800.00
01644              -3.00    -3800.00
01645              -3.60    -3800.00
01646              -3.40    -3600.00
01647              -3.60    -3600.00
01648              -2.60    -3600.00
01649              -3.40    -3600.00
01650              -3.60    -3600.00
01651              -2.80    -3600.00
01652              -3.40    -3600.00
01653              -3.60    -3600.00
01654              -2.80    -3400.00
01655              -2.80    -3400.00
01656              -3.00    -3200.00
01657              -3.00    -3400.00
01658              -2.20    -3400.00
01659              -3.00    -3400.00
01660              -3.00    -3200.00
01661              -2.00    -3200.00
01662              -2.80    -3200.00
01663              -3.00    -3200.00
01664              -2.20    -3200.00
01665              -2.60    -3200.00
01666              -3.00    -3200.00
01667              -2.20    -3000.00
01668              -2.00    -3200.00
01669              -2.20    -2800.00
01670              -2.60    -3200.00
01671              -2.20    -2800.00
01672              -2.20    -2800.00
01673              -1.80    -2800.00
01674              -2.20    -2800.00
01675              -2.00    -2800.00
01676              -2.00    -2800.00
01677              -2.60    -2600.00
01678              -1.80    -2600.00
01679              -1.80    -2600.00
01680              -2.20    -2600.00
01681              -1.60    -2600.00
01682              -1.40    -2600.00
01683              -2.20    -2400.00
01684              -2.00    -2600.00
01685              -1.20    -2400.00
01686              -2.20    -2600.00
01687              -2.20    -2400.00
01688              -1.00    -2400.00
01689              -2.00    -2200.00
01690              -2.40    -2200.00
01691              -1.00    -2200.00
01692              -1.00    -2200.00
01693              -2.00    -2000.00
01694              -1.40    -2000.00
01695              -1.20    -2000.00
01696              -2.80    -2000.00
01697              -1.20    -2000.00
01698              -0.80    -2000.00
01699              -2.80    -2000.00
01700              -1.20    -1800.00
01701              -0.60    -1800.00
01702              -2.60    -2000.00
01703              -1.40    -1800.00
01704              -0.20    -1600.00
01705              -2.20    -1600.00
01706              -2.00    -1600.00
01707               0.00    -1600.00
01708              -1.60    -1600.00
01709              -2.20    -1600.00
01710              -0.60    -1600.00
01711              -1.00    -1600.00
01712              -2.00    -1600.00
01713              -1.20    -1200.00
01714              -0.60    -1400.00
01715              -1.20    -1200.00
01716              -1.80    -1200.00
01717              -1.00    -1200.00
01718              -0.80    -1200.00
01719              -1.20    -1000.00
01720              -1.00    -1000.00
01721              -0.60    -1000.00
01722              -0.80    -1000.00
01723              -1.00     -800.00
01724              -0.40     -800.00
01725              -1.00     -800.00
01726              -1.00     -800.00
01727              -0.80     -800.00
01728              -0.60     -800.00
01729              -1.00     -800.00
01730              -0.60     -800.00
01731              -0.60     -600.00
01732              -1.00     -400.00
01733              -0.60     -600.00
01734              -0.60     -400.00
01735              -0.60     -400.00
01736              -0.20     -400.00
01737              -0.40     -400.00
01738              -0.60     -200.00
01739              -0.20     -200.00
01740               0.00     -200.00
01741              -0.60     -200.00
01742              -0.40     -200.00
01743              -0.40        0.00
01744              -0.20        0.00
01745               0.00        0.00
01746              -0.20      200.00
01747              -0.20        0.00
01748               0.40        0.00
01749               0.40        0.00
01750               0.20        0.00
01751              -0.20      200.00
01752               0.00      400.00
01753               0.60      400.00
01754               2.60      400.00
01755              11.60      600.00
01756              -4.20      800.00
01757             -25.00      400.00
01758               2.00      600.00
01759              25.00      800.00
01760              -8.20      800.00
01761             -25.00      600.00
01762              25.00      400.00
01763              25.00     1200.00
01764             -25.00      600.00
01765             -25.00     1000.00
01766              25.00      800.00
01767              25.00     1000.00
01768             -25.00      800.00
01769              -8.80     1200.00
01770              25.00     1000.00
01771              -6.80     1200.00
01772             -25.00     1200.00
01773              25.00     1200.00
01774              25.00     1200.00
01775             -25.00     1400.00
01776              -8.60     1200.00
01777              25.00     1400.00
01778             -25.00     1200.00
01779             -25.00     1800.00
01780              25.00     1400.00
01781              25.00     1800.00
01782             -25.00     1400.00
01783              11.80     1800.00
01784              25.00     1600.00
01785             -25.00     1800.00
01786             -25.00     1800.00
01787              25.00     1800.00
01788               8.40     1800.00
01789             -25.00     2000.00
01790              25.00     2000.00
01791              25.00     2000.00
01792             -25.00     2200.00
01793             -12.40     2000.00
01794              25.00     2200.00
01795              -9.20     2200.00
01796             -25.00     2200.00
01797              22.20     2000.00
01798              22.00     2200.00
01799             -25.00     2200.00
01800               2.40     2400.00
01801              25.00     2200.00
01802             -13.60     2400.00
01803             -15.80     2200.00
01804              25.00     2400.00
01805               0.40     2400.00
01806             -19.00     2600.00
01807              15.20     2400.00
01808              11.60     2800.00
01809             -16.60     2600.00
01810               3.60     2800.00
01811              15.80     2800.00
01812              -9.00     2600.00
01813              -3.60     2800.00
01814              12.60     2800.00
01815               1.60     3000.00
01816              -7.60     2800.00
01817               8.20     3000.00
01818               5.40     3000.00
01819              -4.40     3000.00
01820               0.40     3000.00
01821               9.40     3000.00
01822              -2.00     3000.00
01823              -2.00     3000.00
01824               6.60     3200.00
01825               3.80     3200.00
01826              -4.20     3000.00
01827               3.60     3200.00
01828               6.20     3200.00
01829              -1.40     3200.00
01830              -0.40     3200.00
01831               6.80     3600.00
01832               2.20     3400.00
01833              -1.40     3400.00
01834               4.20     3600.00
01835               4.20     3400.00
01836              -0.20     3400.00
01837               1.20     3600.00
01838               5.20     3600.00
01839               1.60     3600.00
01840               1.00     3600.00
01841               3.60     3800.00
01842               3.80     3800.00
01843               0.60     3600.00
01844               3.00     3800.00
01845               3.80     3600.00
01846               2.60     3800.00
01847               2.00     3800.00
01848               4.40     4000.00
01849               2.60     3800.00
01850               2.20     4000.00
01851               3.40     4000.00
01852               3.60     4000.00
01853               2.00     4000.00
01854               3.60     4000.00
01855               3.80     4000.00
01856               2.60     4000.00
01857               3.40     4000.00
01858               4.20     4200.00
01859               3.40     4000.00
01860               2.80     4200.00
01861               4.60     4000.00
01862               3.60     4200.00
01863               3.40     4400.00
01864               3.80     4200.00
01865               4.60     4400.00
01866               3.40     4400.00
01867               3.80     4400.00
01868               4.40     4400.00
01869               4.40     4400.00
01870               3.40     4400.00
01871               4.40     4400.00
01872               4.60     4600.00
01873               4.20     4600.00
01874               4.20     4400.00
01875               5.20     4600.00
01876               4.60     4400.00
01877               4.40     4600.00
01878               5.20     4600.00
01879               5.00     4600.00
01880               4.40     4600.00
01881               4.80     4600.00
01882               5.20     4800.00
01883               5.00     4600.00
01884               5.20     4800.00
01885               5.80     4600.00
01886               5.20     4800.00
01887               4.60     4800.00
01888               6.00     4800.00
01889               6.20     4800.00
01890               5.20     4800.00
01891               5.40     4600.00
01892               6.00     4800.00
01893               5.20     4600.00
01894               6.20     4800.00
01895               5.80     4800.00
01896               6.00     4800.00
01897               6.00     4800.00
01898               6.00     4800.00
01899               6.20     4800.00
01900               5.60     4800.00
01901               6.00     4800.00
01902               6.80     4800.00
01903               6.80     4800.00
01904               6.20     4800.00
01905               7.40     4800.00
01906               7.00     4800.00
01907               6.60     5000.00
01908               7.00     5000.00
01909               7.40     4800.00
01910               6.40     5000.00
01911               7.40     4800.00
01912               7.80     5000.00
01913               7.00     4800.00
01914               7.00     4800.00
01915               7.60     5000.00
01916               7.80     4800.00
01917               7.40     5200.00
01918               7.60     5200.00
01919               8.20     5000.00
01920               7.60     5000.00
01921               8.20     5200.00
01922               8.60     5000.00
01923               8.40     5000.00
01924               8.20     5200.00
01925               8.40     5200.00
01926               8.60     4800.00
01927               8.20     5000.00
01928               9.00     4800.00
01929               8.60     5000.00
01930               8.40     5000.00
01931               8.60     5200.00
01932               9.00     5200.00
01933               9.00     5200.00
01934               8.60     5200.00
01935               9.00     5200.00
01936               8.60     5000.00
01937               8.80     5000.00
01938               8.40     4800.00
01939               8.60     5200.00
01940               8.80     5200.00
01941               8.40     5200.00
01942               7.40     5000.00
01943               9.40     4800.00
01944               8.20     5000.00
01945               6.00     5000.00
01946               9.40     5000.00
01947               7.80     5200.00
01948               6.20     5000.00
01949               8.40     5200.00
01950               7.40     5000.00
01951               7.20     5000.00
01952               6.00     4800.00
01953               8.40     4800.00
01954               6.80     5000.00
01955               5.40     4800.00
01956               7.60     4800.00
01957               6.80     4800.00
01958               6.00     4800.00
01959               4.60     4800.00
01960               8.40     4800.00
01961               6.80     4800.00
01962               3.40     4800.00
01963               7.20     5200.00
01964               6.60     4800.00
01965               5.20     4800.00
01966               5.20     4800.00
01967               6.40     4600.00
01968               5.60     4800.00
01969               5.00     4800.00
01970               5.40     4600.00
01971               5.60     4600.00
01972               5.00     4800.00
01973               4.40     4800.00
01974               6.20     4800.00
01975               5.20     4600.00
01976               3.40     4600.00
01977               5.20     4600.00
01978               5.60     4800.00
01979               3.40     4600.00
01980               5.00     4600.00
01981               5.80     4600.00
01982               3.00     4600.00
01983               3.80     4600.00
01984               5.80     4600.00
01985               4.00     4400.00
01986               3.40     4600.00
01987               5.60     4400.00
01988               4.40     4400.00
01989               3.00     4400.00
01990               4.20     4400.00
01991               4.20     4400.00
01992               3.40     4400.00
01993               4.20     4200.00
01994               4.20     4400.00
01995               3.40     4400.00
01996               3.60     4200.00
01997               4.20     4400.00
01998               3.80     4400.00
01999               3.80     4200.00
02000               3.80     4200.00
02001               3.60     4200.00
02002               3.40     4200.00
02003               3.40     4000.00
02004               3.40     4000.00
02005               3.60     4000.00
02006               3.60     4000.00
02007               2.60     3800.00
02008               3.60     4000.00
02009               3.80     4000.00
02010               2.20     3800.00
02011               2.80     4000.00
02012               4.20     3800.00
02013               2.20     3800.00
02014               2.00     3800.00
02015               4.40     3800.00
02016               3.40     3800.00
02017               1.00     4000.00
02018               3.20     3800.00
02019               4.40     3800.00
02020               1.00     3600.00
02021               1.60     3600.00
02022               5.20     3600.00
02023               2.60     3600.00
02024               0.20     3600.00
02025               3.60     3600.00
02026               3.20     3400.00
02027               1.00     3600.00
02028               2.00     3600.00
02029               3.40     3400.00
02030               2.20     3200.00
02031               1.00     3400.00
02032               2.40     3200.00
02033               3.40     3200.00
02034               1.00     3200.00
02035               0.60     3200.00
02036               3.80     3200.00
02037               2.00     3000.00
02038              -0.40     3000.00
02039               3.40     3000.00
02040               2.80     3000.00
02041              -0.20     3000.00
02042               1.80     3000.00
02043               2.80     3000.00
02044               0.40     3000.00
02045               1.20     2800.00
02046               2.40     2800.00
02047               1.80     2800.00
02048               1.20     2800.00
02049               1.20     2800.00
02050               1.20     2800.00
02051               1.80     2800.00
02052               1.40     2600.00
02053               1.40     2600.00
02054               2.00     2600.00
02055               1.80     2400.00
02056               0.40     2400.00
02057               1.20     2400.00
02058               2.00     2400.00
02059               0.40     2400.00
02060               1.20     2400.00
02061               2.20     2400.00
02062               1.20     2400.00
02063               0.40     2200.00
02064               1.40     2200.00
02065               1.80     2000.00
02066               0.60     2000.00
02067               0.80     2000.00
02068               1.40     2000.00
02069               1.00     2000.00
02070               0.40     2000.00
02071               0.60     2000.00
02072               1.20     2000.00
02073               1.00     2000.00
02074               0.60     1800.00
02075               1.40     1800.00
02076               1.00     1600.00
02077               0.40     1800.00
02078               1.20     1600.00
02079               1.20     1600.00
02080              -0.20     1600.00
02081               0.60     1600.00
02082               1.80     1400.00
02083               0.00     1400.00
02084               0.20     1400.00
02085               1.40     1400.00
02086              -0.20     1200.00
02087               0.20     1200.00
02088               1.20     1200.00
02089              -0.20     1200.00
02090              -0.40     1200.00
02091               1.20     1200.00
02092               0.20     1000.00
02093              -0.20     1000.00
02094               0.80      800.00
02095               0.00      800.00
02096              -0.40      800.00
02097               0.60      800.00
02098               0.40      800.00
02099              -0.80      600.00
02100               0.20      600.00
02101               0.20      800.00
02102              -0.60      600.00
02103               0.20      600.00
02104               0.00      600.00
02105              -0.60      400.00
02106               0.20      400.00
02107               0.20      600.00
02108              -0.40      400.00
02109              -0.20      400.00
02110               0.20      400.00
02111              -0.40      200.00
02112              -0.40        0.00
02113              -0.20      200.00
02114               0.00        0.00
02115              -0.60        0.00
02116               0.20      200.00
02117               0.20        0.00
02118              -0.40        0.00
02119              -0.20     -200.00
02120               0.20        0.00
02121              -0.40     -200.00
02122              -0.20     -200.00
02123              -0.40     -200.00
02124              -0.40     -200.00
02125               2.80     -400.00
02126              16.40     -400.00
02127              -3.00     -800.00
02128             -25.00     -400.00
02129              21.20     -400.00
02130              25.00     -400.00
02131             -22.00     -800.00
02132             -25.00     -400.00
02133              25.00     -400.00
02134              25.00     -800.00
02135             -25.00     -800.00
02136             -25.00     -800.00
02137              25.00     -800.00
02138              25.00     -800.00
02139             -25.00     -800.00
02140             -25.00     -800.00
02141              25.00     -800.00
02142              -3.80    -1400.00
02143             -25.00     -800.00
02144              25.00    -1400.00
02145              25.00    -1000.00
02146             -25.00    -1400.00
02147             -25.00    -1000.00
02148              25.00    -1600.00
02149               6.80    -1200.00
02150             -25.00    -1400.00
02151              25.00    -1600.00
02152              25.00    -1600.00
02153             -25.00    -1200.00
02154             -25.00    -1600.00
02155              25.00    -1600.00
02156             -20.00    -1600.00
02157             -25.00    -1600.00
02158              25.00    -2000.00
02159              25.00    -1800.00
02160             -25.00    -1800.00
02161              -3.00    -2000.00
02162              25.00    -2000.00
02163             -25.00    -1800.00
02164             -25.00    -2000.00
02165              25.00    -2000.00
02166              18.00    -2000.00
02167             -25.00    -2200.00
02168               6.80    -2000.00
02169              25.00    -2400.00
02170             -25.00    -2000.00
02171             -25.00    -2400.00
02172              25.00    -2400.00
02173              -2.20    -2400.00
02174             -25.00    -2400.00
02175              19.00    -2400.00
02176              18.60    -2400.00
02177             -25.00    -2400.00
02178               0.40    -2600.00
02179              22.80    -2600.00
02180             -18.20    -2600.00
02181             -12.40    -2600.00
02182              16.80    -2600.00
02183              -3.80    -2800.00
02184             -15.60    -2800.00
02185               7.00    -2800.00
02186               3.80    -2800.00
02187             -11.80    -2800.00
02188              -2.80    -2800.00
02189               6.20    -2800.00
02190              -7.00    -3000.00
02191              -6.80    -2800.00
02192               3.80    -3200.00
02193              -1.20    -3000.00
02194              -9.20    -3200.00
02195               1.00    -3200.00
02196               1.80    -3200.00
02197              -7.60    -3200.00
02198              -3.80    -3200.00
02199               3.40    -3200.00
02200              -4.40    -3400.00
02201              -6.80    -3200.00
02202               1.40    -3400.00
02203              -1.20    -3400.00
02204              -7.60    -3400.00
02205              -1.40    -3400.00
02206               1.40    -3400.00
02207              -6.20    -3600.00
02208              -4.60    -3600.00
02209               1.00    -3600.00
02210              -3.00    -3600.00
02211              -6.60    -3600.00
02212              -1.20    -3600.00
02213              -1.20    -3800.00
02214              -5.20    -3600.00
02215              -3.80    -3800.00
02216              -0.60    -3600.00
02217              -4.40    -4000.00
02218              -5.00    -3800.00
02219              -2.20    -4000.00
02220              -2.80    -3800.00
02221              -5.20    -4000.00
02222              -3.40    -4000.00
02223              -2.80    -4000.00
02224              -4.60    -4000.00
02225              -4.20    -4000.00
02226              -3.00    -4000.00
02227              -4.40    -4000.00
02228              -4.20    -4200.00
02229              -3.00    -4200.00
02230              -4.40    -4200.00
02231              -4.40    -4000.00
02232              -3.80    -4200.00
02233              -3.80    -4200.00
02234              -5.00    -4200.00
02235              -3.80    -4200.00
02236              -3.80    -4400.00
02237              -5.00    -4200.00
02238              -5.00    -4400.00
02239              -3.80    -4400.00
02240              -5.00    -4400.00
02241              -5.20    -4400.00
02242              -4.40    -4400.00
02243              -4.40    -4400.00
02244              -5.20    -4400.00
02245              -5.00    -4400.00
02246              -4.40    -4400.00
02247              -4.60    -4400.00
02248              -5.20    -4600.00
02249              -5.00    -4600.00
02250              -5.00    -4600.00
02251              -5.80    -4600.00
02252              -5.40    -4600.00
02253              -5.00    -4600.00
02254              -6.00    -4800.00
02255              -5.80    -4600.00
02256              -4.60    -4600.00
02257              -5.80    -4600.00
02258              -6.20    -4800.00
02259              -5.20    -4600.00
02260              -5.40    -4600.00
02261              -6.20    -4800.00
02262              -5.80    -4600.00
02263              -5.60    -4800.00
02264              -6.20    -4800.00
02265              -6.40    -4600.00
02266              -6.00    -4800.00
02267              -6.60    -4800.00
02268              -7.00    -4600.00
02269              -5.80    -4800.00
02270              -7.00    -4600.00
02271              -6.80    -5000.00
02272              -6.00    -4800.00
02273              -7.60    -4600.00
02274              -7.00    -5000.00
02275              -6.00    -4800.00
02276              -7.40    -5000.00
02277              -7.60    -4800.00
02278              -6.80    -4800.00
02279              -6.80    -5000.00
02280              -8.20    -4800.00
02281              -7.00    -5000.00
02282              -7.00    -5000.00
02283              -8.80    -5000.00
02284              -8.20    -5000.00
02285              -7.20    -5200.00
02286              -8.20    -5000.00
02287              -8.20    -5000.00
02288              -8.20    -5000.00
02289              -7.80    -5000.00
02290              -8.60    -5000.00
02291              -8.80    -5000.00
02292              -8.20    -5000.00
02293              -8.60    -5000.00
02294              -9.00    -5000.00
02295              -8.60    -5200.00
02296              -8.60    -5000.00
02297              -9.00    -5200.00
02298              -9.20    -5200.00
02299              -9.00    -5000.00
02300              -9.00    -5000.00
02301              -9.20    -5000.00
02302              -9.20    -5000.00
02303              -8.80    -5200.00
02304              -9.40    -5000.00
02305              -9.20    -5200.00
02306              -9.00    -5000.00
02307              -9.20    -5000.00
02308              -9.20    -5200.00
02309              -9.20    -5000.00
02310              -9.00    -5000.00
02311              -9.20    -5000.00
02312              -8.60    -5000.00
02313              -8.40    -5000.00
02314              -8.40    -5000.00
02315              -8.60    -4800.00
02316              -8.40    -5000.00
02317              -8.40    -5000.00
02318              -8.80    -4800.00
02319              -8.20    -5000.00
02320              -7.40    -5000.00
02321              -7.80    -4600.00
02322              -7.80    -5000.00
02323              -7.00    -5000.00
02324              -7.40    -4800.00
02325              -7.60    -5000.00
02326              -7.40    -5000.00
02327              -7.00    -4800.00
02328              -6.80    -5000.00
02329              -7.00    -4800.00
02330              -6.60    -4600.00
02331              -6.40    -5000.00
02332              -6.80    -4600.00
02333              -7.00    -4800.00
02334              -6.20    -4600.00
02335              -5.80    -4600.00
02336              -6.60    -4800.00
02337              -6.80    -4600.00
02338              -5.40    -4800.00
02339              -5.80    -4800.00
02340              -6.80    -4600.00
02341              -5.40    -4600.00
02342              -5.40    -4800.00
02343              -6.60    -4800.00
02344              -5.40    -4600.00
02345              -5.20    -4600.00
02346              -6.00    -4800.00
02347              -5.40    -4600.00
02348              -5.40    -4800.00
02349              -5.80    -4600.00
02350              -5.40    -4800.00
02351              -5.40    -4600.00
02352              -5.20    -4400.00
02353              -5.20    -4400.00
02354              -5.00    -4600.00
02355              -4.80    -4600.00
02356              -5.00    -4400.00
02357              -4.80    -4600.00
02358              -5.00    -4400.00
02359              -4.60    -4400.00
02360              -4.60    -4400.00
02361              -5.00    -4400.00
02362              -4.80    -4400.00
02363              -5.00    -4400.00
02364              -4.40    -4400.00
02365              -3.80    -4400.00
02366              -4.80    -4400.00
02367              -5.20    -4200.00
02368              -3.40    -4200.00
02369              -3.80    -4200.00
02370              -5.20    -4200.00
02371              -3.60    -4200.00
02372              -3.40    -4200.00
02373              -5.00    -4200.00
02374              -4.60    -4200.00
02375              -2.20    -4200.00
02376              -4.60    -4200.00
02377              -4.60    -4200.00
02378              -2.80    -4000.00
02379              -3.60    -4000.00
02380              -4.60    -4000.00
02381              -3.80    -4000.00
02382              -2.80    -4000.00
02383              -3.40    -4000.00
02384              -4.00    -4000.00
02385              -3.20    -3800.00
02386              -3.40    -4000.00
02387              -2.80    -3600.00
02388              -3.40    -4000.00
02389              -3.60    -3800.00
02390              -2.20    -3800.00
02391              -3.80    -3600.00
02392              -2.40    -3600.00
02393              -2.80    -3600.00
02394              -3.80    -3600.00
02395              -2.60    -3600.00
02396              -2.20    -3600.00
02397              -3.60    -3400.00
02398              -3.40    -3400.00
02399              -2.00    -3400.00
02400              -3.00    -3400.00
02401              -3.00    -3400.00
02402              -2.00    -3400.00
02403              -2.20    -3200.00
02404              -3.40    -3400.00
02405              -2.60    -3200.00
02406              -2.00    -3200.00
02407              -2.80    -3200.00
02408              -2.20    -3200.00
02409              -2.80    -3200.00
02410              -2.80    -3200.00
02411              -1.60    -3000.00
02412              -2.60    -3200.00
02413              -2.80    -3000.00
02414              -1.20    -2800.00
02415              -2.20    -2800.00
02416              -3.00    -2800.00
02417              -2.20    -3000.00
02418              -1.60    -2800.00
02419              -3.00    -2800.00
02420              -2.40    -2800.00
02421              -1.20    -2800.00
02422              -2.20    -2800.00
02423              -2.60    -2600.00
02424              -2.00    -2600.00
02425              -1.80    -2400.00
02426              -2.20    -2400.00
02427              -2.00    -2400.00
02428              -1.80    -2800.00
02429              -1.60    -2400.00
02430              -2.40    -2400.00
02431              -2.60    -2400.00
02432              -1.20    -2400.00
02433              -1.20    -2400.00
02434              -2.60    -2400.00
02435              -1.00    -2200.00
02436              -0.60    -2400.00
02437              -3.80    -2200.00
02438              -2.20    -2000.00
02439               1.40    -2000.00
02440              -2.00    -2000.00
02441              -5.00    -2000.00
02442               0.20    -2000.00
02443               1.80    -1800.00
02444              -3.80    -1800.00
02445              -2.80    -1800.00
02446               1.60    -1800.00
02447              -1.80    -1800.00
02448              -3.60    -1800.00
02449              -0.20    -1600.00
02450               0.80    -1600.00
02451              -3.00    -1600.00
02452              -2.00    -1600.00
02453               1.20    -1800.00
02454              -1.20    -1600.00
02455              -2.80    -1600.00
02456               0.40    -1200.00
02457              -0.20    -1400.00
02458              -2.60    -1200.00
02459              -1.00    -1200.00
02460              -0.40    -1200.00
02461              -1.20    -1000.00
02462              -0.60    -1200.00
02463              -0.20    -1200.00
02464              -1.20    -1000.00
02465              -1.20    -1000.00
02466              -0.60    -1000.00
02467              -0.60     -800.00
02468              -1.20    -1000.00
02469              -0.20     -800.00
02470               0.00     -800.00
02471              -1.40     -800.00
02472              -1.00     -800.00
02473               0.40     -800.00
02474              -0.60     -600.00
02475              -1.80     -800.00
02476              -0.40     -600.00
02477               0.20     -600.00
02478              -0.80     -400.00
02479              -1.20     -400.00
02480               0.20     -400.00
02481              -0.60     -400.00
02482              -1.20     -400.00
02483              -0.40     -400.00
02484              -0.40     -200.00
02485              -1.00     -200.00
02486              -0.60     -200.00
02487              -0.20     -200.00
02488              -0.20        0.00
02489              -0.40        0.00
02490              -0.40     -200.00
02491               0.20        0.00
02492              -0.20        0.00
02493               0.20        0.00
02494               0.20        0.00
02495              -0.60      200.00
02496               0.20      200.00
02497               1.40      400.00
02498               7.40      600.00
02499               5.80      400.00
02500             -22.60      400.00
02501             -24.20      400.00
02502              25.00      600.00
02503              25.00      600.00
02504             -25.00      800.00
02505             -24.60      400.00
02506              25.00     1200.00
02507              12.60      400.00
02508             -25.00     1200.00
02509              12.60      400.00
02510              25.00     1400.00
02511             -25.00      400.00
02512             -25.00     1400.00
02513              25.00      600.00
02514              25.00     1400.00
02515             -25.00      800.00
02516               3.00     1200.00
02517              25.00     1200.00
02518             -25.00     1400.00
02519             -25.00     1200.00
02520              25.00     1400.00
02521              25.00     1400.00
02522             -25.00     1400.00
02523              23.80     1400.00
02524              25.00     1400.00
02525             -25.00     1800.00
02526             -25.00     1600.00
02527              25.00     1800.00
02528               6.40     1800.00
02529             -25.00     1800.00
02530              25.00     1600.00
02531              25.00     2000.00
02532             -25.00     1800.00
02533              -9.00     2000.00
02534              25.00     1800.00
02535             -10.60     2000.00
02536             -25.00     1800.00
02537              25.00     2200.00
02538              18.80     2200.00
02539             -25.00     2200.00
02540               1.40     2000.00
02541              25.00     2200.00
02542             -15.80     2200.00
02543             -20.20     2200.00
02544              25.00     2200.00
02545               4.20     2400.00
02546             -25.00     2200.00
02547              13.20     2400.00
02548              19.00     2400.00
02549             -21.80     2400.00
02550               2.00     2400.00
02551              19.60     2600.00
02552              -9.20     2800.00
02553              -9.80     2600.00
02554              18.00     2800.00
02555              -0.40     2600.00
02556              -9.80     2800.00
02557               8.00     2800.00
02558               8.40     3000.00
02559              -8.40     2800.00
02560               1.80     3000.00
02561               8.60     2800.00
02562              -1.80     3000.00
02563              -3.40     3000.00
02564               7.60     3000.00
02565               2.80     3000.00
02566              -3.80     3200.00
02567               4.20     3000.00
02568               5.80     3200.00
02569              -1.80     3000.00
02570              -0.20     3200.00
02571               7.00     3200.00
02572               1.00     3200.00
02573              -0.80     3200.00
02574               4.20     3400.00
02575               4.40     3400.00
02576              -1.20     3200.00
02577               2.80     3600.00
02578               4.20     3400.00
02579               1.80     3600.00
02580               0.40     3600.00
02581               5.00     3600.00
02582               3.20     3600.00
02583               0.60     3600.00
02584               2.60     3600.00
02585               5.00     3800.00
02586               1.40     3600.00
02587               2.20     3800.00
02588               3.80     3800.00
02589               3.60     3800.00
02590               1.60     3800.00
02591               3.00     4000.00
02592               4.40     3800.00
02593               2.20     3800.00
02594               3.00     4000.00
02595               3.60     4000.00
02596               2.80     4000.00
02597               2.80     4000.00
02598               4.00     4000.00
02599               3.00     4000.00
02600               3.60     4000.00
02601               3.60     4000.00
02602               3.60     4000.00
02603               3.60     4200.00
02604               4.00     4000.00
02605               3.40     4000.00
02606               4.40     4200.00
02607               3.20     4200.00
02608               3.40     4400.00
02609               4.20     4200.00
02610               4.20     4400.00
02611               2.80     4400.00
02612               4.40     4400.00
02613               5.00     4400.00
02614               3.40     4400.00
02615               4.20     4400.00
02616               5.20     4400.00
02617               3.60     4400.00
02618               3.80     4600.00
02619               5.40     4400.00
02620               4.20     4600.00
02621               4.20     4600.00
02622               5.40     4600.00
02623               5.20     4600.00
02624               3.80     4600.00
02625               5.40     4600.00
02626               5.20     4600.00
02627               4.80     4800.00
02628               5.00     4600.00
02629               5.80     4800.00
02630               5.20     4800.00
02631               5.40     4600.00
02632               5.40     4600.00
02633               5.40     4800.00
02634               5.40     4800.00
02635               6.20     4800.00
02636               6.40     4800.00
02637               5.20     4800.00
02638               5.80     4800.00
02639               6.80     4800.00
02640               5.60     4800.00
02641               5.60     4800.00
02642               7.00     4800.00
02643               6.00     4800.00
02644               5.80     4800.00
02645               6.80     4800.00
02646               6.80     5000.00
02647               6.80     4800.00
02648               7.00     5000.00
02649               7.00     5000.00
02650               6.80     5200.00
02651               6.60     4800.00
02652               7.60     5200.00
02653               7.60     5000.00
02654               6.40     5000.00
02655               8.00     5000.00
02656               8.00     5000.00
02657               6.60     5200.00
02658               7.60     5200.00
02659               8.60     5000.00
02660               7.60     5000.00
02661               7.40     5200.00
02662               8.40     5000.00
02663               8.20     5200.00
02664               7.40     5000.00
02665               8.40     5200.00
02666               8.60     5200.00
02667               8.00     5000.00
02668               8.60     5200.00
02669               8.80     5000.00
02670               8.20     5000.00
02671               8.40     5000.00
02672               9.00     5200.00
02673               8.60     5200.00
02674               8.40     5000.00
02675               9.00     5200.00
02676               8.40     5000.00
02677               8.80     5200.00
02678               8.80     5000.00
02679               8.40     5000.00
02680               8.20     5200.00
02681               8.60     5000.00
02682               8.60     5000.00
02683               8.20     5200.00
02684               8.20     5000.00
02685               8.40     5200.00
02686               7.80     4800.00
02687               7.40     5000.00
02688               8.20     5000.00
02689               7.80     5200.00
02690               7.40     5200.00
02691               7.60     5000.00
02692               7.80     4800.00
02693               7.00     4800.00
02694               6.80     5000.00
02695               7.20     5000.00
02696               7.00     4800.00
02697               6.40     5000.00
02698               6.60     4800.00
02699               6.80     5000.00
02700               6.20     4800.00
02701               5.80     4800.00
02702               6.80     4800.00
02703               6.20     4800.00
02704               5.40     4800.00
02705               6.60     4800.00
02706               6.60     4800.00
02707               5.20     4800.00
02708               6.00     4800.00
02709               6.40     4800.00
02710               5.20     4800.00
02711               5.40     4800.00
02712               6.00     4800.00
02713               5.40     4800.00
02714               5.00     4800.00
02715               5.60     4800.00
02716               5.20     4800.00
02717               5.20     4800.00
02718               5.40     4800.00
02719               5.20     4800.00
02720               5.00     4600.00
02721               5.00     4600.00
02722               5.00     4600.00
02723               4.80     4800.00
02724               5.00     4400.00
02725               4.60     4600.00
02726               4.40     4400.00
02727               4.60     4400.00
02728               4.60     4600.00
02729               4.20     4400.00
02730               4.20     4600.00
02731               4.40     4600.00
02732               4.20     4400.00
02733               4.20     4400.00
02734               4.00     4400.00
02735               4.40     4400.00
02736               4.00     4400.00
02737               3.40     4400.00
02738               4.20     4400.00
02739               4.00     4400.00
02740               3.40     4400.00
02741               3.60     4200.00
02742               3.60     4400.00
02743               3.40     4200.00
02744               3.40     4000.00
02745               3.40     4000.00
02746               3.00     4000.00
02747               3.40     4200.00
02748               3.60     4000.00
02749               3.20     4000.00
02750               2.80     4000.00
02751               3.00     4000.00
02752               3.60     4000.00
02753               2.80     4000.00
02754               3.00     4000.00
02755               3.00     3800.00
02756               3.00     3800.00
02757               2.80     4000.00
02758               2.40     3800.00
02759               3.00     4000.00
02760               2.80     3800.00
02761               2.60     3600.00
02762               2.20     3600.00
02763               2.60     3800.00
02764               2.40     3800.00
02765               2.40     3600.00
02766               2.60     3600.00
02767               2.60     3600.00
02768               2.60     3600.00
02769               2.20     3600.00
02770               2.60     3200.00
02771               2.60     3600.00
02772               2.40     3400.00
02773               1.80     3200.00
02774               2.20     3200.00
02775               2.60     3200.00
02776               1.80     3200.00
02777               2.00     3200.00
02778               2.40     3200.00
02779               1.80     3200.00
02780               2.00     3200.00
02781               2.60     3200.00
02782               2.00     3000.00
02783               1.80     3000.00
02784               2.00     3200.00
02785               2.20     3000.00
02786               2.00     3000.00
02787               1.80     2800.00
02788               2.00     2800.00
02789               2.00     2800.00
02790               1.40     3000.00
02791               1.80     2800.00
02792               2.00     2800.00
02793               1.40     2800.00
02794               1.20     2600.00
02795               2.00     2800.00
02796               2.00     2800.00
02797               1.00     2400.00
02798               1.20     2400.00
02799               2.20     2800.00
02800               1.20     2400.00
02801               0.80     2400.00
02802               2.20     2400.00
02803               1.80     2400.00
02804               0.20     2400.00
02805               1.40     2200.00
02806               2.00     2200.00
02807               0.20     2200.00
02808               0.60     2200.00
02809               1.80     2200.00
02810               1.00     2000.00
02811               0.20     2000.00
02812               1.00     2000.00
02813               1.40     2000.00
02814               1.00     2000.00
02815               0.40     2000.00
02816               1.40     1800.00
02817               1.20     2000.00
02818               0.20     1600.00
02819               1.20     1800.00
02820               1.00     1800.00
02821              -0.60     1600.00
02822               0.60     1800.00
02823               1.20     1600.00
02824               0.00     1600.00
02825               0.40     1600.00
02826               1.40     1400.00
02827               0.40     1400.00
02828               0.20     1400.00
02829               0.80     1200.00
02830               0.60     1200.00
02831               0.00     1200.00
02832               0.40     1200.00
02833               0.60     1200.00
02834               0.20     1000.00
02835               0.40     1200.00
02836               0.40      800.00
02837               0.40      800.00
02838               0.40     1000.00
02839               0.40      800.00
02840               0.20      800.00
02841               0.20      800.00
02842               0.20      800.00
02843               0.20      800.00
02844               0.40      600.00
02845              -0.40      800.00
02846               0.80      400.00
02847               0.40      600.00
02848              -0.60      400.00
02849               0.80      600.00
02850               0.60      600.00
02851              -1.20      400.00
02852               0.40      400.00
02853               0.80      400.00
02854              -1.00      200.00
02855              -0.40      200.00
02856               1.00      200.00
02857              -1.00      200.00
02858              -1.00        0.00
02859               0.60        0.00
02860               0.20      200.00
02861              -0.60        0.00
02862               0.40     -200.00
02863               0.40     -200.00
02864              -0.40     -200.00
02865              -0.20        0.00
02866               0.20     -200.00
02867              -1.00     -200.00
02868              -0.20     -200.00
02869              11.00     -400.00
02870              11.60     -600.00
02871             -25.00     -600.00
02872             -23.00     -200.00
02873              25.00     -600.00
02874              21.80     -400.00
02875             -25.00    -1000.00
02876             -14.00     -400.00
02877              25.00     -800.00
02878               2.20     -800.00
02879             -25.00     -800.00
02880              25.00     -800.00
02881              25.00    -1000.00
02882             -25.00    -1000.00
02883             -25.00    -1000.00
02884              25.00     -800.00
02885              25.00    -1200.00
02886             -25.00    -1000.00
02887             -19.00    -1400.00
02888              25.00    -1000.00
02889             -15.00    -1600.00
02890             -25.00    -1000.00
02891              25.00    -1600.00
02892              25.00    -1200.00
02893             -25.00    -1400.00
02894             -17.40    -1200.00
02895              25.00    -1600.00
02896             -25.00    -1600.00
02897             -25.00    -1600.00
02898              25.00    -1800.00
02899              25.00    -1800.00
02900             -25.00    -1600.00
02901               4.20    -1800.00
02902              25.00    -1800.00
02903             -25.00    -1600.00
02904             -25.00    -2000.00
02905              25.00    -1800.00
02906              16.40    -2000.00
02907             -25.00    -1800.00
02908              12.20    -2000.00
02909              25.00    -2000.00
02910             -25.00    -2000.00
02911             -25.00    -2000.00
02912              25.00    -2200.00
02913               1.80    -2000.00
02914             -25.00    -2400.00
02915              18.40    -2200.00
02916              25.00    -2400.00
02917             -25.00    -2400.00
02918              -6.20    -2400.00
02919              25.00    -2400.00
02920             -17.20    -2400.00
02921             -21.40    -2400.00
02922              23.80    -2600.00
02923              -1.40    -2400.00
02924             -22.00    -2600.00
02925               8.80    -2600.00
02926               9.00    -2600.00
02927             -16.60    -2600.00
02928              -1.40    -2800.00
02929               8.20    -2800.00
02930              -6.80    -2800.00
02931              -8.40    -2800.00
02932               4.80    -2800.00
02933              -1.00    -3000.00
02934              -8.60    -2800.00
02935              -0.20    -3000.00
02936               2.80    -3000.00
02937              -7.60    -3200.00
02938              -3.80    -3000.00
02939               3.40    -3200.00
02940              -4.60    -3200.00
02941              -6.60    -3200.00
02942               1.40    -3200.00
02943              -0.60    -3200.00
02944              -7.60    -3400.00
02945              -2.00    -3400.00
02946               0.60    -3400.00
02947              -5.40    -3400.00
02948              -5.20    -3400.00
02949               1.40    -3400.00
02950              -3.40    -3400.00
02951              -6.40    -3600.00
02952              -1.20    -3600.00
02953              -0.20    -3600.00
02954              -6.00    -3600.00
02955              -3.80    -3800.00
02956              -0.60    -3600.00
02957              -3.80    -3600.00
02958              -5.40    -3800.00
02959              -1.40    -3800.00
02960              -2.60    -3800.00
02961              -5.80    -4000.00
02962              -3.00    -4000.00
02963              -1.80    -4000.00
02964              -4.20    -4000.00
02965              -4.60    -4000.00
02966              -2.20    -4000.00
02967              -3.60    -4000.00
02968              -4.60    -4200.00
02969              -3.20    -4000.00
02970              -3.40    -4200.00
02971              -4.80    -4000.00
02972              -2.80    -4200.00
02973              -3.40    -4200.00
02974              -4.40    -4200.00
02975              -4.40    -4200.00
02976              -3.00    -4200.00
02977              -4.40    -4200.00
02978              -4.60    -4200.00
02979              -3.60    -4200.00
02980              -4.20    -4400.00
02981              -4.80    -4400.00
02982              -4.40    -4200.00
02983              -4.20    -4400.00
02984              -5.00    -4400.00
02985              -4.60    -4400.00
02986              -3.80    -4400.00
02987              -4.60    -4200.00
02988              -5.40    -4400.00
02989              -4.40    -4600.00
02990              -4.40    -4600.00
02991              -5.20    -4400.00
02992              -4.80    -4400.00
02993              -4.60    -4600.00
02994              -5.40    -4400.00
02995              -5.20    -4800.00
02996              -4.80    -4600.00
02997              -5.80    -4800.00
02998              -6.00    -4600.00
02999              -5.20    -4600.00
03000              -5.80    -4600.00
03001              -6.20    -4600.00
03002              -5.20    -4600.00
03003              -5.80    -4600.00
03004              -6.20    -4600.00
03005              -6.00    -4800.00
03006              -5.80    -4800.00
03007              -6.40    -4800.00
03008              -6.80    -4800.00
03009              -6.20    -4600.00
03010              -6.00    -4600.00
03011              -6.80    -4800.00
03012              -7.00    -4800.00
03013              -6.80    -4600.00
03014              -6.20    -5000.00
03015              -6.80    -4800.00
03016              -7.60    -4600.00
03017              -6.60    -4800.00
03018              -7.00    -5000.00
03019              -7.00    -5000.00
03020              -7.00    -4600.00
03021              -7.60    -5000.00
03022              -7.40    -5000.00
03023              -7.40    -5000.00
03024              -7.80    -5000.00
03025              -7.80    -4600.00
03026              -7.80    -5000.00
03027              -8.20    -5000.00
03028              -7.60    -5000.00
03029              -7.80    -5000.00
03030              -8.40    -5000.00
03031              -8.20    -5000.00
03032              -7.80    -5000.00
03033              -8.40    -5000.00
03034              -9.00    -5000.00
03035              -7.80    -5000.00
03036              -8.60    -5000.00
03037              -8.80    -5000.00
03038              -8.20    -5000.00
03039              -8.40    -5000.00
03040              -9.20    -5000.00
03041              -8.60    -5000.00
03042              -8.40    -5000.00
03043              -9.00    -5000.00
03044              -9.20    -5200.00
03045              -8.80    -5000.00
03046              -8.80    -5000.00
03047              -9.20    -5000.00
03048              -9.20    -5000.00
03049              -8.60    -5200.00
03050              -9.40    -5000.00
03051              -9.20    -5000.00
03052              -8.80    -5000.00
03053              -9.00    -5000.00
03054              -9.00    -5000.00
03055              -8.60    -5000.00
03056              -8.40    -5000.00
03057              -9.00    -5000.00
03058              -8.40    -5000.00
03059              -8.40    -5000.00
03060              -8.40    -4600.00
03061              -7.40    -5000.00
03062              -8.20    -5000.00
03063              -8.40    -5000.00
03064              -7.00    -5000.00
03065              -7.60    -5000.00
03066              -8.60    -5000.00
03067              -7.00    -5000.00
03068              -6.80    -5000.00
03069              -7.80    -4600.00
03070              -7.40    -5000.00
03071              -6.40    -5000.00
03072              -5.00    -4800.00
03073             -11.00    -4600.00
03074              -5.80    -4800.00
03075              -5.20    -5000.00
03076             -14.00    -4800.00
03077              -2.80    -4800.00
03078              -6.60    -4600.00
03079              -3.00    -5000.00
03080              -3.80    -4600.00
03081              -8.20    -4800.00
03082              -6.00    -4600.00
03083              -8.40    -4800.00
03084              -7.60    -4600.00
03085              -8.40    -4600.00
03086              -5.80    -4600.00
03087              -4.00    -4600.00
03088              -2.00    -4600.00
03089              -6.40    -4600.00
03090              -2.40    -4600.00
03091              -9.20    -4600.00
03092              -5.60    -4600.00
03093              -8.40    -4600.00
03094              -8.40    -4400.00
03095               0.20    -4800.00
03096              -6.00    -4400.00
03097              -4.60    -4600.00
03098              -1.20    -4400.00
03099              -6.00    -4400.00
03100              -7.40    -4600.00
03101              -5.20    -4400.00
03102              -6.20    -4600.00
03103              -4.20    -4400.00
03104              -5.80    -4400.00
03105              -3.60    -4200.00
03106              -3.20    -4400.00
03107              -3.40    -4400.00
03108              -5.80    -4400.00
03109              -4.00    -4200.00
03110              -4.20    -4200.00
03111              -4.60    -4200.00
03112              -5.20    -4200.00
03113              -3.80    -4200.00
03114              -3.80    -4200.00
03115              -3.80    -4000.00
03116              -3.60    -4200.00
03117              -3.60    -4200.00
03118              -3.20    -4000.00
03119              -4.80    -4200.00
03120              -4.60    -4200.00
03121              -2.40    -4000.00
03122              -4.20    -4000.00
03123              -4.60    -4000.00
03124              -2.80    -4000.00
03125              -2.60    -4000.00
03126              -4.20    -3800.00
03127              -2.80    -4000.00
03128              -2.60    -4000.00
03129              -4.40    -4000.00
03130              -4.20    -3800.00
03131              -3.60    -3800.00
03132              -3.40    -3800.00
03133              -3.60    -3600.00
03134              -2.20    -3600.00
03135              -3.40    -3800.00
03136              -3.00    -3600.00
03137              -2.80    -3600.00
03138              -2.80    -3600.00
03139              -3.40    -3600.00
03140              -3.40    -3600.00
03141              -3.00    -3600.00
03142              -2.80    -3600.00
03143              -2.60    -3600.00
03144              -2.80    -3400.00
03145              -2.60    -3600.00
03146              -2.40    -3400.00
03147              -2.80    -3400.00
03148              -3.00    -3400.00
03149              -2.60    -3400.00
03150              -2.80    -3200.00
03151              -3.00    -3200.00
03152              -2.00    -3200.00
03153              -2.20    -3200.00
03154              -2.80    -3200.00
03155              -1.40    -3200.00
03156              -1.60    -3000.00
03157              -3.00    -2800.00
03158              -2.60    -2800.00
03159              -2.20    -3000.00
03160              -2.20    -2800.00
03161              -2.60    -2800.00
03162              -2.20    -2800.00
03163              -1.40    -2800.00
03164              -2.20    -2800.00
03165              -2.80    -2600.00
03166              -1.80    -2600.00
03167              -1.00    -2600.00
03168              -2.80    -2600.00
03169              -2.20    -2600.00
03170              -0.60    -2400.00
03171              -1.40    -2400.00
03172              -3.00    -2400.00
03173              -2.00    -2400.00
03174               0.40    -2400.00
03175              -1.20    -2400.00
03176              -3.80    -2400.00
03177              -1.80    -2400.00
03178               1.20    -2200.00
03179              -2.60    -2000.00
03180              -4.00    -2000.00
03181               0.20    -2200.00
03182               0.20    -2000.00
03183              -2.80    -2000.00
03184              -1.40    -2000.00
03185               0.20    -2000.00
03186              -2.00    -2000.00
03187              -2.20    -1800.00
03188              -1.00    -1800.00
03189              -1.20    -1800.00
03190              -1.40    -1800.00
03191              -0.60    -1800.00
03192              -1.40    -1800.00
03193              -1.80    -1600.00
03194              -0.80    -1600.00
03195              -1.20    -1600.00
03196              -2.00    -1600.00
03197              -1.20    -1600.00
03198              -1.00    -1400.00
03199              -1.20    -1600.00
03200              -0.60    -1400.00
03201              -1.20    -1200.00
03202              -1.00    -1200.00
03203              -1.20    -1200.00
03204              -1.40    -1200.00
03205              -1.00    -1200.00
03206              -1.20    -1000.00
03207              -1.20    -1000.00
03208              -0.60    -1000.00
03209              -1.00     -800.00
03210              -1.40    -1000.00
03211              -0.60    -1000.00
03212              -1.00     -800.00
03213              -0.80     -800.00
03214              -0.60     -800.00
03215              -0.80     -800.00
03216              -1.00     -800.00
03217              -0.60     -600.00
03218              -0.60     -600.00
03219              -1.00     -400.00
03220              -0.60     -600.00
03221              -0.60     -400.00
03222              -0.60     -400.00
03223              -0.60     -400.00
03224              -0.60     -200.00
03225              -1.00     -400.00
03226              -0.20     -200.00
03227               0.40     -200.00
03228              -1.40     -200.00
03229              -0.60        0.00
03230               0.40        0.00
03231              -1.00        0.00
03232              -0.60        0.00
03233               1.00        0.00
03234              -0.60        0.00
03235              -0.20      200.00
03236               1.80      200.00
03237              -0.40      200.00
03238              -1.00      200.00
03239               0.40      400.00
03240               1.20      400.00
03241               3.40      400.00
03242              11.40      600.00
03243              -9.80      600.00
03244             -25.00      400.00
03245              19.80      400.00
03246              25.00      600.00
03247             -25.00      800.00
03248             -25.00      600.00
03249              25.00      800.00
03250              25.00      800.00
03251             -25.00      800.00
03252             -25.00      600.00
03253              25.00     1000.00
03254              25.00      800.00
03255             -25.00     1200.00
03256              22.00      800.00
03257              25.00     1200.00
03258             -25.00      800.00
03259             -25.00     1200.00
03260              25.00     1200.00
03261              21.80     1200.00
03262             -25.00     1400.00
03263              25.00     1200.00
03264              25.00     1800.00
03265             -25.00     1400.00
03266             -25.00     1800.00
03267              25.00     1200.00
03268               8.60     1800.00
03269             -25.00     1600.00
03270              25.00     1800.00
03271              25.00     1600.00
03272             -25.00     2000.00
03273             -17.20     1600.00
03274              25.00     1800.00
03275             -15.40     1800.00
03276             -25.00     2000.00
03277              25.00     1800.00
03278              21.00     2000.00
03279             -25.00     2000.00
03280               3.80     2000.00
03281              25.00     2200.00
03282             -21.80     2200.00
03283             -21.40     2000.00
03284              25.00     2000.00
03285              10.20     2200.00
03286             -25.00     2200.00
03287              13.80     2200.00
03288              23.40     2400.00
03289             -20.60     2400.00
03290              -7.60     2400.00
03291              25.00     2400.00
03292              -9.20     2400.00
03293             -14.00     2600.00
03294              19.40     2400.00
03295               5.20     2600.00
03296             -17.40     2400.00
03297              10.60     2800.00
03298              11.60     2600.00
03299             -11.40     2800.00
03300               0.40     2800.00
03301              13.00     2800.00
03302              -2.80     2800.00
03303              -5.40     2800.00
03304               9.60     2800.00
03305               3.40     3000.00
03306              -4.80     3000.00
03307               3.40     2800.00
03308               8.20     3000.00
03309              -3.80     3200.00
03310               1.00     3200.00
03311               6.80     3000.00
03312               1.80     3000.00
03313              -3.00     3200.00
03314               6.40     3200.00
03315               3.80     3200.00
03316              -1.20     3200.00
03317               1.80     3400.00
03318               6.20     3400.00
03319               0.20     3200.00
03320               0.60     3600.00
03321               5.20     3400.00
03322               3.00     3600.00
03323              -0.40     3600.00
03324               3.80     3600.00
03325               4.40     3600.00
03326               0.60     3600.00
03327               2.00     3800.00
03328               4.40     3600.00
03329               2.60     3600.00
03330               1.00     3800.00
03331               4.20     3600.00
03332               2.80     3800.00
03333               2.00     3800.00
03334               2.60     3800.00
03335               4.20     3800.00
03336               2.00     3800.00
03337               3.00     4000.00
03338               3.80     3800.00
03339               3.40     4000.00
03340               2.20     4000.00
03341               4.20     4000.00
03342               3.40     4000.00
03343               2.80     4000.00
03344               3.40     4200.00
03345               3.80     4200.00
03346               2.80     4000.00
03347               3.60     4000.00
03348               4.20     4200.00
03349               3.40     4400.00
03350               3.40     4400.00
03351               4.20     4400.00
03352               4.20     4400.00
03353               3.40     4400.00
03354               4.20     4400.00
03355               4.20     4400.00
03356               4.20     4400.00
03357               3.60     4400.00
03358               4.60     4400.00
03359               4.20     4600.00
03360               4.20     4400.00
03361               4.80     4400.00
03362               5.00     4600.00
03363               4.20     4400.00
03364               4.60     4600.00
03365               5.20     4600.00
03366               4.80     4600.00
03367               4.60     4600.00
03368               5.40     4600.00
03369               5.20     4600.00
03370               4.40     4800.00
03371               5.20     4800.00
03372               6.00     4600.00
03373               5.00     4600.00
03374               5.00     4600.00
03375               6.60     4800.00
03376               5.80     4800.00
03377               5.00     4800.00
03378               6.00     4800.00
03379               6.20     4800.00
03380               5.00     4800.00
03381               5.80     4800.00
03382               6.20     4800.00
03383               6.00     4800.00
03384               5.80     4800.00
03385               6.60     4800.00
03386               7.40     4800.00
03387               5.20     4800.00
03388               6.00     4800.00
03389               8.00     5000.00
03390               6.00     4800.00
03391               5.80     4800.00
03392               7.60     4800.00
03393               6.80     4800.00
03394               5.80     4800.00
03395               6.80     5000.00
03396               8.40     4800.00
03397               6.60     5000.00
03398               6.60     4800.00
03399               8.20     5200.00
03400               7.80     4800.00
03401               6.60     5200.00
03402               7.60     5000.00
03403               8.60     5000.00
03404               7.20     5200.00
03405               7.60     5000.00
03406               8.20     5000.00
03407               7.60     5000.00
03408               8.20     5200.00
03409               8.00     5000.00
03410               7.80     5200.00
03411               8.40     5200.00
03412               8.60     5200.00
03413               8.20     5000.00
03414               8.80     5000.00
03415               8.40     5200.00
03416               7.80     5000.00
03417               8.40     5200.00
03418               9.20     5000.00
03419               8.60     5000.00
03420               8.40     5000.00
03421               9.20     5200.00
03422               8.60     5000.00
03423               8.00     5000.00
03424               8.60     5200.00
03425               8.60     5000.00
03426               7.80     5200.00
03427               8.40     5000.00
03428               8.40     5200.00
03429               7.80     4800.00
03430               7.80     4800.00
03431               8.40     5200.00
03432               8.20     5000.00
03433               7.00     5000.00
03434               7.40     5200.00
03435               8.40     5000.00
03436               6.80     5000.00
03437               6.80     5000.00
03438               7.80     4800.00
03439               7.60     5000.00
03440               5.80     4800.00
03441               6.60     4800.00
03442               7.00     5000.00
03443               6.20     4800.00
03444               6.60     5000.00
03445               6.80     4800.00
03446               6.60     4800.00
03447               6.20     4800.00
03448               6.60     4800.00
03449               5.40     4800.00
03450               6.00     4800.00
03451               6.20     4800.00
03452               6.00     4800.00
03453               5.20     4800.00
03454               5.80     4800.00
03455               5.40     4800.00
03456               5.20     4800.00
03457               5.20     4800.00
03458               5.60     4800.00
03459               5.00     4600.00
03460               5.00     4800.00
03461               5.20     4600.00
03462               5.00     4800.00
03463               4.60     4800.00
03464               5.20     4600.00
03465               5.00     4600.00
03466               4.40     4600.00
03467               4.40     4600.00
03468               4.60     4600.00
03469               5.00     4600.00
03470               3.80     4600.00
03471               4.60     4400.00
03472               5.00     4400.00
03473               2.80     4400.00
03474               4.20     4400.00
03475               5.20     4400.00
03476               3.60     4400.00
03477               3.60     4400.00
03478               5.00     4400.00
03479               3.60     4400.00
03480               3.60     4400.00
03481               4.40     4400.00
03482               3.60     4400.00
03483               3.40     4400.00
03484               3.80     4400.00
03485               4.00     4200.00
03486               3.40     4400.00
03487               3.60     4200.00
03488               3.40     4000.00
03489               3.60     4000.00
03490               3.00     4200.00
03491               3.40     4000.00
03492               3.60     4000.00
03493               3.20     4000.00
03494               3.40     4000.00
03495               3.60     4000.00
03496               3.20     4000.00
03497               3.00     3800.00
03498               3.00     3800.00
03499               3.40     4000.00
03500               3.00     3800.00
03501               2.80     3800.00
03502               3.00     3800.00
03503               2.80     3800.00
03504               2.60     3800.00
03505               3.00     3800.00
03506               2.80     3800.00
03507               2.60     3800.00
03508               2.80     3600.00
03509               2.80     3600.00
03510               2.60     3400.00
03511               2.40     3600.00
03512               2.60     3600.00
03513               2.60     3600.00
03514               2.40     3600.00
03515               2.40     3600.00
03516               2.60     3600.00
03517               2.00     3400.00
03518               2.20     3200.00
03519               2.00     3200.00
03520               2.00     3200.00
03521               2.00     3200.00
03522               2.20     3200.00
03523               2.60     3200.00
03524               1.40     3200.00
03525               2.20     3200.00
03526               2.00     3000.00
03527               1.40     3000.00
03528               1.80     3000.00
03529               1.40     3000.00
03530               2.20     3000.00
03531               1.20     2800.00
03532               1.20     2800.00
03533               2.00     2800.00
03534               1.20     2800.00
03535               1.20     2800.00
03536               1.40     2800.00
03537               1.80     2800.00
03538               1.20     2400.00
03539               1.20     2400.00
03540               2.00     2600.00
03541               1.20     2400.00
03542               1.20     2400.00
03543               1.40     2400.00
03544               1.60     2600.00
03545               1.00     2400.00
03546               1.00     2400.00
03547               1.80     2200.00
03548               1.20     2200.00
03549               0.60     2200.00
03550               1.20     2200.00
03551               1.40     2000.00
03552               1.00     2000.00
03553               0.80     2200.00
03554               1.00     2000.00
03555               1.20     2000.00
03556               1.00     2000.00
03557               0.60     2000.00
03558               1.00     1800.00
03559               1.00     1800.00
03560               0.80     1800.00
03561               0.60     2000.00
03562               1.00     1600.00
03563               1.20     1800.00
03564               0.60     1600.00
03565               0.20     1800.00
03566               1.00     1400.00
03567               0.60     1600.00
03568               0.40     1600.00
03569               1.20     1600.00
03570               0.60     1400.00
03571               0.20     1400.00
03572               1.00     1400.00
03573               0.60     1400.00
03574               0.20     1200.00
03575               0.40     1200.00
03576               1.00     1200.00
03577               0.20     1200.00
03578               0.20     1000.00
03579               0.40     1000.00
03580               0.60     1000.00
03581               0.20      800.00
03582               0.20      800.00
03583               0.40      800.00
03584               0.20      800.00
03585               0.20      800.00
03586               0.20      800.00
03587              -0.20      800.00
03588               0.40      600.00
03589               0.40      600.00
03590              -0.60      600.00
03591              -0.20      400.00
03592               0.40      600.00
03593              -0.80      400.00
03594              -0.40      400.00
03595               0.40      400.00
03596              -0.60      400.00
03597              -0.60      400.00
03598               0.40      400.00
03599              -0.20      200.00
03600              -1.00        0.00
03601              -0.20        0.00
03602              -0.20        0.00
03603              -0.40        0.00
03604              -0.40        0.00
03605               0.20     -200.00
03606              -0.20     -200.00
03607              -0.60     -200.00
03608              -0.20     -200.00
03609              -0.20     -200.00
03610              -1.00     -400.00
03611              -0.60     -200.00
03612               4.60     -400.00
03613              17.00     -400.00
03614             -15.60     -800.00
03615             -25.00     -400.00
03616              25.00     -400.00
03617              25.00     -400.00
03618             -25.00     -800.00
03619             -25.00     -400.00
03620              25.00     -800.00
03621              25.00     -600.00
03622             -25.00     -800.00
03623             -25.00     -600.00
03624              25.00     -800.00
03625              25.00    -1000.00
03626             -25.00    -1000.00
03627              22.60     -800.00
03628              25.00    -1000.00
03629             -25.00    -1200.00
03630             -25.00    -1000.00
03631              25.00    -1200.00
03632              25.00    -1200.00
03633             -25.00    -1200.00
03634               8.20    -1200.00
03635              25.00    -1400.00
03636             -25.00    -1200.00
03637             -25.00    -1400.00
03638              25.00    -1600.00
03639              25.00    -1600.00
03640             -25.00    -1400.00
03641              15.40    -1800.00
03642              25.00    -1600.00
03643             -25.00    -1800.00
03644             -25.00    -1800.00
03645              25.00    -2000.00
03646              17.00    -1600.00
03647             -25.00    -2000.00
03648              23.60    -2000.00
03649              25.00    -2000.00
03650             -25.00    -2000.00
03651             -25.00    -2000.00
03652              25.00    -2000.00
03653              -1.80    -2000.00
03654             -25.00    -2000.00
03655              22.80    -2200.00
03656              25.00    -2200.00
03657             -25.00    -2200.00
03658             -11.60    -2200.00
03659              25.00    -2400.00
03660             -17.40    -2400.00
03661             -25.00    -2400.00
03662              25.00    -2600.00
03663               6.80    -2600.00
03664             -25.00    -2600.00
03665              11.40    -2600.00
03666              16.40    -2600.00
03667             -22.80    -2600.00
03668              -5.00    -2600.00
03669              16.40    -2600.00
03670             -10.20    -2800.00
03671             -11.40    -2800.00
03672               9.20    -2800.00
03673              -0.40    -2800.00
03674             -12.00    -2800.00
03675               0.60    -2800.00
03676               4.40    -2800.00
03677              -8.20    -2800.00
03678              -4.40    -3000.00
03679               4.40    -3200.00
03680              -3.40    -3200.00
03681              -8.40    -3200.00
03682               2.60    -3200.00
03683              -0.40    -3200.00
03684              -8.60    -3200.00
03685              -1.40    -3200.00
03686               3.00    -3200.00
03687              -7.00    -3400.00
03688              -4.60    -3400.00
03689               2.20    -3400.00
03690              -3.00    -3400.00
03691              -7.40    -3400.00
03692               0.60    -3400.00
03693               0.20    -3400.00
03694              -7.20    -3600.00
03695              -3.00    -3600.00
03696               1.00    -3600.00
03697              -4.40    -3600.00
03698              -5.60    -3600.00
03699              -0.60    -3600.00
03700              -2.20    -3600.00
03701              -5.60    -3600.00
03702              -2.80    -3800.00
03703              -1.00    -3800.00
03704              -5.40    -4000.00
03705              -3.80    -4000.00
03706              -1.40    -4000.00
03707              -3.60    -4000.00
03708              -5.00    -4000.00
03709              -2.00    -4000.00
03710              -3.40    -4000.00
03711              -5.00    -4000.00
03712              -3.40    -4000.00
03713              -3.00    -4200.00
03714              -4.40    -4200.00
03715              -4.40    -4200.00
03716              -3.00    -4200.00
03717              -3.80    -4200.00
03718              -5.60    -4200.00
03719              -3.80    -4200.00
03720              -3.40    -4200.00
03721              -5.20    -4200.00
03722              -4.40    -4200.00
03723              -3.60    -4200.00
03724              -4.60    -4400.00
03725              -5.20    -4200.00
03726              -3.80    -4400.00
03727              -4.20    -4200.00
03728              -5.20    -4400.00
03729              -4.60    -4400.00
03730              -4.20    -4400.00
03731              -5.40    -4400.00
03732              -5.20    -4400.00
03733              -4.40    -4600.00
03734              -5.40    -4400.00
03735              -5.40    -4400.00
03736              -4.60    -4600.00
03737              -5.20    -4400.00
03738              -6.00    -4800.00
03739              -5.00    -4600.00
03740              -5.40    -4600.00
03741              -6.00    -4800.00
03742              -5.60    -4600.00
03743              -5.00    -4800.00
03744              -6.00    -4400.00
03745              -6.60    -4800.00
03746              -5.00    -4800.00
03747              -5.40    -4600.00
03748              -7.20    -4800.00
03749              -6.20    -4600.00
03750              -5.00    -4800.00
03751              -6.80    -4600.00
03752              -6.60    -4600.00
03753              -5.80    -4800.00
03754              -6.60    -4600.00
03755              -7.00    -4800.00
03756              -6.60    -4800.00
03757              -6.00    -4800.00
03758              -6.20    -4800.00
03759              -8.20    -4800.00
03760              -6.80    -4800.00
03761              -6.20    -5000.00
03762              -7.60    -5000.00
03763              -7.60    -5000.00
03764              -6.60    -5000.00
03765              -7.60    -5000.00
03766              -7.40    -5000.00
03767              -7.40    -5000.00
03768              -7.40    -5000.00
03769              -8.20    -5000.00
03770              -8.20    -5000.00
03771              -7.20    -5000.00
03772              -7.20    -5000.00
03773              -8.60    -5000.00
03774              -7.40    -5000.00
03775              -7.80    -5000.00
03776              -8.60    -5000.00
03777              -7.80    -5000.00
03778              -8.20    -5000.00
03779              -9.80    -5000.00
03780              -7.60    -5200.00
03781              -8.60    -5000.00
03782              -9.80    -5200.00
03783              -8.20    -5000.00
03784              -9.20    -5000.00
03785              -9.60    -5000.00
03786              -8.40    -5000.00
03787              -9.20    -5000.00
03788              -9.20    -5000.00
03789              -8.60    -5000.00
03790              -9.20    -5000.00
03791              -9.60    -5000.00
03792              -8.60    -4800.00
03793              -9.20    -5000.00
03794              -9.40    -5200.00
03795              -9.00    -5000.00
03796              -9.20    -5000.00
03797              -9.40    -5000.00
03798              -9.00    -5000.00
03799              -9.00    -5000.00
03800              -8.60    -5000.00
03801              -8.40    -5200.00
03802              -8.80    -5000.00
03803              -8.40    -5000.00
03804              -7.80    -5000.00
03805              -8.60    -5000.00
03806              -8.60    -5000.00
03807              -7.60    -4800.00
03808              -7.40    -5000.00
03809              -8.40    -5000.00
03810              -7.60    -5000.00
03811              -7.00    -4600.00
03812              -7.80    -5000.00
03813              -7.60    -5000.00
03814              -6.80    -5000.00
03815              -7.00    -5000.00
03816              -7.00    -4800.00
03817              -6.80    -5000.00
03818              -6.40    -4800.00
03819              -6.60    -4800.00
03820              -6.80    -4600.00
03821              -6.60    -4600.00
03822              -6.20    -4800.00
03823              -6.00    -4800.00
03824              -7.00    -4800.00
03825              -6.00    -4600.00
03826              -4.40    -4800.00
03827              -7.40    -4800.00
03828              -6.40    -4600.00
03829              -3.40    -4800.00
03830              -6.80    -4600.00
03831              -6.00    -4800.00
03832              -5.00    -4600.00
03833              -5.40    -4800.00
03834              -5.80    -4600.00
03835              -6.20    -4800.00
03836              -4.00    -4600.00
03837              -6.00    -4600.00
03838              -5.00    -4600.00
03839              -4.60    -4400.00
03840              -4.60    -4600.00
03841              -5.40    -4400.00
03842              -6.00    -4600.00
03843              -2.60    -4600.00
03844              -5.80    -4400.00
03845              -6.60    -4400.00
03846              -3.00    -4400.00
03847              -4.60    -4400.00
03848              -5.20    -4400.00
03849              -4.60    -4400.00
03850              -3.80    -4400.00
03851              -4.40    -4400.00
03852              -4.60    -4400.00
03853              -5.00    -4400.00
03854              -3.40    -4200.00
03855              -4.40    -4200.00
03856              -5.40    -4400.00
03857              -3.40    -4200.00
03858              -3.80    -4200.00
03859              -5.80    -4200.00
03860              -3.20    -4200.00
03861              -3.40    -4200.00
03862              -4.60    -4200.00
03863              -3.00    -4200.00
03864              -3.40    -4200.00
03865              -5.20    -4000.00
03866              -3.80    -4000.00
03867              -2.20    -4000.00
03868              -4.60    -4000.00
03869              -3.80    -4000.00
03870              -2.20    -4000.00
03871              -3.40    -3800.00
03872              -5.00    -4000.00
03873              -3.40    -3800.00
03874              -2.40    -3800.00
03875              -3.80    -3600.00
03876              -3.00    -3800.00
03877              -2.20    -3800.00
03878              -3.60    -3600.00
03879              -3.80    -3600.00
03880              -2.80    -3600.00
03881              -2.20    -3600.00
03882              -2.80    -3600.00
03883              -3.60    -3600.00
03884              -2.20    -3600.00
03885              -1.40    -3400.00
03886              -4.60    -3400.00
03887              -3.80    -3400.00
03888               0.40    -3200.00
03889              -3.40    -3400.00
03890              -5.20    -3400.00
03891               0.20    -3200.00
03892              -2.20    -3200.00
03893              -5.40    -3200.00
03894              -1.20    -3200.00
03895              -0.60    -3000.00
03896              -4.60    -3200.00
03897              -2.20    -3000.00
03898              -0.40    -3000.00
03899              -3.00    -3200.00
03900              -3.40    -2800.00
03901              -1.20    -3000.00
03902              -2.20    -2800.00
03903              -3.00    -2800.00
03904              -2.00    -2800.00
03905              -1.40    -2800.00
03906              -2.60    -2800.00
03907              -2.20    -2800.00
03908              -1.80    -2800.00
03909              -2.00    -2600.00
03910              -2.20    -2800.00
03911              -2.20    -2600.00
03912              -1.80    -2800.00
03913              -2.00    -2400.00
03914              -2.20    -2400.00
03915              -2.00    -2600.00
03916              -1.80    -2400.00
03917              -1.80    -2400.00
03918              -2.20    -2400.00
03919              -1.80    -2400.00
03920              -1.80    -2400.00
03921              -2.00    -2200.00
03922              -2.00    -2200.00
03923              -1.60    -2200.00
03924              -1.40    -2000.00
03925              -2.00    -2000.00
03926              -1.80    -2200.00
03927              -1.20    -2000.00
03928              -1.80    -2000.00
03929              -2.20    -2000.00
03930              -1.20    -1800.00
03931              -1.40    -1800.00
03932              -2.00    -1800.00
03933              -1.20    -1800.00
03934              -1.20    -1800.00
03935              -1.80    -1600.00
03936              -1.20    -1600.00
03937              -1.00    -1800.00
03938              -1.00    -1600.00
03939              -1.20    -1400.00
03940              -1.60    -1600.00
03941              -1.00    -1600.00
03942              -1.00    -1400.00
03943              -1.20    -1200.00
03944              -1.20    -1600.00
03945              -0.60    -1200.00
03946              -1.20    -1200.00
03947              -1.20    -1200.00
03948              -1.00    -1000.00
03949              -0.40    -1200.00
03950              -1.20    -1000.00
03951              -1.00    -1000.00
03952              -0.40    -1000.00
03953              -1.20    -1000.00
03954              -1.20    -1000.00
03955              -0.20     -800.00
03956              -0.60     -800.00
03957              -1.20     -800.00
03958              -0.20     -800.00
03959              -0.60     -800.00
03960              -1.00     -800.00
03961              -0.60     -600.00
03962              -0.20     -400.00
03963              -0.60     -600.00
03964              -1.20     -400.00
03965              -0.20     -400.00
03966              -0.20     -400.00
03967              -1.00     -400.00
03968              -0.20     -400.00
03969               0.40     -200.00
03970              -0.60     -200.00
03971              -0.60     -200.00
03972               0.20        0.00
03973              -0.60     -200.00
03974              -0.60     -200.00
03975               0.60     -200.00
03976              -0.40        0.00
03977              -1.20        0.00
03978               1.00        0.00
03979               0.40        0.00
03980              -1.00        0.00
03981               0.60      200.00
03982               0.20      200.00
03983              -1.20      400.00
03984               2.20      400.00
03985              11.20      600.00
03986              -0.40      600.00
03987             -25.00      400.00
03988             -10.40      400.00
03989              25.00      600.00
03990               7.80      600.00
03991             -25.00      800.00
03992               3.40      400.00
03993              25.00     1200.00
03994             -23.40      400.00
03995             -25.00     1200.00
03996              25.00      400.00
03997              25.00     1200.00
03998             -25.00      600.00
03999             -25.00     1400.00
04000              25.00      800.00
04001              22.60     1200.00
04002             -25.00      800.00
04003              25.00     1400.00
04004              25.00     1000.00
04005             -25.00     1600.00
04006             -25.00     1200.00
04007              25.00     1400.00
04008              -4.20     1200.00
04009             -25.00     1600.00
04010              25.00     1200.00
04011              25.00     1600.00
04012             -25.00     1600.00
04013             -14.60     1800.00
04014              25.00     1600.00
04015             -23.60     1800.00
04016             -25.00     1800.00
04017              25.00     1600.00
04018              25.00     1800.00
04019             -25.00     1800.00
04020              10.80     2000.00
04021              25.00     1600.00
04022             -24.80     2200.00
04023             -24.40     2000.00
04024              25.00     2000.00
04025               3.60     2000.00
04026             -25.00     2200.00
04027              13.80     2000.00
04028              25.00     2400.00
04029             -25.00     2200.00
04030              -8.60     2400.00
04031              25.00     2200.00
04032              -5.80     2400.00
04033             -21.00     2200.00
04034              21.40     2600.00
04035               9.40     2400.00
04036             -21.80     2400.00
04037              10.00     2400.00
04038              16.40     2600.00
04039             -13.80     2400.00
04040              -3.40     2600.00
04041              18.00     2600.00
04042              -5.20     2800.00
04043              -7.00     2800.00
04044              10.60     2800.00
04045               5.20     2800.00
04046              -8.60     2800.00
04047               5.20     3000.00
04048               7.40     2800.00
04049              -3.20     3000.00
04050              -1.60     2800.00
04051               9.00     3200.00
04052               0.40     3200.00
04053              -3.00     3200.00
04054               5.20     3000.00
04055               5.20     3200.00
04056              -3.60     3200.00
04057               2.00     3200.00
04058               6.60     3200.00
04059              -0.40     3200.00
04060              -0.40     3400.00
04061               5.40     3400.00
04062               2.80     3400.00
04063              -1.20     3400.00
04064               4.00     3600.00
04065               3.80     3600.00
04066               0.60     3600.00
04067               1.80     3600.00
04068               5.40     3800.00
04069               1.00     3600.00
04070               1.40     3800.00
04071               4.00     3600.00
04072               3.40     3800.00
04073               0.40     3800.00
04074               3.60     3600.00
04075               3.40     3800.00
04076               2.20     4000.00
04077               2.60     3800.00
04078               3.80     4000.00
04079               2.60     3800.00
04080               2.60     3800.00
04081               3.60     3800.00
04082               3.40     4000.00
04083               2.60     4000.00
04084               3.40     4000.00
04085               4.20     4000.00
04086               2.40     4000.00
04087               3.40     4000.00
04088               4.40     4000.00
04089               3.20     4000.00
04090               2.60     4200.00
04091               4.40     4000.00
04092               3.40     4200.00
04093               3.40     4400.00
04094               4.20     4000.00
04095               5.00     4400.00
04096               3.40     4400.00
04097               4.20     4400.00
04098               4.40     4400.00
04099               3.80     4400.00
04100               3.60     4400.00
04101               5.00     4400.00
04102               4.40     4400.00
04103               3.60     4400.00
04104               4.80     4400.00
04105               5.00     4400.00
04106               4.20     4400.00
04107               4.20     4600.00
04108               5.20     4600.00
04109               5.00     4400.00
04110               4.20     4600.00
04111               5.00     4600.00
04112               5.20     4600.00
04113               4.20     4600.00
04114               5.00     4600.00
04115               5.40     4600.00
04116               5.40     4800.00
04117               4.60     4800.00
04118               5.40     4600.00
04119               5.80     4600.00
04120               5.00     4800.00
04121               5.40     4600.00
04122               6.40     4600.00
04123               5.20     4800.00
04124               5.80     4800.00
04125               6.00     4800.00
04126               6.00     4800.00
04127               6.00     4800.00
04128               6.00     4800.00
04129               6.20     4800.00
04130               6.40     4800.00
04131               6.60     4800.00
04132               6.60     4800.00
04133               6.20     4800.00
04134               6.60     4800.00
04135               6.60     4800.00
04136               7.40     5000.00
04137               6.60     4800.00
04138               6.80     4800.00
04139               7.00     4800.00
04140               7.00     4800.00
04141               7.40     5200.00
04142               7.60     5000.00
04143               7.60     4800.00
04144               7.60     5200.00
04145               7.60     5000.00
04146               7.80     5000.00
04147               8.00     4800.00
04148               7.40     5000.00
04149               8.00     5200.00
04150               8.40     5000.00
04151               7.80     5200.00
04152               7.80     5000.00
04153               8.40     5000.00
04154               8.40     5200.00
04155               8.60     5000.00
04156               8.40     5200.00
04157               8.80     5000.00
04158               8.60     5000.00
04159               8.80     5000.00
04160               8.80     5000.00
04161               8.60     5200.00
04162               8.60     5200.00
04163               9.00     5000.00
04164               9.00     4800.00
04165               8.20     5000.00
04166               9.00     5000.00
04167               8.80     4800.00
04168               8.60     5000.00
04169               8.20     5000.00
04170               8.40     5200.00
04171               8.40     5000.00
04172               7.80     5000.00
04173               8.00     5000.00
04174               8.20     4800.00
04175               7.80     5000.00
04176               7.40     4800.00
04177               7.60     4800.00
04178               7.60     4800.00
04179               6.80     4800.00
04180               7.00     4800.00
04181               7.00     4800.00
04182               6.80     4800.00
04183               6.80     5000.00
04184               6.60     4800.00
04185               6.80     4800.00
04186               6.60     4800.00
04187               6.00     4800.00
04188               6.60     4800.00
04189               6.60     4800.00
04190               5.80     4800.00
04191               6.20     4800.00
04192               6.00     4800.00
04193               5.80     4800.00
04194               5.40     4800.00
04195               6.20     4800.00
04196               5.80     4800.00
04197               5.40     4800.00
04198               5.80     4800.00
04199               5.80     4600.00
04200               5.20     4800.00
04201               5.40     4600.00
04202               5.40     4600.00
04203               5.00     4600.00
04204               5.20     4600.00
04205               5.40     4600.00
04206               4.40     4600.00
04207               4.80     4600.00
04208               5.20     4600.00
04209               5.00     4800.00
04210               4.60     4600.00
04211               5.00     4600.00
04212               5.00     4400.00
04213               4.80     4400.00
04214               4.20     4600.00
04215               4.60     4400.00
04216               4.40     4400.00
04217               4.20     4400.00
04218               4.40     4400.00
04219               4.20     4400.00
04220               4.20     4400.00
04221               4.40     4400.00
04222               4.20     4400.00
04223               3.80     4400.00
04224               4.20     4400.00
04225               3.80     4400.00
04226               3.60     4400.00
04227               3.80     4400.00
04228               3.60     4400.00
04229               3.80     4200.00
04230               3.80     4000.00
04231               3.60     4200.00
04232               3.40     4000.00
04233               4.00     4200.00
04234               3.60     4000.00
04235               3.40     4000.00
04236               3.40     4000.00
04237               3.00     3800.00
04238               3.00     4000.00
04239               3.40     4000.00
04240               3.00     3800.00
04241               2.80     3800.00
04242               3.00     4000.00
04243               2.80     3800.00
04244               2.80     3800.00
04245               2.80     3800.00
04246               2.80     3800.00
04247               2.60     3800.00
04248               2.60     3800.00
04249               2.80     3600.00
04250               2.60     3600.00
04251               2.00     3800.00
04252               3.00     3600.00
04253               2.60     3600.00
04254               1.40     3600.00
04255               2.80     3600.00
04256               3.00     3600.00
04257               1.20     3600.00
04258               1.80     3400.00
04259               3.80     3400.00
04260               1.40     3400.00
04261               1.40     3200.00
04262               2.60     3400.00
04263               2.60     3200.00
04264               1.40     3200.00
04265               1.80     3200.00
04266               3.00     3000.00
04267               2.20     3200.00
04268               1.20     3000.00
04269               2.20     3000.00
04270               1.80     3000.00
04271               1.40     3000.00
04272               2.60     3000.00
04273               1.20     2800.00
04274               1.20     3000.00
04275               2.20     2800.00
04276               2.20     2800.00
04277               1.00     2800.00
04278               1.20     2800.00
04279               2.60     2800.00
04280               1.80     2800.00
04281               1.20     2600.00
04282               1.20     2800.00
04283               2.20     2600.00
04284               1.20     2600.00
04285               1.00     2400.00
04286               2.00     2400.00
04287               1.40     2400.00
04288               1.20     2400.00
04289               1.40     2400.00
04290               1.20     2400.00
04291               1.40     2200.00
04292               1.40     2400.00
04293               1.00     2200.00
04294               1.00     2200.00
04295               2.00     2000.00
04296               1.00     2200.00
04297               0.40     2200.00
04298               2.00     2000.00
04299               1.20     2000.00
04300              -0.20     2000.00
04301               1.00     2000.00
04302               1.40     1800.00
04303               0.20     1600.00
04304               0.20     1800.00
04305               1.80     1600.00
04306               0.40     1800.00
04307              -0.40     1800.00
04308               1.00     1600.00
04309               1.00     1600.00
04310               0.40     1400.00
04311               0.60     1400.00
04312               1.00     1600.00
04313               0.20     1600.00
04314               0.40     1400.00
04315               0.40     1200.00
04316               0.40     1400.00
04317               0.20     1200.00
04318               0.40     1200.00
04319               0.40     1200.00
04320               0.20     1200.00
04321               0.00     1000.00
04322               0.60     1200.00
04323               0.20     1200.00
04324              -0.20      800.00
04325               0.40      800.00
04326               0.40      800.00
04327              -0.40      800.00
04328               0.00      800.00
04329               1.00      800.00
04330              -0.20      600.00
04331              -0.40      800.00
04332               0.60      600.00
04333               0.20      400.00
04334              -0.40      600.00
04335               0.00      400.00
04336              -0.20      400.00
04337               0.00      400.00
04338              -0.20      400.00
04339              -0.20      400.00
04340               0.00      400.00
04341              -0.20      200.00
04342               0.20      200.00
04343               0.40      400.00
04344              -0.40        0.00
04345              -0.60        0.00
04346               0.60        0.00
04347              -0.20        0.00
04348              -0.60        0.00
04349               0.40        0.00
04350              -0.40        0.00
04351              -0.60     -200.00
04352               0.40     -200.00
04353              -0.40     -200.00
04354              -0.60     -200.00
04355               1.80     -200.00
04356              15.00     -400.00
04357               4.40     -600.00
04358             -25.00     -400.00
04359               3.00     -400.00
04360              25.00     -600.00
04361              -2.80     -800.00
04362             -25.00     -600.00
04363              25.00     -400.00
04364              25.00     -800.00
04365             -25.00     -800.00
04366             -25.00     -800.00
04367              25.00     -800.00
04368              25.00    -1200.00
04369             -25.00    -1000.00
04370             -25.00    -1000.00
04371              25.00     -800.00
04372              25.00    -1200.00
04373             -25.00     -800.00
04374              25.00    -1400.00
04375              25.00    -1000.00
04376             -25.00    -1400.00
04377             -25.00    -1200.00
04378              25.00    -1600.00
04379              25.00    -1400.00
04380             -25.00    -1600.00
04381              25.00    -1400.00
04382              25.00    -1600.00
04383             -25.00    -1400.00
04384             -25.00    -1600.00
04385              25.00    -1800.00
04386              18.60    -1600.00
04387             -25.00    -1600.00
04388              25.00    -1800.00
04389              25.00    -1800.00
04390             -25.00    -1800.00
04391             -25.00    -2000.00
04392              25.00    -1800.00
04393             -10.80    -2000.00
04394             -25.00    -2000.00
04395              25.00    -2200.00
04396              25.00    -2000.00
04397             -25.00    -2000.00
04398              -8.60    -2000.00
04399              25.00    -2200.00
04400             -16.60    -2000.00
04401             -25.00    -2400.00
04402              25.00    -2400.00
04403              11.80    -2400.00
04404             -25.00    -2400.00
04405              10.20    -2400.00
04406              25.00    -2400.00
04407             -25.00    -2400.00
04408              -9.20    -2600.00
04409              25.00    -2600.00
04410             -12.60    -2600.00
04411             -18.20    -2600.00
04412              16.20    -2600.00
04413               2.00    -2600.00
04414             -18.40    -2800.00
04415               4.60    -2800.00
04416               7.60    -2800.00
04417             -11.80    -2800.00
04418              -6.00    -2800.00
04419               8.00    -2800.00
04420              -4.80    -2800.00
04421              -8.60    -2800.00
04422               3.60    -3000.00
04423               0.80    -2800.00
04424              -9.40    -3200.00
04425              -0.60    -3000.00
04426               3.00    -3200.00
04427              -7.60    -3200.00
04428              -5.20    -3200.00
04429               3.60    -3200.00
04430              -2.80    -3400.00
04431              -8.20    -3400.00
04432               0.20    -3400.00
04433               0.40    -3400.00
04434              -8.20    -3400.00
04435              -3.40    -3400.00
04436               3.00    -3400.00
04437              -6.00    -3400.00
04438              -6.00    -3600.00
04439               0.60    -3600.00
04440              -2.20    -3600.00
04441              -7.40    -3600.00
04442              -2.60    -3600.00
04443               0.20    -3600.00
04444              -5.40    -3600.00
04445              -5.20    -3800.00
04446              -0.40    -3800.00
04447              -3.40    -3800.00
04448              -6.00    -3800.00
04449              -2.60    -3800.00
04450              -1.80    -4000.00
04451              -4.60    -4000.00
04452              -4.20    -4000.00
04453              -3.00    -4000.00
04454              -3.00    -4000.00
04455              -4.40    -4000.00
04456              -4.40    -4000.00
04457              -3.20    -4000.00
04458              -4.60    -4000.00
04459              -3.60    -4000.00
04460              -2.80    -4000.00
04461              -5.20    -4200.00
04462              -4.40    -4200.00
04463              -2.60    -4200.00
04464              -5.40    -4200.00
04465              -5.00    -4400.00
04466              -3.00    -4200.00
04467              -4.40    -4400.00
04468              -5.20    -4400.00
04469              -3.60    -4400.00
04470              -4.00    -4200.00
04471              -5.60    -4400.00
04472              -5.00    -4400.00
04473              -4.00    -4400.00
04474              -5.00    -4400.00
04475              -5.20    -4400.00
04476              -4.00    -4600.00
04477              -4.60    -4400.00
04478              -5.80    -4400.00
04479              -4.40    -4400.00
04480              -4.40    -4600.00
04481              -5.80    -4400.00
04482              -5.40    -4600.00
04483              -4.40    -4600.00
04484              -5.40    -4600.00
04485              -6.60    -4600.00
04486              -5.20    -4800.00
04487              -5.00    -4600.00
04488              -6.40    -4600.00
04489              -5.40    -4800.00
04490              -5.20    -4600.00
04491              -6.60    -4600.00
04492              -6.20    -4800.00
04493              -5.20    -4600.00
04494              -6.60    -4800.00
04495              -6.60    -4600.00
04496              -6.00    -4800.00
04497              -6.20    -4800.00
04498              -7.00    -4600.00
04499              -6.60    -4800.00
04500              -6.00    -4800.00
04501              -6.60    -5000.00
04502              -8.20    -5000.00
04503              -6.80    -4800.00
04504              -6.60    -4600.00
04505              -7.60    -5000.00
04506              -7.00    -5000.00
04507              -7.20    -5000.00
04508              -7.60    -5000.00
04509              -7.40    -5000.00
04510              -7.60    -5000.00
04511              -7.60    -5000.00
04512              -7.80    -5000.00
04513              -8.20    -5200.00
04514              -7.60    -5000.00
04515              -7.60    -5000.00
04516              -8.20    -5200.00
04517              -8.40    -5000.00
04518              -7.80    -5000.00
04519              -8.40    -5000.00
04520              -9.20    -5000.00
04521              -8.20    -5000.00
04522              -8.20    -5000.00
04523              -9.20    -5000.00
04524              -8.60    -5000.00
04525              -8.40    -5000.00
04526              -9.20    -5000.00
04527              -8.60    -5000.00
04528              -8.60    -5000.00
04529              -9.00    -5000.00
04530              -9.20    -4800.00
04531              -9.00    -5200.00
04532              -9.20    -5000.00
04533              -9.20    -5000.00
04534              -9.20    -5000.00
04535              -9.00    -5000.00
04536              -9.00    -5000.00
04537              -9.20    -5000.00
04538              -8.40    -5200.00
04539              -9.20    -5000.00
04540              -9.40    -5000.00
04541              -8.60    -5000.00
04542              -9.40    -5000.00
04543              -9.00    -5000.00
04544              -8.20    -5000.00
04545              -8.60    -5000.00
04546              -7.40    -4800.00
04547              -6.20    -5000.00
04548              -8.80    -5000.00
04549              -8.00    -5000.00
04550              -6.60    -5000.00
04551              -9.20    -5000.00
04552              -9.40    -5000.00
04553              -7.60    -5000.00
04554              -7.40    -5000.00
04555              -7.80    -5000.00
04556              -5.40    -4600.00
04557              -5.00    -5000.00
04558              -7.00    -5000.00
04559              -7.40    -5000.00
04560              -7.40    -5000.00
04561              -8.60    -4800.00
04562              -8.20    -5000.00
04563              -6.20    -4800.00
04564              -6.00    -4600.00
04565              -5.40    -4800.00
04566              -4.60    -4600.00
04567              -6.00    -4800.00
04568              -6.80    -4800.00
04569              -7.00    -4600.00
04570              -7.00    -4800.00
04571              -6.80    -4600.00
04572              -5.80    -4800.00
04573              -5.20    -4600.00
04574              -5.20    -4600.00
04575              -4.60    -4600.00
04576              -5.40    -4600.00
04577              -6.00    -4600.00
04578              -6.20    -4800.00
04579              -5.80    -4600.00
04580              -5.40    -4600.00
04581              -5.80    -4400.00
04582              -5.40    -4600.00
04583              -4.60    -4400.00
04584              -5.00    -4600.00
04585              -5.20    -4400.00
04586              -4.40    -4400.00
04587              -4.40    -4600.00
04588              -5.20    -4400.00
04589              -4.60    -4400.00
04590              -4.20    -4400.00
04591              -5.20    -4400.00
04592              -5.00    -4400.00
04593              -4.20    -4400.00
04594              -4.20    -4400.00
04595              -4.20    -4400.00
04596              -3.80    -4200.00
04597              -4.20    -4200.00
04598              -4.60    -4400.00
04599              -4.40    -4200.00
04600              -4.40    -4200.00
04601              -4.40    -4200.00
04602              -4.20    -4200.00
04603              -3.80    -4200.00
04604              -3.20    -4000.00
04605              -3.60    -4000.00
04606              -3.80    -4200.00
04607              -3.80    -4000.00
04608              -3.80    -4000.00
04609              -3.80    -4000.00
04610              -4.20    -4000.00
04611              -3.80    -4000.00
04612              -3.00    -4000.00
04613              -3.60    -4000.00
04614              -3.00    -4000.00
04615              -2.60    -4000.00
04616              -3.40    -3800.00
04617              -3.80    -3800.00
04618              -3.00    -3800.00
04619              -3.60    -4000.00
04620              -3.80    -3600.00
04621              -2.60    -3600.00
04622              -2.80    -3600.00
04623              -3.40    -3600.00
04624              -2.20    -3600.00
04625              -2.60    -3600.00
04626              -3.40    -3600.00
04627              -3.40    -3400.00
04628              -3.00    -3600.00
04629              -2.80    -3400.00
04630              -3.20    -3400.00
04631              -2.60    -3400.00
04632              -2.80    -3400.00
04633              -3.00    -3400.00
04634              -2.60    -3400.00
04635              -2.60    -3400.00
04636              -3.00    -3200.00
04637              -2.20    -3200.00
04638              -2.20    -3200.00
04639              -2.80    -3200.00
04640              -2.80    -3200.00
04641              -2.20    -3000.00
04642              -2.60    -3000.00
04643              -2.60    -3000.00
04644              -2.20    -3000.00
04645              -2.20    -2800.00
04646              -2.80    -2800.00
04647              -2.20    -2800.00
04648              -2.80    -2800.00
04649              -2.20    -2800.00
04650              -2.00    -2800.00
04651              -2.20    -2800.00
04652              -2.00    -2800.00
04653              -1.80    -2600.00
04654              -2.20    -2600.00
04655              -2.20    -2600.00
04656              -2.00    -2400.00
04657              -2.20    -2600.00
04658              -2.20    -2400.00
04659              -1.60    -2400.00
04660              -1.80    -2400.00
04661              -1.80    -2400.00
04662              -1.40    -2400.00
04663              -1.40    -2200.00
04664              -1.80    -2400.00
04665              -1.80    -2000.00
04666              -1.80    -2200.00
04667              -1.80    -2200.00
04668              -1.40    -2000.00
04669              -1.80    -2000.00
04670              -1.20    -2000.00
04671              -1.00    -2000.00
04672              -1.40    -2000.00
04673              -1.60    -1800.00
04674              -1.20    -1800.00
04675              -1.40    -1800.00
04676              -1.80    -1800.00
04677              -1.20    -1800.00
04678              -1.40    -1800.00
04679              -1.20    -1800.00
04680              -1.00    -1600.00
04681              -1.00    -1600.00
04682              -1.20    -1600.00
04683              -1.20    -1600.00
04684              -1.20    -1400.00
04685              -1.20    -1600.00
04686              -1.20    -1400.00
04687              -1.00    -1400.00
04688              -1.00    -1200.00
04689              -1.20    -1200.00
04690              -1.20    -1200.00
04691              -0.60    -1400.00
04692              -1.00    -1200.00
04693              -0.80    -1200.00
04694              -1.20    -1000.00
04695              -1.00    -1000.00
04696              -0.60    -1000.00
04697              -0.60    -1000.00
04698              -1.00    -1000.00
04699              -0.60     -800.00
04700              -0.60     -800.00
04701              -0.80     -800.00
04702              -1.00     -800.00
04703              -1.00     -600.00
04704              -0.60     -800.00
04705              -0.60     -400.00
04706              -0.60     -400.00
04707              -0.40     -400.00
04708              -0.40     -400.00
04709              -1.00     -400.00
04710              -0.60     -400.00
04711              -0.60     -200.00
04712              -0.60     -400.00
04713              -0.60     -200.00
04714              -0.40     -200.00
04715              -0.40     -200.00
04716              -0.60     -200.00
04717              -0.40     -200.00
04718               0.20        0.00
04719              -0.40        0.00
04720              -0.40        0.00
04721               0.20        0.00
04722               0.40        0.00
04723              -0.20        0.00
04724               0.20      200.00
04725              -0.20        0.00
04726              -0.40      200.00
04727               1.00      400.00
04728               5.40      400.00
04729               9.40      600.00
04730             -17.20      400.00
04731             -25.00      400.00
04732              25.00      600.00
04733              25.00      600.00
04734             -25.00      800.00
04735             -25.00      400.00
04736              25.00      800.00
04737              25.00      600.00
04738             -25.00     1200.00
04739             -10.00      400.00
04740              25.00     1400.00
04741              -5.40      400.00
04742             -25.00     1400.00
04743              25.00      600.00
04744              25.00     1400.00
04745             -25.00      800.00
04746             -25.00     1200.00
04747              25.00     1200.00
04748             -15.60     1200.00
04749             -25.00     1200.00
04750              25.00     1200.00
04751              25.00     1400.00
04752             -25.00     1400.00
04753              -2.80     1800.00
04754              25.00     1400.00
04755             -25.00     1800.00
04756             -25.00     1800.00
04757              25.00     1600.00
04758              25.00     1600.00
04759             -25.00     2000.00
04760               9.20     1600.00
04761              25.00     2000.00
04762             -25.00     1800.00
04763             -24.40     2000.00
04764              25.00     1800.00
04765               2.60     2200.00
04766             -25.00     1800.00
04767              21.20     2000.00
04768              25.00     2000.00
04769             -25.00     2200.00
04770              -8.60     2000.00
04771              25.00     2200.00
04772              -5.00     2400.00
04773             -25.00     2200.00
04774              23.60     2200.00
04775              13.40     2400.00
04776             -24.40     2400.00
04777               3.80     2200.00
04778              24.40     2400.00
04779             -17.80     2400.00
04780              -5.20     2400.00
04781              20.20     2400.00
04782              -3.00     2800.00
04783             -14.00     2400.00
04784              15.80     2800.00
04785               5.00     2600.00
04786             -11.00     2800.00
04787               5.20     2600.00
04788              11.00     2800.00
04789              -6.60     2800.00
04790              -1.20     3000.00
04791               9.80     2800.00
04792               0.40     2800.00
04793              -4.00     3000.00
04794               6.00     3000.00
04795               5.20     3000.00
04796              -3.80     3200.00
04797               2.60     3200.00
04798               6.00     3200.00
04799              -0.40     3000.00
04800              -1.40     3200.00
04801               6.80     3200.00
04802               2.20     3200.00
04803              -0.60     3200.00
04804               3.20     3400.00
04805               5.40     3200.00
04806              -1.20     3400.00
04807               2.60     3400.00
04808               4.60     3400.00
04809               2.00     3600.00
04810               0.40     3400.00
04811               4.40     3600.00
04812               3.20     3600.00
04813               0.80     3600.00
04814               2.60     3600.00
04815               4.40     3800.00
04816               2.00     3800.00
04817               2.00     3600.00
04818               4.40     3600.00
04819               2.60     4000.00
04820               2.00     3800.00
04821               3.60     3800.00
04822               3.60     3800.00
04823               1.40     3800.00
04824               3.60     4000.00
04825               3.40     4000.00
04826               2.80     4000.00
04827               2.40     4000.00
04828               4.20     4000.00
04829               3.00     4000.00
04830               2.80     4000.00
04831               3.40     4000.00
04832               4.20     4200.00
04833               2.80     4200.00
04834               3.60     4200.00
04835               4.20     4000.00
04836               3.60     4200.00
04837               3.00     4200.00
04838               4.20     4400.00
04839               3.80     4400.00
04840               3.60     4400.00
04841               4.20     4400.00
04842               4.20     4400.00
04843               3.80     4400.00
04844               3.80     4400.00
04845               4.60     4400.00
04846               3.80     4400.00
04847               4.20     4400.00
04848               4.60     4400.00
04849               4.60     4600.00
04850               4.20     4400.00
04851               5.20     4600.00
04852               5.20     4600.00
04853               4.40     4600.00
04854               5.00     4600.00
04855               5.20     4600.00
04856               4.40     4800.00
04857               5.20     4600.00
04858               5.40     4800.00
04859               5.20     4600.00
04860               5.00     4600.00
04861               5.80     4800.00
04862               5.80     4800.00
04863               5.80     4800.00
04864               5.80     4800.00
04865               5.80     4800.00
04866               5.80     4800.00
04867               5.80     4800.00
04868               6.20     4800.00
04869               5.80     4800.00
04870               6.00     4800.00
04871               6.20     4800.00
04872               6.60     4800.00
04873               6.00     5000.00
04874               6.20     4800.00
04875               6.60     4800.00
04876               6.80     4800.00
04877               6.80     4800.00
04878               6.80     4800.00
04879               6.80     4800.00
04880               7.20     5000.00
04881               6.80     5000.00
04882               7.40     4800.00
04883               7.80     5000.00
04884               7.40     5200.00
04885               7.00     4800.00
04886               7.80     5200.00
04887               7.60     5000.00
04888               7.20     5000.00
04889               7.60     5200.00
04890               8.20     5200.00
04891               7.60     5000.00
04892               7.60     5000.00
04893               8.40     5000.00
04894               7.60     5000.00
04895               8.00     5200.00
04896               8.60     5000.00
04897               8.20     5000.00
04898               8.00     5200.00
04899               8.60     5000.00
04900               8.40     5200.00
04901               8.40     5000.00
04902               8.40     5000.00
04903               8.40     5200.00
04904               8.60     5000.00
04905               8.80     5200.00
04906               8.60     4800.00
04907               8.80     5000.00
04908               8.40     5000.00
04909               8.60     5200.00
04910               8.40     5200.00
04911               8.40     5000.00
04912               8.40     5000.00
04913               8.40     4800.00
04914               8.40     5000.00
04915               8.00     5000.00
04916               8.20     5200.00
04917               8.20     5000.00
04918               7.40     5000.00
04919               7.80     5200.00
04920               7.80     5000.00
04921               7.40     5000.00
04922               7.60     5200.00
04923               7.40     5000.00
04924               7.00     4800.00
04925               7.00     4800.00
04926               7.00     5000.00
04927               6.80     4800.00
04928               7.00     5200.00
04929               7.00     4800.00
04930               6.60     4800.00
04931               6.20     4800.00
04932               6.80     4800.00
04933               6.40     4800.00
04934               6.00     4800.00
04935               6.60     4800.00
04936               6.00     4800.00
04937               6.00     4800.00
04938               5.60     4800.00
04939               6.00     4800.00
04940               5.80     4600.00
04941               5.40     4800.00
04942               6.20     4800.00
04943               5.60     4800.00
04944               4.80     4600.00
04945               6.00     4800.00
04946               6.00     4800.00
04947               4.00     4800.00
04948               5.00     4600.00
04949               6.20     4600.00
04950               4.20     4600.00
04951               4.40     4600.00
04952               5.60     4600.00
04953               4.60     4600.00
04954               3.60     4600.00
04955               5.20     4600.00
04956               5.00     4600.00
04957               3.60     4400.00
04958               4.40     4400.00
04959               5.20     4400.00
04960               3.80     4400.00
04961               3.60     4400.00
04962               4.80     4400.00
04963               4.20     4400.00
04964               3.40     4400.00
04965               4.00     4400.00
04966               4.40     4400.00
04967               3.60     4400.00
04968               3.60     4400.00
04969               4.20     4400.00
04970               3.60     4400.00
04971               3.40     4400.00
04972               3.60     4200.00
04973               3.80     4400.00
04974               3.40     4000.00
04975               3.40     4200.00
04976               3.60     4200.00
04977               3.40     4000.00
04978               3.40     4000.00
04979               3.40     4000.00
04980               3.40     4000.00
04981               3.40     4000.00
04982               3.40     4000.00
04983               3.00     4000.00
04984               2.80     4000.00
04985               3.00     4000.00
04986               3.00     3800.00
04987               2.60     3800.00
04988               2.80     3800.00
04989               3.60     3800.00
04990               2.60     3800.00
04991               2.20     3800.00
04992               3.60     3800.00
04993               2.60     3600.00
04994               2.00     3800.00
04995               2.60     3600.00
04996               3.00     3600.00
04997               1.80     3600.00
04998               2.60     3600.00
04999               3.00     3600.00
05000               2.00     3600.00
