Unit:(mV)
                     CH1         CH2
Frequency              ? 134.834 kHz
00001              -5.00    -6400.00
00002              -3.00    -6400.00
00003              -5.00    -6400.00
00004              -5.00    -6600.00
00005              -3.40    -6600.00
00006              -4.20    -6800.00
00007              -5.40    -6800.00
00008              -4.40    -6800.00
00009              -4.20    -6800.00
00010              -5.20    -6800.00
00011              -5.20    -6800.00
00012              -4.00    -6800.00
00013              -4.60    -6800.00
00014              -6.20    -7200.00
00015              -5.20    -7000.00
00016              -4.40    -7200.00
00017              -6.00    -7200.00
00018              -6.00    -7200.00
00019              -4.60    -7000.00
00020              -5.80    -7200.00
00021              -6.40    -7200.00
00022              -5.40    -7400.00
00023              -5.20    -7200.00
00024              -7.00    -7200.00
00025              -6.20    -7200.00
00026              -5.20    -7400.00
00027              -6.60    -7400.00
00028              -7.00    -7400.00
00029              -6.00    -7400.00
00030              -6.60    -7400.00
00031              -7.80    -7400.00
00032              -6.60    -7400.00
00033              -6.00    -7400.00
00034              -7.80    -7400.00
00035              -7.80    -7600.00
00036              -7.00    -7600.00
00037              -7.80    -7400.00
00038              -8.00    -7600.00
00039              -7.80    -7600.00
00040              -8.20    -7600.00
00041              -8.40    -7600.00
00042              -8.60    -7800.00
00043              -9.00    -7800.00
00044              -8.80    -7600.00
00045              -9.80    -8000.00
00046              -9.20    -8000.00
00047              -9.20    -7800.00
00048              -9.60    -8000.00
00049              -9.40    -8000.00
00050              -9.40    -8000.00
00051              -9.80    -7800.00
00052             -10.00    -7800.00
00053             -11.00    -8000.00
00054             -10.60    -8000.00
00055             -10.80    -8000.00
00056             -11.20    -8000.00
00057             -11.00    -8000.00
00058             -11.40    -8200.00
00059             -12.00    -8000.00
00060             -11.80    -8000.00
00061             -12.40    -8000.00
00062             -12.40    -8000.00
00063             -12.40    -8000.00
00064             -12.60    -8000.00
00065             -12.60    -8000.00
00066             -13.00    -8000.00
00067             -13.60    -8000.00
00068             -13.00    -8000.00
00069             -14.00    -8200.00
00070             -14.40    -8200.00
00071             -13.40    -8000.00
00072             -14.40    -8200.00
00073             -15.40    -8000.00
00074             -14.60    -8200.00
00075             -14.80    -8000.00
00076             -15.00    -8200.00
00077             -14.80    -8000.00
00078             -14.60    -8000.00
00079             -15.40    -8000.00
00080             -15.00    -8000.00
00081             -15.00    -8000.00
00082             -15.00    -8000.00
00083             -15.00    -8000.00
00084             -14.00    -8000.00
00085             -14.20    -8000.00
00086             -14.00    -8000.00
00087             -13.80    -8000.00
00088             -13.20    -8000.00
00089             -13.20    -8000.00
00090             -13.20    -8000.00
00091             -11.80    -8000.00
00092             -12.20    -8000.00
00093             -12.20    -8000.00
00094             -11.80    -8000.00
00095             -11.00    -8000.00
00096             -10.80    -8000.00
00097             -11.40    -8000.00
00098             -10.60    -8000.00
00099             -10.40    -8000.00
00100             -10.80    -8000.00
00101              -9.80    -8000.00
00102              -9.60    -8000.00
00103              -9.80    -7800.00
00104             -10.00    -8000.00
00105              -9.20    -8000.00
00106              -9.40    -7800.00
00107              -9.40    -8000.00
00108              -9.00    -7800.00
00109              -8.80    -7600.00
00110              -8.40    -8000.00
00111              -8.80    -7600.00
00112              -8.60    -8000.00
00113              -7.40    -7600.00
00114              -8.60    -7600.00
00115              -7.80    -7600.00
00116              -7.20    -7600.00
00117              -8.20    -7600.00
00118              -7.60    -7600.00
00119              -7.40    -7600.00
00120              -7.60    -7400.00
00121              -7.20    -7400.00
00122              -6.80    -7400.00
00123              -7.00    -7400.00
00124              -7.00    -7400.00
00125              -6.60    -7400.00
00126              -6.00    -7400.00
00127              -7.00    -7400.00
00128              -6.80    -7400.00
00129              -5.40    -7400.00
00130              -6.20    -7200.00
00131              -6.40    -7200.00
00132              -5.00    -7200.00
00133              -6.00    -7200.00
00134              -6.60    -7200.00
00135              -5.00    -7200.00
00136              -5.00    -7000.00
00137              -6.40    -7000.00
00138              -5.20    -7000.00
00139              -4.40    -7000.00
00140              -6.00    -6800.00
00141              -5.20    -7000.00
00142              -4.60    -6800.00
00143              -4.60    -6800.00
00144              -5.20    -6800.00
00145              -4.40    -6800.00
00146              -4.40    -6800.00
00147              -5.00    -6600.00
00148              -5.00    -6800.00
00149              -3.80    -6600.00
00150              -4.40    -6600.00
00151              -4.60    -6600.00
00152              -4.20    -6400.00
00153              -4.20    -6400.00
00154              -4.20    -6400.00
00155              -3.80    -6200.00
00156              -4.20    -6400.00
00157              -3.80    -6400.00
00158              -3.60    -6200.00
00159              -3.80    -6200.00
00160              -3.40    -6400.00
00161              -3.60    -6000.00
00162              -3.80    -6000.00
00163              -3.40    -6000.00
00164              -3.60    -6000.00
00165              -3.80    -6000.00
00166              -3.40    -5800.00
00167              -3.80    -5800.00
00168              -3.60    -5800.00
00169              -3.00    -5800.00
00170              -3.40    -5600.00
00171              -3.40    -5600.00
00172              -3.20    -5600.00
00173              -3.00    -5600.00
00174              -3.40    -5600.00
00175              -3.20    -5200.00
00176              -2.80    -5400.00
00177              -3.00    -5200.00
00178              -3.00    -5200.00
00179              -2.80    -5200.00
00180              -3.00    -5200.00
00181              -3.00    -5000.00
00182              -2.80    -5000.00
00183              -2.80    -5200.00
00184              -2.80    -5000.00
00185              -2.60    -4600.00
00186              -2.80    -5000.00
00187              -2.20    -4600.00
00188              -2.80    -4800.00
00189              -3.00    -4600.00
00190              -1.80    -4600.00
00191              -2.60    -4600.00
00192              -2.80    -4600.00
00193              -1.80    -4400.00
00194              -2.80    -4400.00
00195              -2.60    -4400.00
00196              -1.40    -4200.00
00197              -2.80    -4200.00
00198              -2.00    -4400.00
00199              -1.20    -4200.00
00200              -3.00    -4000.00
00201              -2.20    -4000.00
00202              -1.40    -3800.00
00203              -2.80    -4000.00
00204              -1.80    -4000.00
00205              -0.60    -3800.00
00206              -2.20    -3600.00
00207              -2.20    -3600.00
00208              -1.20    -3600.00
00209              -2.20    -3600.00
00210              -2.20    -3400.00
00211              -1.00    -3400.00
00212              -1.20    -3400.00
00213              -2.00    -3400.00
00214              -1.20    -3400.00
00215              -1.20    -3200.00
00216              -2.00    -3200.00
00217              -1.80    -3000.00
00218              -1.00    -3000.00
00219              -1.40    -2800.00
00220              -2.00    -3000.00
00221              -1.20    -2800.00
00222              -1.20    -2600.00
00223              -1.40    -2800.00
00224              -1.40    -2600.00
00225              -1.20    -2600.00
00226              -1.00    -2600.00
00227              -1.40    -2400.00
00228              -1.00    -2400.00
00229              -0.20    -2400.00
00230              -1.40    -2400.00
00231              -2.00    -2200.00
00232              -0.60    -2000.00
00233              -1.20    -2000.00
00234              -1.40    -2000.00
00235              -0.40    -2000.00
00236              -1.20    -1800.00
00237              -1.00    -2000.00
00238              -0.40    -1800.00
00239              -1.40    -1600.00
00240              -1.20    -1600.00
00241              -1.00    -1600.00
00242              -0.80    -1400.00
00243              -0.60    -1600.00
00244              -1.20    -1400.00
00245              -1.20    -1200.00
00246              -0.60    -1200.00
00247              -1.20    -1200.00
00248              -1.20    -1000.00
00249              -0.60    -1000.00
00250              -0.20    -1000.00
00251              -0.60     -800.00
00252              -0.80     -800.00
00253              -0.60     -800.00
00254              -0.60     -800.00
00255              -0.80     -600.00
00256              -1.20     -400.00
00257               0.40     -400.00
00258              -0.60     -200.00
00259              -2.00     -400.00
00260               0.40     -400.00
00261              -0.20     -200.00
00262              -2.00     -200.00
00263               0.40        0.00
00264               0.40        0.00
00265              -1.00      200.00
00266               0.40      200.00
00267               1.40      200.00
00268              -0.40        0.00
00269              -1.40      400.00
00270               1.00      400.00
00271               0.40      400.00
00272              -0.60      600.00
00273               2.60      600.00
00274              12.20      800.00
00275               5.20     1000.00
00276             -25.00      800.00
00277             -25.00      800.00
00278              16.40      800.00
00279              25.00     1400.00
00280             -23.00     1000.00
00281             -25.00     1200.00
00282              25.00     1200.00
00283              25.00     1800.00
00284             -25.00     1200.00
00285             -19.80     1400.00
00286              25.00     1600.00
00287             -23.40     1400.00
00288             -25.00     2000.00
00289              25.00     1800.00
00290              25.00     1800.00
00291             -25.00     1800.00
00292              25.00     2000.00
00293              25.00     1800.00
00294             -25.00     2200.00
00295             -25.00     2200.00
00296              25.00     2000.00
00297               4.20     2400.00
00298             -25.00     2200.00
00299              18.00     2400.00
00300              25.00     2400.00
00301             -25.00     2800.00
00302             -25.00     2400.00
00303              25.00     2800.00
00304              25.00     2600.00
00305             -25.00     2800.00
00306              25.00     2800.00
00307              25.00     3000.00
00308             -25.00     3000.00
00309              -6.20     3000.00
00310              25.00     3000.00
00311             -25.00     3200.00
00312             -25.00     3200.00
00313              25.00     3200.00
00314               3.60     3200.00
00315             -25.00     3400.00
00316              22.80     3600.00
00317              23.60     3600.00
00318             -25.00     3600.00
00319              -0.20     3600.00
00320              25.00     3800.00
00321             -12.40     3600.00
00322              -9.40     3800.00
00323              17.00     3800.00
00324               2.00     3800.00
00325             -11.60     4000.00
00326               7.60     4000.00
00327               9.80     4000.00
00328              -6.20     4200.00
00329              -2.80     4200.00
00330              11.00     4200.00
00331               1.00     4400.00
00332              -7.60     4400.00
00333               7.20     4600.00
00334               8.00     4400.00
00335              -6.60     4600.00
00336               1.00     4600.00
00337              10.40     4800.00
00338              -3.60     4800.00
00339              -2.20     4800.00
00340              10.20     5000.00
00341               1.80     4800.00
00342              -4.40     4800.00
00343               7.00     5000.00
00344               5.00     5200.00
00345              -3.60     5200.00
00346               2.80     5200.00
00347               7.40     5400.00
00348              -0.20     5400.00
00349               1.00     5400.00
00350               5.40     5400.00
00351               2.60     5400.00
00352              -0.20     5600.00
00353               3.60     5600.00
00354               4.40     5400.00
00355               1.20     5800.00
00356               2.00     5800.00
00357               5.60     5800.00
00358               3.00     5800.00
00359               0.40     6000.00
00360               4.20     6000.00
00361               4.40     6000.00
00362               1.40     6000.00
00363               3.00     6000.00
00364               5.20     6200.00
00365               2.00     6000.00
00366               2.40     6200.00
00367               4.40     6200.00
00368               2.80     6200.00
00369               2.20     6200.00
00370               5.00     6200.00
00371               4.20     6400.00
00372               2.60     6400.00
00373               3.80     6400.00
00374               4.40     6400.00
00375               3.00     6600.00
00376               3.80     6600.00
00377               4.80     6600.00
00378               3.80     6800.00
00379               3.60     6600.00
00380               4.40     6800.00
00381               4.20     6800.00
00382               3.80     6800.00
00383               4.20     6800.00
00384               5.20     6800.00
00385               4.80     6800.00
00386               4.00     7000.00
00387               5.20     7000.00
00388               5.20     7000.00
00389               4.20     7000.00
00390               5.20     7000.00
00391               6.00     7200.00
00392               5.00     7200.00
00393               5.60     7200.00
00394               6.20     7200.00
00395               5.40     7200.00
00396               5.00     7200.00
00397               6.20     7200.00
00398               6.20     7200.00
00399               5.80     7200.00
00400               6.20     7400.00
00401               6.80     7600.00
00402               5.80     7400.00
00403               6.20     7600.00
00404               7.60     7600.00
00405               6.60     7600.00
00406               6.60     7600.00
00407               8.20     7600.00
00408               7.60     7800.00
00409               6.80     7600.00
00410               7.60     7600.00
00411               7.80     7800.00
00412               7.80     7800.00
00413               8.20     7600.00
00414               8.60     7800.00
00415               8.20     7600.00
00416               8.60     7800.00
00417               8.60     7800.00
00418               9.20     7800.00
00419               9.00     7800.00
00420               9.20     7800.00
00421               9.20     7800.00
00422               9.80     7800.00
00423              10.20     8200.00
00424               9.80     8000.00
00425               9.40     7800.00
00426              11.00     8200.00
00427              10.60     7800.00
00428              10.60     8200.00
00429              11.80     8200.00
00430              11.00     8200.00
00431               9.80     8000.00
00432              11.80     8000.00
00433              13.20     8200.00
00434              10.80     8200.00
00435              10.80     8000.00
00436              14.00     8000.00
00437              13.40     8200.00
00438              12.20     8000.00
00439              13.20     8200.00
00440              13.40     8000.00
00441              13.00     8200.00
00442              13.00     8200.00
00443              14.20     8000.00
00444              14.80     8200.00
00445              14.20     8000.00
00446              13.80     8200.00
00447              14.60     8000.00
00448              14.80     8200.00
00449              14.20     8200.00
00450              14.60     8000.00
00451              15.40     8200.00
00452              14.20     8000.00
00453              13.80     8200.00
00454              14.60     8200.00
00455              13.80     8000.00
00456              13.40     8200.00
00457              14.20     8200.00
00458              13.20     8000.00
00459              12.20     8200.00
00460              12.40     8000.00
00461              12.00     8200.00
00462              11.60     8200.00
00463              12.20     8000.00
00464              11.40     8200.00
00465              10.80     8000.00
00466              11.00     8200.00
00467              10.60     8000.00
00468              10.40     8200.00
00469              10.00     8000.00
00470               9.60     8000.00
00471              10.00     7800.00
00472               9.40     7800.00
00473               9.80     8000.00
00474               8.40     7800.00
00475               9.00     7800.00
00476               9.80     7800.00
00477               8.40     7800.00
00478               7.60     7800.00
00479               9.80     7800.00
00480               8.00     7800.00
00481               7.20     8000.00
00482               9.20     7800.00
00483               8.20     7800.00
00484               6.60     7800.00
00485               8.00     7800.00
00486               8.20     7600.00
00487               6.20     7600.00
00488               7.00     7600.00
00489               8.20     7600.00
00490               6.60     7600.00
00491               6.00     7600.00
00492               7.00     7600.00
00493               6.20     7400.00
00494               5.80     7600.00
00495               6.80     7400.00
00496               6.60     7200.00
00497               5.80     7200.00
00498               5.40     7400.00
00499               6.00     7200.00
00500               5.20     7200.00
00501               5.20     7200.00
00502               6.20     7200.00
00503               5.20     7200.00
00504               4.60     7000.00
00505               6.00     7200.00
00506               5.00     7000.00
00507               4.40     7000.00
00508               5.40     7000.00
00509               5.00     7000.00
00510               4.20     7000.00
00511               5.20     6800.00
00512               4.60     7000.00
00513               4.20     7000.00
00514               4.60     6800.00
00515               4.20     6800.00
00516               4.20     6800.00
00517               4.60     6600.00
00518               3.80     6800.00
00519               4.20     6600.00
00520               4.40     6400.00
00521               3.80     6600.00
00522               3.40     6400.00
00523               3.80     6400.00
00524               3.60     6400.00
00525               3.60     6400.00
00526               4.20     6200.00
00527               3.40     6400.00
00528               3.60     6200.00
00529               3.60     6200.00
00530               3.00     6200.00
00531               2.80     6200.00
00532               3.60     6000.00
00533               3.40     6000.00
00534               3.20     6000.00
00535               3.20     6000.00
00536               3.40     6000.00
00537               2.80     6000.00
00538               3.00     6000.00
00539               2.80     5800.00
00540               2.80     5800.00
00541               3.00     5600.00
00542               2.80     5600.00
00543               2.60     5600.00
00544               3.00     5400.00
00545               2.60     5600.00
00546               2.60     5400.00
00547               2.60     5400.00
00548               2.60     5400.00
00549               2.60     5400.00
00550               2.60     5200.00
00551               2.20     5000.00
00552               2.20     5200.00
00553               2.20     5200.00
00554               2.20     5200.00
00555               2.00     5000.00
00556               2.00     4800.00
00557               2.00     4800.00
00558               2.00     4800.00
00559               2.00     4800.00
00560               1.80     4800.00
00561               1.80     4600.00
00562               2.00     4400.00
00563               1.80     4600.00
00564               1.40     4400.00
00565               1.80     4400.00
00566               1.80     4400.00
00567               1.40     4400.00
00568               1.20     4200.00
00569               1.40     4000.00
00570               1.40     4000.00
00571               1.40     4000.00
00572               1.20     4000.00
00573               1.20     4000.00
00574               1.40     3800.00
00575               1.20     3800.00
00576               1.40     3800.00
00577               1.40     3600.00
00578               0.80     3600.00
00579               1.00     3600.00
00580               1.20     3600.00
00581               1.00     3400.00
00582               0.80     3600.00
00583               1.20     3200.00
00584               1.00     3200.00
00585               1.00     3200.00
00586               1.20     3200.00
00587               1.00     3200.00
00588               0.60     3000.00
00589               0.80     3000.00
00590               1.00     3000.00
00591               1.00     2800.00
00592               0.80     2800.00
00593               0.40     2800.00
00594               0.60     2600.00
00595               0.60     2600.00
00596               0.40     2400.00
00597               0.60     2400.00
00598               1.00     2400.00
00599               0.60     2400.00
00600               0.20     2200.00
00601               1.00     2200.00
00602               1.00     2200.00
00603               0.20     2000.00
00604               0.40     2000.00
00605               1.00     2000.00
00606               0.40     2000.00
00607              -0.20     1800.00
00608               1.00     1800.00
00609               1.20     1800.00
00610              -0.20     1600.00
00611              -0.20     1800.00
00612               0.60     1400.00
00613               0.40     1400.00
00614              -0.40     1400.00
00615               0.40     1400.00
00616               1.00     1200.00
00617               0.20     1200.00
00618              -0.40     1200.00
00619               0.40     1000.00
00620               0.60     1000.00
00621              -0.60      800.00
00622              -0.60      800.00
00623               1.00      800.00
00624               0.20      600.00
00625              -1.00      600.00
00626               0.20      600.00
00627               0.20      600.00
00628              -0.60      400.00
00629              -1.20      400.00
00630               0.20      400.00
00631               0.20        0.00
00632              -1.00      200.00
00633              -0.60        0.00
00634               0.60        0.00
00635              -1.20     -200.00
00636              -1.00     -200.00
00637               1.40     -200.00
00638               0.40     -200.00
00639              -1.40     -400.00
00640               0.20     -400.00
00641              -0.40     -400.00
00642              -1.20     -400.00
00643               1.20     -400.00
00644              15.00     -600.00
00645              14.80    -1000.00
00646             -25.00    -1200.00
00647             -25.00    -1000.00
00648              25.00     -800.00
00649              25.00    -1000.00
00650             -25.00    -1600.00
00651             -25.00     -800.00
00652              25.00    -1200.00
00653              25.00    -1400.00
00654             -25.00    -1600.00
00655             -25.00    -1200.00
00656              25.00    -1600.00
00657              25.00    -1800.00
00658             -25.00    -1000.00
00659              25.00    -2000.00
00660              25.00    -1800.00
00661             -25.00    -1600.00
00662             -25.00    -2000.00
00663              25.00    -2000.00
00664              -2.20    -1800.00
00665             -25.00    -2000.00
00666              25.00    -2400.00
00667              25.00    -2000.00
00668             -25.00    -2200.00
00669              -7.80    -2600.00
00670              25.00    -2400.00
00671             -19.00    -2400.00
00672             -25.00    -2600.00
00673              25.00    -2600.00
00674              25.00    -2600.00
00675             -25.00    -2800.00
00676               3.00    -2800.00
00677              25.00    -2800.00
00678             -25.00    -2800.00
00679             -25.00    -3200.00
00680              25.00    -3200.00
00681             -11.80    -3200.00
00682             -25.00    -3200.00
00683              25.00    -3400.00
00684              25.00    -3400.00
00685             -25.00    -3400.00
00686               4.40    -3400.00
00687              25.00    -3600.00
00688             -25.00    -3600.00
00689             -24.60    -3600.00
00690              25.00    -4000.00
00691              -2.60    -3600.00
00692             -25.00    -3800.00
00693              13.20    -3800.00
00694              13.40    -4000.00
00695             -20.20    -4000.00
00696              -6.20    -4200.00
00697              16.40    -4200.00
00698              -5.80    -4200.00
00699             -17.20    -4400.00
00700               9.00    -4400.00
00701               6.00    -4400.00
00702             -17.20    -4400.00
00703              -1.00    -4400.00
00704              11.60    -4400.00
00705             -11.40    -4600.00
00706             -10.20    -4600.00
00707              10.60    -4800.00
00708              -4.20    -4600.00
00709             -13.40    -4800.00
00710               6.80    -4800.00
00711               2.20    -4800.00
00712             -13.00    -5000.00
00713              -0.40    -5000.00
00714               5.00    -5200.00
00715              -9.40    -5000.00
00716              -6.20    -5200.00
00717               5.00    -5200.00
00718              -3.80    -5200.00
00719              -8.60    -5200.00
00720               1.20    -5400.00
00721              -0.40    -5400.00
00722              -8.40    -5600.00
00723              -3.40    -5600.00
00724               2.00    -5600.00
00725              -5.00    -5600.00
00726              -6.00    -5800.00
00727               0.20    -5800.00
00728              -2.00    -5800.00
00729              -6.20    -5800.00
00730              -2.80    -6000.00
00731              -1.20    -6000.00
00732              -5.20    -6000.00
00733              -4.40    -6000.00
00734              -1.40    -6200.00
00735              -4.20    -6200.00
00736              -5.40    -6000.00
00737              -2.60    -6400.00
00738              -3.20    -6400.00
00739              -5.00    -6200.00
00740              -3.40    -6400.00
00741              -3.60    -6400.00
00742              -5.00    -6400.00
00743              -3.80    -6400.00
00744              -3.80    -6400.00
00745              -5.20    -6600.00
00746              -4.60    -6600.00
00747              -3.60    -6600.00
00748              -4.60    -6600.00
00749              -5.00    -6800.00
00750              -4.40    -6600.00
00751              -4.40    -6800.00
00752              -5.40    -6800.00
00753              -5.00    -6800.00
00754              -4.20    -6800.00
00755              -5.80    -6800.00
00756              -6.20    -7000.00
00757              -5.00    -7000.00
00758              -5.00    -7000.00
00759              -6.20    -7200.00
00760              -6.00    -7200.00
00761              -5.00    -7200.00
00762              -5.80    -7200.00
00763              -6.60    -7200.00
00764              -5.60    -7200.00
00765              -6.00    -7200.00
00766              -7.00    -7200.00
00767              -6.00    -7400.00
00768              -6.20    -7400.00
00769              -7.00    -7400.00
00770              -6.80    -7400.00
00771              -6.40    -7400.00
00772              -7.40    -7400.00
00773              -7.80    -7600.00
00774              -6.80    -7400.00
00775              -7.00    -7400.00
00776              -8.00    -7600.00
00777              -7.40    -7600.00
00778              -7.00    -7600.00
00779              -8.20    -7600.00
00780              -8.60    -7600.00
00781              -7.60    -7600.00
00782              -8.40    -7800.00
00783              -9.00    -7800.00
00784              -8.00    -7600.00
00785              -8.40    -7800.00
00786              -9.40    -7600.00
00787              -9.00    -7800.00
00788              -8.60    -8000.00
00789              -9.80    -7800.00
00790             -10.00    -8000.00
00791              -9.20    -8000.00
00792              -9.40    -7600.00
00793             -10.00    -8000.00
00794              -9.80    -8000.00
00795             -10.80    -8000.00
00796             -10.80    -8000.00
00797             -11.00    -8000.00
00798             -11.00    -8000.00
00799             -11.00    -7800.00
00800             -11.40    -8200.00
00801             -12.40    -8000.00
00802             -11.60    -8000.00
00803             -11.80    -8000.00
00804             -12.40    -8200.00
00805             -12.20    -8000.00
00806             -13.20    -8000.00
00807             -13.00    -8000.00
00808             -12.40    -8000.00
00809             -13.40    -8000.00
00810             -14.00    -8000.00
00811             -13.60    -8200.00
00812             -13.40    -8200.00
00813             -14.80    -8000.00
00814             -14.60    -8200.00
00815             -13.80    -8200.00
00816             -14.80    -8200.00
00817             -15.40    -8200.00
00818             -14.40    -8200.00
00819             -14.80    -8000.00
00820             -15.60    -8000.00
00821             -15.60    -8000.00
00822             -15.00    -8200.00
00823             -14.20    -8200.00
00824             -15.80    -8200.00
00825             -15.80    -8200.00
00826             -13.00    -8000.00
00827             -14.80    -8200.00
00828             -15.80    -8200.00
00829             -12.20    -8000.00
00830             -12.60    -8200.00
00831             -14.80    -8000.00
00832             -13.20    -8200.00
00833              -9.80    -8200.00
00834             -13.20    -8000.00
00835             -13.80    -8200.00
00836              -9.40    -8000.00
00837             -11.00    -8000.00
00838             -13.00    -8000.00
00839             -10.20    -8200.00
00840              -9.80    -8000.00
00841             -11.60    -8000.00
00842             -10.80    -8000.00
00843              -9.40    -8000.00
00844             -10.20    -8000.00
00845             -10.80    -8000.00
00846              -8.60    -8000.00
00847              -8.40    -7800.00
00848              -9.40    -8000.00
00849              -9.00    -8000.00
00850              -8.40    -7600.00
00851              -9.00    -8000.00
00852              -9.40    -7800.00
00853              -8.40    -7800.00
00854              -7.80    -7600.00
00855              -8.20    -7600.00
00856              -7.80    -7800.00
00857              -7.60    -7600.00
00858              -7.60    -7600.00
00859              -8.20    -7600.00
00860              -7.60    -7600.00
00861              -7.00    -7400.00
00862              -6.80    -7600.00
00863              -6.80    -7600.00
00864              -6.60    -7600.00
00865              -6.80    -7400.00
00866              -6.80    -7400.00
00867              -7.00    -7400.00
00868              -6.20    -7200.00
00869              -6.20    -7400.00
00870              -6.60    -7400.00
00871              -6.20    -7200.00
00872              -5.40    -7200.00
00873              -5.40    -7200.00
00874              -6.40    -7200.00
00875              -6.20    -7200.00
00876              -5.40    -7200.00
00877              -5.00    -7000.00
00878              -5.40    -7200.00
00879              -5.20    -7000.00
00880              -5.40    -7000.00
00881              -5.80    -7000.00
00882              -5.40    -7200.00
00883              -4.60    -6800.00
00884              -5.00    -6800.00
00885              -5.40    -6800.00
00886              -4.20    -6800.00
00887              -4.40    -6800.00
00888              -5.80    -6800.00
00889              -4.60    -6800.00
00890              -4.20    -6600.00
00891              -5.40    -6600.00
00892              -5.00    -6600.00
00893              -3.40    -6600.00
00894              -4.40    -6600.00
00895              -5.40    -6400.00
00896              -3.60    -6600.00
00897              -3.60    -6400.00
00898              -5.00    -6400.00
00899              -3.60    -6400.00
00900              -3.20    -6200.00
00901              -4.40    -6200.00
00902              -3.80    -6400.00
00903              -3.60    -6200.00
00904              -3.80    -6000.00
00905              -4.20    -6000.00
00906              -3.40    -6000.00
00907              -3.80    -6000.00
00908              -3.80    -5800.00
00909              -3.40    -6000.00
00910              -3.60    -5800.00
00911              -3.60    -5800.00
00912              -3.00    -5600.00
00913              -3.40    -5600.00
00914              -2.80    -5800.00
00915              -3.00    -5800.00
00916              -3.00    -5600.00
00917              -3.00    -5600.00
00918              -3.80    -5400.00
00919              -3.60    -5400.00
00920              -2.80    -5200.00
00921              -2.80    -5200.00
00922              -2.60    -5200.00
00923              -1.80    -5000.00
00924              -2.00    -5000.00
00925              -2.60    -5000.00
00926              -2.40    -5000.00
00927              -2.40    -4600.00
00928              -3.80    -4800.00
00929              -3.00    -4600.00
00930              -2.60    -4600.00
00931              -3.60    -4600.00
00932              -1.80    -4400.00
00933              -1.40    -4400.00
00934              -2.00    -4400.00
00935              -1.40    -4400.00
00936              -2.20    -4400.00
00937              -2.60    -4400.00
00938              -2.80    -4200.00
00939              -3.40    -4200.00
00940              -2.00    -4200.00
00941              -2.20    -4000.00
00942              -1.80    -4000.00
00943              -0.60    -4000.00
00944              -1.00    -4000.00
00945              -1.80    -3800.00
00946              -1.80    -4000.00
00947              -3.00    -3800.00
00948              -3.20    -3800.00
00949              -2.20    -3600.00
00950              -1.80    -3600.00
00951              -1.80    -3600.00
00952              -1.00    -3600.00
00953              -1.00    -3400.00
00954              -1.40    -3400.00
00955              -2.00    -3400.00
00956              -2.20    -3200.00
00957              -2.00    -3200.00
00958              -2.00    -3200.00
00959              -1.80    -3000.00
00960              -1.20    -2800.00
00961              -1.20    -2800.00
00962              -1.80    -2800.00
00963              -1.20    -2800.00
00964              -1.80    -2800.00
00965              -1.80    -2800.00
00966              -1.20    -2600.00
00967              -1.00    -2600.00
00968              -1.80    -2600.00
00969              -1.20    -2400.00
00970              -1.00    -2400.00
00971              -1.40    -2400.00
00972              -1.40    -2400.00
00973              -0.60    -2000.00
00974              -1.00    -2000.00
00975              -1.20    -2000.00
00976              -1.20    -2000.00
00977              -1.20    -1800.00
00978              -1.40    -1800.00
00979              -1.20    -1800.00
00980              -1.00    -1600.00
00981              -1.20    -1600.00
00982              -0.60    -1600.00
00983              -0.60    -1600.00
00984              -0.60    -1600.00
00985              -1.20    -1200.00
00986              -1.20    -1200.00
00987              -0.80    -1200.00
00988              -1.00    -1000.00
00989              -0.60    -1000.00
00990              -0.40    -1000.00
00991              -0.40     -800.00
00992              -0.40     -800.00
00993              -0.60     -800.00
00994              -1.20     -600.00
00995              -0.40     -800.00
00996              -0.40     -600.00
00997              -1.00     -400.00
00998              -0.40     -400.00
00999               0.20     -400.00
01000              -0.60     -200.00
01001              -0.60     -200.00
01002               0.20     -400.00
01003              -0.40     -200.00
01004              -0.60        0.00
01005              -0.20        0.00
01006              -0.60        0.00
01007               0.40        0.00
01008               0.40      200.00
01009               0.80        0.00
01010              -0.20      400.00
01011              -0.60      400.00
01012               0.40      400.00
01013               0.20      400.00
01014               0.00      600.00
01015               5.00      600.00
01016              13.80      800.00
01017              -6.60     1000.00
01018             -25.00      800.00
01019             -14.40      800.00
01020              25.00      800.00
01021              25.00     1400.00
01022             -25.00     1200.00
01023             -25.00     1000.00
01024              25.00     1600.00
01025              21.20     1200.00
01026             -25.00     1600.00
01027              25.00     1200.00
01028              25.00     2000.00
01029             -25.00     1200.00
01030             -25.00     2000.00
01031              25.00     1800.00
01032             -25.00     2000.00
01033             -25.00     2000.00
01034              25.00     2000.00
01035              25.00     2000.00
01036             -25.00     2200.00
01037              25.00     2200.00
01038              25.00     2000.00
01039             -25.00     2400.00
01040             -25.00     2400.00
01041              25.00     2200.00
01042              25.00     2400.00
01043             -25.00     2600.00
01044             -11.60     2400.00
01045              25.00     2800.00
01046             -25.00     2800.00
01047             -25.00     2800.00
01048              25.00     2800.00
01049              13.40     3000.00
01050             -25.00     3000.00
01051              25.00     3000.00
01052              25.00     3200.00
01053             -25.00     3200.00
01054               3.00     3200.00
01055              25.00     3400.00
01056             -25.00     3200.00
01057             -23.00     3400.00
01058              25.00     3600.00
01059               1.80     3600.00
01060             -25.00     3600.00
01061              17.00     3600.00
01062              15.00     3800.00
01063             -19.00     3800.00
01064               2.20     3800.00
01065              16.20     3800.00
01066              -5.80     4000.00
01067              -7.00     4000.00
01068              12.20     4000.00
01069               4.80     4000.00
01070              -8.60     4400.00
01071               2.00     4200.00
01072              11.60     4400.00
01073              -4.40     4400.00
01074              -4.40     4400.00
01075              10.80     4400.00
01076               3.00     4600.00
01077              -7.80     4600.00
01078               7.00     4600.00
01079               7.00     4600.00
01080              -6.20     4800.00
01081               2.00     4800.00
01082               9.40     4800.00
01083              -2.20     4800.00
01084              -2.00     5000.00
01085               7.80     5000.00
01086               1.80     5200.00
01087              -2.20     5400.00
01088               4.40     5200.00
01089               5.40     5200.00
01090              -0.60     5400.00
01091               1.40     5400.00
01092               4.80     5400.00
01093               1.80     5400.00
01094               0.00     5600.00
01095               4.20     5600.00
01096               3.80     5600.00
01097               1.00     5600.00
01098               2.60     5600.00
01099               4.60     5800.00
01100               1.80     6000.00
01101               1.80     6000.00
01102               4.20     6000.00
01103               3.20     6000.00
01104               1.80     6000.00
01105               3.60     6000.00
01106               3.60     6000.00
01107               2.20     6200.00
01108               3.80     6200.00
01109               3.80     6200.00
01110               2.80     6200.00
01111               3.40     6400.00
01112               4.20     6200.00
01113               3.20     6400.00
01114               3.00     6600.00
01115               4.20     6400.00
01116               3.80     6600.00
01117               3.80     6800.00
01118               4.00     6400.00
01119               4.20     6800.00
01120               4.20     6800.00
01121               4.20     6800.00
01122               4.60     6800.00
01123               3.80     6800.00
01124               4.20     6800.00
01125               5.00     6800.00
01126               5.40     7000.00
01127               4.20     7000.00
01128               5.20     7000.00
01129               5.80     7000.00
01130               4.60     7000.00
01131               4.60     7200.00
01132               6.20     7000.00
01133               5.00     7200.00
01134               4.60     7200.00
01135               6.40     7200.00
01136               5.80     7200.00
01137               5.20     7200.00
01138               6.00     7200.00
01139               6.60     7400.00
01140               6.00     7200.00
01141               5.60     7200.00
01142               6.60     7400.00
01143               7.00     7600.00
01144               5.80     7600.00
01145               7.00     7600.00
01146               7.40     7600.00
01147               5.80     7600.00
01148               6.60     7400.00
01149               8.20     7600.00
01150               7.60     7600.00
01151               6.80     7600.00
01152               7.60     7600.00
01153               7.60     7600.00
01154               8.40     7600.00
01155               8.20     7800.00
01156               6.60     7600.00
01157               8.40     7800.00
01158               9.80     7800.00
01159               8.20     7800.00
01160               8.20     7800.00
01161              10.00     7800.00
01162              10.00     7800.00
01163               8.80     7800.00
01164               9.00     7800.00
01165              10.00     7800.00
01166              10.60     8000.00
01167               9.80     7800.00
01168              10.00     8000.00
01169              10.60     8200.00
01170              10.80     8000.00
01171              11.00     7800.00
01172              11.40     8200.00
01173              11.60     8000.00
01174              12.20     8000.00
01175              11.40     8200.00
01176              12.40     8000.00
01177              13.00     8000.00
01178              12.40     8200.00
01179              12.20     8200.00
01180              13.80     8000.00
01181              13.40     8200.00
01182              12.40     8200.00
01183              13.80     8000.00
01184              14.60     8200.00
01185              13.60     8200.00
01186              14.00     8200.00
01187              15.60     8200.00
01188              14.80     8000.00
01189              13.80     8000.00
01190              15.00     8200.00
01191              15.00     8000.00
01192              14.40     8200.00
01193              14.80     8000.00
01194              15.00     8000.00
01195              14.60     8200.00
01196              14.00     8000.00
01197              14.60     8000.00
01198              13.60     8200.00
01199              12.20     8200.00
01200              13.20     8000.00
01201              13.40     8200.00
01202              11.80     8200.00
01203              12.40     8000.00
01204              12.80     8200.00
01205              10.80     8000.00
01206              11.00     8000.00
01207              11.60     8200.00
01208              10.20     8000.00
01209              10.60     8200.00
01210              11.00     7800.00
01211              10.00     8000.00
01212               9.40     7800.00
01213              10.00     8000.00
01214               8.60     8200.00
01215               8.60     8000.00
01216               9.40     7800.00
01217               9.20     7800.00
01218               8.40     8000.00
01219               8.60     7800.00
01220               9.00     7800.00
01221               7.80     7800.00
01222               7.80     7600.00
01223               8.20     7800.00
01224               7.60     7800.00
01225               7.80     7800.00
01226               7.40     7600.00
01227               7.20     7600.00
01228               7.20     7800.00
01229               6.80     7600.00
01230               7.00     7600.00
01231               6.80     7600.00
01232               7.00     7600.00
01233               6.80     7600.00
01234               6.20     7400.00
01235               6.20     7600.00
01236               6.20     7400.00
01237               6.00     7400.00
01238               6.00     7200.00
01239               5.80     7400.00
01240               6.00     7200.00
01241               5.80     7200.00
01242               5.40     7200.00
01243               5.40     7200.00
01244               5.20     7200.00
01245               5.80     7200.00
01246               5.20     7000.00
01247               5.00     7200.00
01248               5.20     7000.00
01249               5.20     7000.00
01250               5.00     7000.00
01251               5.00     7000.00
01252               5.00     6800.00
01253               5.00     6800.00
01254               4.60     7000.00
01255               4.60     6800.00
01256               4.40     6800.00
01257               4.40     6800.00
01258               4.40     6600.00
01259               4.20     6800.00
01260               3.80     6600.00
01261               4.00     6600.00
01262               4.40     6400.00
01263               4.20     6600.00
01264               3.60     6400.00
01265               3.80     6400.00
01266               4.00     6400.00
01267               3.80     6400.00
01268               3.00     6400.00
01269               3.80     6200.00
01270               4.20     6200.00
01271               2.80     6200.00
01272               3.00     6200.00
01273               3.80     6200.00
01274               3.00     6200.00
01275               2.80     6000.00
01276               3.60     6000.00
01277               3.00     6000.00
01278               2.60     5800.00
01279               3.20     6000.00
01280               2.80     5800.00
01281               2.40     5600.00
01282               2.80     5800.00
01283               2.80     5600.00
01284               2.60     5600.00
01285               2.60     5600.00
01286               2.60     5400.00
01287               2.20     5600.00
01288               2.20     5400.00
01289               2.60     5400.00
01290               2.60     5200.00
01291               2.00     5200.00
01292               2.20     5200.00
01293               2.40     5200.00
01294               2.00     5000.00
01295               2.00     5200.00
01296               2.00     4800.00
01297               2.00     5000.00
01298               1.80     4800.00
01299               2.00     4800.00
01300               2.00     4600.00
01301               1.80     4600.00
01302               1.80     4600.00
01303               1.80     4600.00
01304               1.80     4400.00
01305               1.60     4600.00
01306               1.80     4400.00
01307               1.80     4400.00
01308               1.80     4200.00
01309               1.60     4200.00
01310               1.80     4200.00
01311               1.40     4000.00
01312               1.40     4000.00
01313               1.40     4000.00
01314               1.40     4000.00
01315               1.80     3800.00
01316               1.20     4000.00
01317               1.20     3800.00
01318               1.60     3800.00
01319               1.20     3600.00
01320               1.20     3800.00
01321               1.40     3600.00
01322               1.20     3600.00
01323               1.20     3600.00
01324               1.40     3400.00
01325               1.00     3400.00
01326               1.00     3200.00
01327               1.20     3200.00
01328               1.60     3200.00
01329               1.00     3000.00
01330               1.00     2800.00
01331               0.60     3000.00
01332               1.00     2800.00
01333               1.00     2800.00
01334               1.00     2800.00
01335               0.80     2800.00
01336               0.60     2800.00
01337               0.60     2600.00
01338               0.40     2400.00
01339               0.60     2400.00
01340               0.60     2400.00
01341               0.40     2200.00
01342               0.60     2200.00
01343               0.60     2200.00
01344               0.40     2200.00
01345               0.60     2000.00
01346               0.40     2000.00
01347               0.20     2000.00
01348               0.20     1800.00
01349               0.40     2000.00
01350               0.40     1800.00
01351              -0.20     1600.00
01352              -0.20     1600.00
01353               0.40     1800.00
01354               0.20     1400.00
01355              -0.20     1400.00
01356               0.20     1400.00
01357               0.40     1200.00
01358              -0.20     1200.00
01359              -0.20     1200.00
01360               0.60     1200.00
01361              -0.20     1000.00
01362              -0.60      800.00
01363               0.20     1000.00
01364              -0.20      800.00
01365              -0.40      600.00
01366              -0.20      600.00
01367               0.00      400.00
01368               0.20      600.00
01369               0.00      600.00
01370              -0.40      400.00
01371               0.20      400.00
01372              -0.40      200.00
01373              -0.20      200.00
01374              -0.40        0.00
01375              -0.20        0.00
01376              -0.40        0.00
01377              -0.40        0.00
01378               0.40     -200.00
01379               0.40     -200.00
01380               0.40     -400.00
01381              -1.00     -400.00
01382              -0.20     -400.00
01383              -0.20     -400.00
01384              -1.00     -400.00
01385               3.80     -400.00
01386              23.80     -800.00
01387              -5.00    -1000.00
01388             -25.00    -1200.00
01389             -25.00     -800.00
01390              25.00     -800.00
01391              25.00    -1200.00
01392             -25.00    -1400.00
01393             -25.00     -800.00
01394              25.00    -1400.00
01395              25.00    -1600.00
01396             -25.00    -1000.00
01397              21.80    -1600.00
01398              25.00    -1600.00
01399             -25.00    -1600.00
01400             -25.00    -1400.00
01401              25.00    -2000.00
01402              25.00    -2000.00
01403             -25.00    -1600.00
01404              25.00    -2400.00
01405              25.00    -2000.00
01406             -25.00    -2000.00
01407             -25.00    -2200.00
01408              25.00    -2400.00
01409             -25.00    -2000.00
01410             -25.00    -2400.00
01411              25.00    -2600.00
01412              25.00    -2400.00
01413             -25.00    -2600.00
01414             -25.00    -2600.00
01415              25.00    -2600.00
01416              11.20    -2600.00
01417             -25.00    -2800.00
01418              25.00    -3000.00
01419              25.00    -2800.00
01420             -25.00    -2800.00
01421              22.80    -3000.00
01422              25.00    -3200.00
01423             -25.00    -3200.00
01424             -25.00    -3400.00
01425              25.00    -3400.00
01426             -15.60    -3400.00
01427             -25.00    -3400.00
01428              25.00    -3600.00
01429              24.60    -3600.00
01430             -25.00    -3600.00
01431               1.00    -3600.00
01432              25.00    -3600.00
01433             -22.20    -3600.00
01434             -19.60    -4000.00
01435              22.00    -4000.00
01436               0.40    -4000.00
01437             -21.00    -4000.00
01438               4.60    -4200.00
01439              12.80    -4200.00
01440             -14.60    -4000.00
01441             -10.60    -4200.00
01442              13.40    -4400.00
01443              -2.60    -4400.00
01444             -16.40    -4400.00
01445               6.60    -4400.00
01446               6.60    -4600.00
01447             -15.40    -4400.00
01448              -3.00    -4600.00
01449               9.80    -4800.00
01450             -10.60    -4600.00
01451              -7.60    -4800.00
01452               9.80    -4800.00
01453              -4.20    -4800.00
01454             -11.60    -5000.00
01455               3.60    -5000.00
01456               1.00    -5200.00
01457             -10.60    -5200.00
01458              -2.00    -5200.00
01459               4.20    -5200.00
01460              -6.80    -5200.00
01461              -6.20    -5200.00
01462               2.20    -5400.00
01463              -3.60    -5600.00
01464              -8.20    -5400.00
01465              -0.40    -5600.00
01466               1.20    -5600.00
01467              -6.20    -5800.00
01468              -5.40    -5600.00
01469               0.40    -5800.00
01470              -3.60    -5800.00
01471              -7.00    -5800.00
01472              -1.60    -6000.00
01473              -1.80    -6000.00
01474              -6.00    -6000.00
01475              -3.80    -6000.00
01476              -2.00    -6200.00
01477              -5.40    -6000.00
01478              -4.60    -6200.00
01479              -2.20    -6400.00
01480              -3.80    -6400.00
01481              -4.40    -6200.00
01482              -3.80    -6400.00
01483              -4.40    -6600.00
01484              -4.60    -6600.00
01485              -3.80    -6400.00
01486              -4.40    -6600.00
01487              -4.60    -6600.00
01488              -4.20    -6600.00
01489              -4.80    -6600.00
01490              -5.00    -6800.00
01491              -4.60    -6800.00
01492              -4.60    -6800.00
01493              -5.00    -6800.00
01494              -4.60    -6800.00
01495              -4.40    -6800.00
01496              -5.00    -6800.00
01497              -5.60    -7000.00
01498              -5.20    -7000.00
01499              -5.00    -7000.00
01500              -5.60    -7000.00
01501              -6.00    -7200.00
01502              -5.40    -7200.00
01503              -5.20    -7200.00
01504              -6.20    -7200.00
01505              -6.60    -7200.00
01506              -5.80    -7400.00
01507              -6.20    -7200.00
01508              -6.60    -7200.00
01509              -5.40    -7200.00
01510              -6.00    -7400.00
01511              -6.80    -7400.00
01512              -6.20    -7400.00
01513              -6.60    -7400.00
01514              -7.80    -7400.00
01515              -7.00    -7400.00
01516              -6.20    -7400.00
01517              -7.40    -7600.00
01518              -7.60    -7400.00
01519              -6.80    -7600.00
01520              -7.60    -7600.00
01521              -8.40    -7600.00
01522              -7.60    -7600.00
01523              -7.60    -7600.00
01524              -8.60    -7800.00
01525              -8.60    -7600.00
01526              -7.80    -7600.00
01527              -9.00    -7800.00
01528              -9.40    -7600.00
01529              -9.00    -7800.00
01530              -8.80    -7800.00
01531              -9.40    -7800.00
01532              -9.20    -8000.00
01533              -9.40    -7800.00
01534             -10.20    -7800.00
01535              -9.80    -8000.00
01536             -10.20    -8000.00
01537             -11.00    -7800.00
01538             -10.60    -8000.00
01539             -11.00    -8000.00
01540             -11.40    -8200.00
01541             -11.00    -8000.00
01542             -11.80    -8000.00
01543             -12.20    -8000.00
01544             -11.60    -8200.00
01545             -11.80    -8000.00
01546             -12.40    -8000.00
01547             -12.40    -8000.00
01548             -13.20    -8000.00
01549             -12.80    -8000.00
01550             -13.40    -8200.00
01551             -13.60    -8200.00
01552             -14.00    -8000.00
01553             -13.80    -8200.00
01554             -14.00    -8000.00
01555             -14.80    -8000.00
01556             -14.60    -8200.00
01557             -14.20    -8200.00
01558             -15.40    -8000.00
01559             -14.80    -8000.00
01560             -14.40    -8000.00
01561             -15.20    -8200.00
01562             -15.80    -8000.00
01563             -15.00    -8200.00
01564             -15.00    -8000.00
01565             -15.40    -8000.00
01566             -15.40    -8000.00
01567             -14.20    -8000.00
01568             -14.60    -8000.00
01569             -14.20    -8000.00
01570             -14.00    -8000.00
01571             -13.20    -8000.00
01572             -13.40    -8000.00
01573             -13.20    -8000.00
01574             -12.20    -8000.00
01575             -12.20    -8000.00
01576             -12.20    -8000.00
01577             -11.40    -8200.00
01578             -11.60    -8000.00
01579             -11.40    -8000.00
01580             -11.00    -8000.00
01581             -10.80    -8000.00
01582             -10.80    -7800.00
01583             -10.20    -8000.00
01584             -10.00    -7800.00
01585             -10.00    -8000.00
01586              -9.40    -8000.00
01587              -9.20    -8000.00
01588              -9.40    -7800.00
01589              -9.20    -8000.00
01590              -8.60    -8000.00
01591              -8.80    -7800.00
01592              -8.80    -7800.00
01593              -8.40    -7600.00
01594              -8.40    -7800.00
01595              -8.60    -7600.00
01596              -8.00    -7400.00
01597              -7.80    -7600.00
01598              -8.20    -7600.00
01599              -7.80    -7600.00
01600              -7.60    -7600.00
01601              -7.60    -7600.00
01602              -7.40    -7400.00
01603              -7.00    -7600.00
01604              -7.00    -7400.00
01605              -7.00    -7400.00
01606              -7.00    -7400.00
01607              -6.80    -7400.00
01608              -6.80    -7400.00
01609              -6.80    -7400.00
01610              -6.60    -7400.00
01611              -6.20    -7400.00
01612              -6.20    -7200.00
01613              -6.60    -7400.00
01614              -5.80    -7200.00
01615              -6.00    -7200.00
01616              -6.00    -7200.00
01617              -5.40    -7200.00
01618              -5.80    -7200.00
01619              -5.80    -7200.00
01620              -5.80    -7000.00
01621              -5.40    -7000.00
01622              -5.40    -7000.00
01623              -5.40    -6800.00
01624              -5.20    -7200.00
01625              -5.20    -7000.00
01626              -5.20    -6800.00
01627              -4.60    -6800.00
01628              -5.00    -6800.00
01629              -5.00    -6800.00
01630              -4.40    -6800.00
01631              -4.60    -6800.00
01632              -5.20    -6600.00
01633              -4.20    -6600.00
01634              -4.20    -6600.00
01635              -4.60    -6400.00
01636              -4.40    -6400.00
01637              -3.80    -6600.00
01638              -4.60    -6400.00
01639              -4.20    -6400.00
01640              -3.80    -6400.00
01641              -4.00    -6400.00
01642              -3.80    -6200.00
01643              -3.80    -6400.00
01644              -3.80    -6000.00
01645              -3.00    -6000.00
01646              -3.80    -6200.00
01647              -3.80    -6000.00
01648              -3.00    -6000.00
01649              -3.40    -6000.00
01650              -3.60    -6000.00
01651              -3.00    -5800.00
01652              -3.60    -5800.00
01653              -3.60    -5800.00
01654              -2.60    -5600.00
01655              -3.00    -5600.00
01656              -3.80    -5600.00
01657              -2.80    -5600.00
01658              -2.20    -5600.00
01659              -3.60    -5600.00
01660              -3.00    -5200.00
01661              -2.20    -5200.00
01662              -2.80    -5200.00
01663              -3.80    -5200.00
01664              -2.80    -5200.00
01665              -2.00    -5200.00
01666              -2.80    -5000.00
01667              -3.60    -5000.00
01668              -2.20    -5000.00
01669              -2.20    -5000.00
01670              -3.00    -4600.00
01671              -2.80    -4600.00
01672              -2.20    -4600.00
01673              -2.20    -4600.00
01674              -3.00    -4600.00
01675              -3.00    -4600.00
01676              -1.40    -4400.00
01677              -2.40    -4400.00
01678              -3.00    -4400.00
01679              -1.80    -4400.00
01680              -2.80    -4400.00
01681              -2.00    -4200.00
01682              -2.00    -4200.00
01683              -2.60    -4200.00
01684              -2.60    -4200.00
01685              -2.00    -4000.00
01686              -1.40    -4000.00
01687              -2.80    -4000.00
01688              -2.20    -3800.00
01689              -1.80    -3800.00
01690              -2.00    -3600.00
01691              -2.20    -3600.00
01692              -2.00    -3600.00
01693              -1.40    -3400.00
01694              -2.00    -3400.00
01695              -1.40    -3600.00
01696              -1.20    -3400.00
01697              -1.80    -3200.00
01698              -1.80    -3200.00
01699              -1.80    -3200.00
01700              -1.40    -3000.00
01701              -1.40    -3000.00
01702              -1.20    -2800.00
01703              -2.20    -3000.00
01704              -1.00    -2800.00
01705              -1.00    -2800.00
01706              -2.20    -2800.00
01707              -1.20    -2600.00
01708              -0.60    -2600.00
01709              -1.20    -2600.00
01710              -1.20    -2600.00
01711              -1.00    -2400.00
01712              -1.20    -2200.00
01713              -1.80    -2200.00
01714              -0.40    -2400.00
01715              -0.60    -2000.00
01716              -1.20    -2000.00
01717              -1.00    -2000.00
01718              -1.20    -2000.00
01719              -0.80    -2000.00
01720              -0.80    -1800.00
01721              -1.20    -1800.00
01722              -1.00    -1800.00
01723              -0.60    -1600.00
01724              -1.20    -1600.00
01725              -0.40    -1600.00
01726              -0.80    -1400.00
01727              -1.00    -1200.00
01728              -0.20    -1200.00
01729              -0.20    -1200.00
01730              -1.20    -1200.00
01731              -1.20    -1200.00
01732              -0.20    -1000.00
01733              -0.60    -1000.00
01734              -1.20    -1000.00
01735              -0.60     -800.00
01736               0.20     -800.00
01737              -1.20     -600.00
01738              -0.60     -600.00
01739               0.40     -600.00
01740              -1.00     -400.00
01741              -0.80     -600.00
01742               0.20     -200.00
01743              -0.80     -200.00
01744              -1.00     -200.00
01745              -0.20        0.00
01746              -0.20        0.00
01747              -1.00        0.00
01748               0.40        0.00
01749               0.40        0.00
01750               0.20        0.00
01751               0.00      400.00
01752              -0.60      400.00
01753               0.20      400.00
01754               0.40      400.00
01755              -0.40      400.00
01756               1.40      600.00
01757               9.00      800.00
01758              11.40      800.00
01759             -17.80     1000.00
01760             -25.00      800.00
01761              -0.60      600.00
01762              25.00     1200.00
01763              11.40     1200.00
01764             -25.00     1000.00
01765              25.00     1000.00
01766              25.00     1800.00
01767             -25.00      800.00
01768             -25.00     1600.00
01769              25.00     1400.00
01770              25.00     1600.00
01771             -25.00     1800.00
01772              25.00     1800.00
01773              25.00     1800.00
01774             -25.00     1800.00
01775             -15.60     2000.00
01776              25.00     2000.00
01777             -25.00     2000.00
01778             -25.00     2400.00
01779              25.00     2000.00
01780              25.00     2200.00
01781             -25.00     2400.00
01782             -11.40     2400.00
01783              25.00     2200.00
01784              -3.40     2800.00
01785             -25.00     2400.00
01786              25.00     2600.00
01787              25.00     2800.00
01788             -25.00     2800.00
01789              -9.00     2800.00
01790              25.00     2800.00
01791             -25.00     3200.00
01792             -25.00     2800.00
01793              25.00     3000.00
01794              -1.00     3000.00
01795             -25.00     3200.00
01796              25.00     3000.00
01797              25.00     3200.00
01798             -25.00     3200.00
01799               3.60     3600.00
01800              25.00     3400.00
01801             -18.80     3800.00
01802             -14.20     3600.00
01803              25.00     3600.00
01804              -1.00     3800.00
01805             -16.80     3800.00
01806              13.00     3800.00
01807               9.00     4000.00
01808             -11.80     3800.00
01809               1.00     4000.00
01810              12.60     4000.00
01811              -2.00     4200.00
01812              -7.40     4000.00
01813               8.20     4400.00
01814               6.80     4400.00
01815              -8.20     4400.00
01816               2.20     4400.00
01817              10.60     4400.00
01818              -3.40     4600.00
01819              -4.20     4600.00
01820              10.20     4600.00
01821               1.40     4600.00
01822              -5.40     4800.00
01823               7.00     4800.00
01824               6.20     4800.00
01825              -5.40     5000.00
01826               3.40     5000.00
01827               7.60     5200.00
01828              -1.40     5200.00
01829              -0.60     5200.00
01830               6.60     5400.00
01831               2.20     5400.00
01832              -1.00     5400.00
01833               4.40     5400.00
01834               4.80     5400.00
01835              -1.00     5600.00
01836               2.00     5600.00
01837               6.60     5600.00
01838               1.40     5600.00
01839               0.60     5800.00
01840               5.20     5800.00
01841               3.80     5800.00
01842               0.40     6000.00
01843               3.00     6000.00
01844               4.60     6000.00
01845               1.80     6000.00
01846               2.20     6200.00
01847               5.20     6000.00
01848               2.80     6200.00
01849               2.60     6200.00
01850               3.80     6200.00
01851               4.20     6200.00
01852               3.00     6000.00
01853               3.60     6200.00
01854               3.60     6400.00
01855               3.80     6400.00
01856               4.00     6400.00
01857               2.80     6600.00
01858               4.40     6800.00
01859               4.40     6600.00
01860               2.80     6600.00
01861               4.80     6400.00
01862               4.80     6800.00
01863               2.60     6600.00
01864               4.40     6800.00
01865               5.20     6800.00
01866               3.60     6800.00
01867               4.20     6800.00
01868               5.80     6800.00
01869               4.40     7000.00
01870               4.40     7000.00
01871               5.40     7000.00
01872               5.00     7000.00
01873               4.40     7000.00
01874               5.60     7200.00
01875               5.00     7200.00
01876               4.60     7200.00
01877               5.80     7200.00
01878               6.20     7200.00
01879               5.00     7200.00
01880               5.60     7200.00
01881               6.80     7200.00
01882               6.40     7400.00
01883               5.40     7600.00
01884               6.60     7400.00
01885               6.80     7600.00
01886               5.80     7600.00
01887               6.20     7600.00
01888               7.40     7600.00
01889               6.80     7600.00
01890               6.60     7600.00
01891               8.20     7800.00
01892               7.60     7800.00
01893               6.80     7600.00
01894               8.00     7600.00
01895               8.20     7600.00
01896               7.20     7800.00
01897               8.20     7600.00
01898               8.60     7800.00
01899               8.40     7600.00
01900               8.60     8000.00
01901               8.80     7800.00
01902               9.00     7800.00
01903               9.80     7800.00
01904               9.40     7800.00
01905               9.80     7800.00
01906              10.00     7800.00
01907              10.00     8000.00
01908              10.40     8000.00
01909              10.20     8200.00
01910              11.00     8000.00
01911              10.80     8200.00
01912              11.00     8000.00
01913              11.00     8200.00
01914              11.40     8000.00
01915              11.80     8000.00
01916              12.00     8200.00
01917              12.20     8000.00
01918              12.60     8200.00
01919              12.40     8000.00
01920              12.40     8200.00
01921              13.00     8000.00
01922              13.20     8000.00
01923              13.20     8200.00
01924              13.80     8200.00
01925              13.80     8200.00
01926              13.40     8000.00
01927              13.80     8000.00
01928              14.60     8200.00
01929              14.20     8000.00
01930              14.60     8200.00
01931              15.00     8000.00
01932              15.00     8200.00
01933              14.60     8000.00
01934              14.80     8000.00
01935              14.60     8200.00
01936              14.20     8200.00
01937              14.60     8000.00
01938              13.80     8200.00
01939              13.40     8000.00
01940              13.60     8200.00
01941              13.20     8000.00
01942              12.80     8200.00
01943              12.20     8200.00
01944              12.40     8000.00
01945              11.80     8000.00
01946              11.40     8000.00
01947              11.20     8200.00
01948              11.20     8200.00
01949              10.80     8000.00
01950              10.20     8000.00
01951              10.40     7800.00
01952              10.40     8200.00
01953               9.80     7800.00
01954              10.00     8000.00
01955               9.80     8000.00
01956               9.00     7800.00
01957               9.80     7800.00
01958               9.40     8200.00
01959               8.20     8000.00
01960               9.20     7800.00
01961               8.40     8000.00
01962               8.20     7800.00
01963               9.00     7800.00
01964               7.60     7800.00
01965               7.60     7800.00
01966               8.40     7800.00
01967               7.40     7800.00
01968               6.80     7800.00
01969               8.20     7600.00
01970               7.60     7600.00
01971               6.20     7600.00
01972               7.80     7600.00
01973               7.00     7600.00
01974               6.20     7600.00
01975               6.80     7600.00
01976               6.80     7600.00
01977               6.00     7400.00
01978               6.60     7600.00
01979               6.20     7400.00
01980               6.20     7400.00
01981               6.00     7400.00
01982               5.80     7400.00
01983               5.80     7200.00
01984               5.80     7400.00
01985               5.40     7200.00
01986               5.40     7200.00
01987               5.60     7200.00
01988               5.20     7000.00
01989               4.60     7200.00
01990               5.20     7000.00
01991               5.00     7000.00
01992               4.60     7000.00
01993               4.60     6800.00
01994               4.60     6800.00
01995               4.60     6800.00
01996               4.20     6800.00
01997               4.20     6800.00
01998               4.20     6800.00
01999               4.60     6800.00
02000               4.20     6600.00
02001               3.60     6600.00
02002               4.40     6600.00
02003               3.80     6400.00
02004               3.80     6600.00
02005               4.20     6400.00
02006               3.60     6400.00
02007               3.60     6400.00
02008               3.40     6400.00
02009               3.40     6400.00
02010               3.80     6400.00
02011               3.00     6400.00
02012               3.40     6200.00
02013               3.40     6200.00
02014               3.00     6200.00
02015               3.40     6200.00
02016               3.00     6000.00
02017               3.00     6000.00
02018               3.00     6000.00
02019               2.80     6000.00
02020               3.00     6000.00
02021               3.40     5800.00
02022               2.60     5800.00
02023               3.00     6000.00
02024               3.00     5600.00
02025               1.80     5600.00
02026               2.60     5600.00
02027               3.00     5600.00
02028               1.80     5600.00
02029               2.60     5400.00
02030               3.40     5400.00
02031               1.60     5400.00
02032               2.00     5400.00
02033               3.60     5200.00
02034               2.00     5200.00
02035               1.80     5200.00
02036               3.00     5000.00
02037               2.40     5200.00
02038               1.40     5000.00
02039               2.40     4800.00
02040               2.80     4800.00
02041               1.40     4800.00
02042               1.60     4600.00
02043               2.80     4600.00
02044               1.60     4600.00
02045               1.20     4600.00
02046               2.20     4400.00
02047               2.00     4400.00
02048               1.40     4400.00
02049               2.00     4400.00
02050               2.00     4400.00
02051               1.60     4400.00
02052               1.80     4200.00
02053               1.80     4200.00
02054               1.40     4000.00
02055               1.20     4000.00
02056               1.20     3800.00
02057               1.40     4000.00
02058               1.40     3800.00
02059               1.40     3800.00
02060               1.20     3600.00
02061               1.20     3600.00
02062               1.00     3600.00
02063               1.00     3600.00
02064               1.00     3600.00
02065               1.00     3400.00
02066               1.20     3400.00
02067               1.20     3200.00
02068               1.00     3200.00
02069               0.80     3200.00
02070               0.80     3000.00
02071               1.00     3000.00
02072               0.80     3000.00
02073               0.40     2800.00
02074               1.00     2800.00
02075               0.40     2800.00
02076               0.40     2800.00
02077               1.00     2800.00
02078               0.60     2800.00
02079               0.40     2600.00
02080               0.40     2400.00
02081               0.60     2400.00
02082               0.60     2400.00
02083               0.60     2200.00
02084               0.40     2200.00
02085               0.40     2200.00
02086               0.60     2000.00
02087               0.40     2200.00
02088               0.20     2000.00
02089               0.40     1800.00
02090               1.00     2000.00
02091               0.40     1800.00
02092               0.20     1800.00
02093               0.60     1600.00
02094               0.40     1600.00
02095               0.20     1600.00
02096               0.40     1400.00
02097               0.20     1400.00
02098               0.40     1200.00
02099               0.40     1200.00
02100               0.20     1200.00
02101               0.20     1200.00
02102               0.20      800.00
02103               0.20     1000.00
02104               0.00      800.00
02105               0.20      800.00
02106              -0.20      800.00
02107               0.20      600.00
02108               0.40      600.00
02109               0.20      600.00
02110              -0.20      400.00
02111               0.20      400.00
02112               0.00      400.00
02113              -0.20      200.00
02114              -0.20        0.00
02115              -0.20      200.00
02116               0.00        0.00
02117               0.00        0.00
02118              -0.60     -200.00
02119               0.40     -200.00
02120               0.40     -200.00
02121              -0.20     -400.00
02122               0.20     -200.00
02123              -0.40     -400.00
02124              -0.60     -400.00
02125              -0.40     -400.00
02126               0.20     -400.00
02127               8.80     -800.00
02128              24.40     -800.00
02129             -25.00    -1200.00
02130             -25.00    -1000.00
02131               0.60     -600.00
02132              25.00    -1000.00
02133              12.80    -1400.00
02134             -25.00    -1000.00
02135              25.00    -1000.00
02136              25.00    -1400.00
02137             -25.00    -1800.00
02138             -25.00     -800.00
02139              25.00    -1800.00
02140              25.00    -1800.00
02141             -25.00    -1200.00
02142             -23.60    -1800.00
02143              25.00    -1800.00
02144              -9.20    -1800.00
02145             -25.00    -1800.00
02146              25.00    -2400.00
02147              25.00    -1800.00
02148             -25.00    -2000.00
02149              25.00    -2400.00
02150              25.00    -2200.00
02151             -25.00    -2000.00
02152             -25.00    -2400.00
02153              25.00    -2400.00
02154              25.00    -2400.00
02155             -25.00    -2600.00
02156              19.40    -2800.00
02157              25.00    -2600.00
02158             -25.00    -2600.00
02159             -25.00    -2800.00
02160              25.00    -2800.00
02161              -7.00    -2800.00
02162             -25.00    -2800.00
02163              25.00    -3200.00
02164              25.00    -3000.00
02165             -25.00    -3200.00
02166              22.80    -3200.00
02167              25.00    -3400.00
02168             -25.00    -3200.00
02169             -23.80    -3400.00
02170              25.00    -3400.00
02171              -7.60    -3400.00
02172             -25.00    -3600.00
02173              25.00    -3600.00
02174              15.60    -3600.00
02175             -25.00    -3800.00
02176               1.20    -3800.00
02177              19.80    -4000.00
02178             -13.80    -4000.00
02179             -14.60    -4000.00
02180              13.40    -4000.00
02181               3.20    -4200.00
02182             -18.80    -4200.00
02183               2.00    -4400.00
02184              12.00    -4400.00
02185             -13.40    -4400.00
02186              -8.40    -4400.00
02187              12.20    -4400.00
02188              -4.60    -4600.00
02189             -15.00    -4600.00
02190               7.00    -4800.00
02191               3.00    -4600.00
02192             -15.80    -4800.00
02193               1.40    -4600.00
02194               7.00    -4800.00
02195             -11.60    -4800.00
02196              -5.80    -5000.00
02197               6.80    -5000.00
02198              -5.40    -5000.00
02199             -10.00    -5200.00
02200               3.00    -5200.00
02201              -0.20    -5200.00
02202              -9.80    -5200.00
02203              -1.20    -5400.00
02204               2.00    -5600.00
02205              -7.60    -5600.00
02206              -6.00    -5600.00
02207               1.80    -5600.00
02208              -3.00    -5600.00
02209              -7.40    -5800.00
02210              -1.20    -5600.00
02211              -0.60    -5800.00
02212              -6.00    -5800.00
02213              -4.60    -6000.00
02214              -1.00    -5800.00
02215              -4.60    -6000.00
02216              -5.40    -6000.00
02217              -1.80    -6000.00
02218              -2.80    -6000.00
02219              -5.80    -6200.00
02220              -3.40    -6200.00
02221              -2.60    -6200.00
02222              -5.00    -6400.00
02223              -3.80    -6400.00
02224              -3.00    -6400.00
02225              -5.00    -6400.00
02226              -4.60    -6400.00
02227              -3.40    -6600.00
02228              -4.80    -6600.00
02229              -5.40    -6600.00
02230              -3.60    -6600.00
02231              -4.20    -6600.00
02232              -5.00    -6600.00
02233              -4.60    -6600.00
02234              -3.80    -6800.00
02235              -5.00    -6800.00
02236              -5.20    -6800.00
02237              -4.20    -6800.00
02238              -5.00    -6800.00
02239              -6.20    -7000.00
02240              -4.80    -7000.00
02241              -4.20    -7000.00
02242              -6.40    -7000.00
02243              -6.20    -7200.00
02244              -4.60    -7200.00
02245              -5.40    -7000.00
02246              -6.80    -7200.00
02247              -5.20    -7200.00
02248              -5.40    -7200.00
02249              -6.80    -7200.00
02250              -6.20    -7200.00
02251              -5.40    -7400.00
02252              -6.60    -7400.00
02253              -7.00    -7400.00
02254              -6.20    -7400.00
02255              -7.00    -7400.00
02256              -7.80    -7400.00
02257              -7.00    -7400.00
02258              -6.80    -7600.00
02259              -7.80    -7600.00
02260              -7.40    -7600.00
02261              -6.80    -7600.00
02262              -7.80    -7600.00
02263              -8.60    -7400.00
02264              -7.40    -7600.00
02265              -7.60    -7600.00
02266              -9.00    -7800.00
02267              -8.60    -7600.00
02268              -7.80    -7800.00
02269              -9.40    -7800.00
02270             -10.20    -7800.00
02271              -7.80    -8000.00
02272              -9.20    -8000.00
02273             -10.60    -8000.00
02274              -9.80    -7800.00
02275              -9.20    -8000.00
02276             -10.00    -8000.00
02277             -10.20    -8000.00
02278             -10.40    -8000.00
02279             -10.00    -7800.00
02280             -11.40    -8000.00
02281             -11.60    -8000.00
02282             -10.20    -8000.00
02283             -11.40    -8000.00
02284             -12.60    -8000.00
02285             -11.00    -8000.00
02286             -11.60    -8000.00
02287             -13.40    -8000.00
02288             -12.40    -8000.00
02289             -12.20    -8000.00
02290             -13.20    -8000.00
02291             -13.20    -8000.00
02292             -12.60    -8000.00
02293             -13.40    -8000.00
02294             -14.00    -8000.00
02295             -13.40    -8200.00
02296             -14.60    -8000.00
02297             -14.80    -8200.00
02298             -14.00    -8000.00
02299             -14.60    -8200.00
02300             -14.80    -8000.00
02301             -14.80    -8200.00
02302             -15.00    -8200.00
02303             -15.40    -8000.00
02304             -15.40    -8000.00
02305             -15.00    -8200.00
02306             -14.80    -8000.00
02307             -14.80    -8000.00
02308             -14.60    -8200.00
02309             -14.60    -8200.00
02310             -14.60    -8000.00
02311             -14.00    -8200.00
02312             -13.40    -8000.00
02313             -13.00    -8000.00
02314             -13.40    -8000.00
02315             -12.40    -8000.00
02316             -12.40    -8000.00
02317             -12.40    -8000.00
02318             -11.80    -8000.00
02319             -11.40    -8000.00
02320             -11.40    -8000.00
02321             -11.40    -8000.00
02322             -10.80    -8000.00
02323             -11.00    -8000.00
02324             -10.80    -8000.00
02325             -10.80    -8000.00
02326             -10.00    -8000.00
02327              -9.80    -8000.00
02328              -9.80    -8000.00
02329              -9.40    -7800.00
02330              -9.20    -8000.00
02331              -9.40    -7800.00
02332             -10.00    -7800.00
02333              -8.00    -8000.00
02334              -8.60    -7800.00
02335              -9.20    -8000.00
02336              -8.40    -7800.00
02337              -7.60    -7600.00
02338              -9.80    -7800.00
02339              -8.60    -7800.00
02340              -6.80    -7600.00
02341              -8.00    -7600.00
02342              -7.60    -7600.00
02343              -6.80    -7400.00
02344              -7.00    -7600.00
02345              -8.60    -7400.00
02346              -7.80    -7600.00
02347              -5.40    -7600.00
02348              -6.60    -7400.00
02349              -8.60    -7400.00
02350              -6.80    -7400.00
02351              -4.80    -7400.00
02352              -7.00    -7400.00
02353              -7.00    -7200.00
02354              -5.80    -7200.00
02355              -5.80    -7200.00
02356              -6.60    -7200.00
02357              -6.20    -7200.00
02358              -5.00    -7200.00
02359              -5.40    -7200.00
02360              -6.20    -7200.00
02361              -5.20    -7200.00
02362              -4.80    -7200.00
02363              -6.20    -7000.00
02364              -5.40    -6800.00
02365              -4.40    -6800.00
02366              -5.40    -7000.00
02367              -5.80    -6800.00
02368              -4.60    -6800.00
02369              -5.00    -6600.00
02370              -4.80    -6800.00
02371              -3.80    -6600.00
02372              -4.60    -6600.00
02373              -5.00    -6600.00
02374              -4.20    -6800.00
02375              -4.60    -6600.00
02376              -5.00    -6600.00
02377              -3.80    -6600.00
02378              -3.80    -6400.00
02379              -4.60    -6400.00
02380              -4.40    -6400.00
02381              -4.00    -6400.00
02382              -4.40    -6400.00
02383              -4.20    -6400.00
02384              -3.80    -6200.00
02385              -4.20    -6200.00
02386              -3.40    -6200.00
02387              -3.40    -6000.00
02388              -4.40    -6000.00
02389              -3.80    -6000.00
02390              -3.40    -6000.00
02391              -3.60    -5800.00
02392              -3.80    -5800.00
02393              -3.20    -5800.00
02394              -3.40    -5800.00
02395              -3.80    -5600.00
02396              -2.80    -5800.00
02397              -3.40    -5600.00
02398              -3.60    -5600.00
02399              -3.00    -5600.00
02400              -3.00    -5400.00
02401              -3.40    -5400.00
02402              -3.20    -5400.00
02403              -2.60    -5200.00
02404              -2.80    -5200.00
02405              -3.40    -5200.00
02406              -2.80    -5200.00
02407              -2.60    -5000.00
02408              -3.60    -5000.00
02409              -2.40    -4800.00
02410              -1.80    -5000.00
02411              -3.00    -4600.00
02412              -2.80    -4800.00
02413              -2.00    -4600.00
02414              -2.80    -4600.00
02415              -3.00    -4600.00
02416              -1.80    -4600.00
02417              -2.20    -4400.00
02418              -3.00    -4400.00
02419              -2.20    -4400.00
02420              -1.40    -4200.00
02421              -2.60    -4200.00
02422              -2.40    -4200.00
02423              -1.40    -4200.00
02424              -2.00    -4200.00
02425              -2.60    -4200.00
02426              -1.80    -4000.00
02427              -1.80    -4000.00
02428              -2.20    -4000.00
02429              -2.00    -3800.00
02430              -1.20    -3800.00
02431              -2.00    -3600.00
02432              -1.80    -3600.00
02433              -1.40    -3600.00
02434              -1.80    -3400.00
02435              -1.80    -3600.00
02436              -1.60    -3400.00
02437              -1.80    -3400.00
02438              -1.20    -3400.00
02439              -2.00    -3200.00
02440              -1.40    -3200.00
02441              -0.60    -3200.00
02442              -2.00    -3000.00
02443              -1.80    -3000.00
02444              -1.00    -2800.00
02445              -2.00    -2800.00
02446              -1.40    -2800.00
02447              -1.00    -2600.00
02448              -2.00    -2600.00
02449              -1.40    -2600.00
02450              -0.60    -2600.00
02451              -1.20    -2600.00
02452              -1.40    -2600.00
02453              -1.20    -2400.00
02454              -1.00    -2400.00
02455              -1.00    -2200.00
02456              -1.60    -2200.00
02457              -1.20    -2200.00
02458              -1.20    -2000.00
02459              -1.20    -2000.00
02460              -1.40    -2000.00
02461              -1.00    -1800.00
02462              -0.60    -1800.00
02463              -1.20    -1600.00
02464              -1.40    -1800.00
02465              -0.60    -1600.00
02466              -0.60    -1600.00
02467              -1.20    -1600.00
02468              -1.00    -1400.00
02469              -0.60    -1200.00
02470              -0.80    -1200.00
02471              -1.20    -1200.00
02472              -1.00    -1000.00
02473              -0.60    -1200.00
02474              -1.00    -1000.00
02475              -1.20    -1000.00
02476              -0.60     -800.00
02477              -0.20     -800.00
02478              -0.60     -800.00
02479              -1.00     -600.00
02480               0.20     -600.00
02481               0.00     -400.00
02482              -0.80     -400.00
02483              -0.40     -400.00
02484              -0.40     -400.00
02485              -0.60     -200.00
02486              -0.60     -200.00
02487              -0.20     -200.00
02488              -0.40        0.00
02489              -0.80        0.00
02490               0.20        0.00
02491               1.00      200.00
02492               0.60      200.00
02493              -0.60        0.00
02494              -0.20      400.00
02495               0.60      400.00
02496              -0.20      400.00
02497              -0.60      400.00
02498               3.40      800.00
02499              13.20      800.00
02500               2.00      800.00
02501             -25.00     1000.00
02502             -22.00      600.00
02503              22.00      800.00
02504              25.00     1400.00
02505             -25.00      800.00
02506             -25.00     1200.00
02507              25.00     1200.00
02508              25.00     1800.00
02509             -25.00     1200.00
02510               1.80     1400.00
02511              25.00     1800.00
02512             -25.00     1200.00
02513             -25.00     2000.00
02514              25.00     1600.00
02515              25.00     1800.00
02516             -25.00     1800.00
02517              25.00     2000.00
02518              25.00     2000.00
02519             -25.00     2000.00
02520             -16.60     2200.00
02521              25.00     2000.00
02522              -7.20     2400.00
02523             -25.00     2400.00
02524              25.00     2200.00
02525              25.00     2400.00
02526             -25.00     2600.00
02527             -25.00     2400.00
02528              25.00     2800.00
02529              13.60     2800.00
02530             -25.00     2800.00
02531              25.00     2800.00
02532              25.00     2800.00
02533             -25.00     3000.00
02534               4.40     3000.00
02535              25.00     3000.00
02536             -25.00     3200.00
02537             -24.40     3200.00
02538              25.00     3200.00
02539              -4.00     3400.00
02540             -25.00     3200.00
02541              25.00     3400.00
02542              18.20     3600.00
02543             -25.00     3600.00
02544               4.60     3600.00
02545              21.80     3800.00
02546             -14.20     3800.00
02547              -6.00     3800.00
02548              16.20     3800.00
02549               0.20     4000.00
02550             -10.00     4000.00
02551               7.60     4000.00
02552               9.00     4000.00
02553              -6.00     4200.00
02554              -2.80     4200.00
02555              11.60     4400.00
02556               0.40     4400.00
02557              -7.00     4400.00
02558               7.60     4600.00
02559               6.80     4400.00
02560              -6.40     4600.00
02561               2.20     4800.00
02562               9.60     4600.00
02563              -3.40     4800.00
02564              -1.60     4800.00
02565               9.00     4800.00
02566               1.00     5000.00
02567              -3.60     5000.00
02568               6.60     5200.00
02569               4.20     5200.00
02570              -2.20     5200.00
02571               2.60     5200.00
02572               6.20     5400.00
02573               0.20     5200.00
02574               1.20     5400.00
02575               4.60     5400.00
02576               2.60     5400.00
02577               0.20     5600.00
02578               3.40     5600.00
02579               3.80     5600.00
02580               1.20     5800.00
02581               2.00     5600.00
02582               4.40     5800.00
02583               2.40     5800.00
02584               1.20     6000.00
02585               4.00     6000.00
02586               3.80     6000.00
02587               1.80     6000.00
02588               3.00     6000.00
02589               4.40     6000.00
02590               2.20     6000.00
02591               2.80     6200.00
02592               3.80     6200.00
02593               3.40     6400.00
02594               3.40     6400.00
02595               3.60     6400.00
02596               3.40     6400.00
02597               3.60     6400.00
02598               3.00     6400.00
02599               3.80     6600.00
02600               4.20     6800.00
02601               3.60     6600.00
02602               3.80     6600.00
02603               4.60     6800.00
02604               3.60     6800.00
02605               3.80     6600.00
02606               4.60     6800.00
02607               4.40     6800.00
02608               4.20     6800.00
02609               5.20     6800.00
02610               5.20     6800.00
02611               4.40     7000.00
02612               5.00     7000.00
02613               5.20     7000.00
02614               4.60     7000.00
02615               5.40     7000.00
02616               5.80     7200.00
02617               4.80     7200.00
02618               5.80     7000.00
02619               6.20     7200.00
02620               5.40     7200.00
02621               5.40     7200.00
02622               6.60     7400.00
02623               6.20     7200.00
02624               5.80     7600.00
02625               6.20     7400.00
02626               6.80     7600.00
02627               6.20     7600.00
02628               6.60     7600.00
02629               7.40     7400.00
02630               6.80     7600.00
02631               6.80     7600.00
02632               7.80     7800.00
02633               7.60     7600.00
02634               7.00     7600.00
02635               7.60     7600.00
02636               8.20     7600.00
02637               7.60     7800.00
02638               8.00     7600.00
02639               8.40     7800.00
02640               8.40     7800.00
02641               8.20     7800.00
02642               9.00     7800.00
02643               9.20     7600.00
02644               8.40     7800.00
02645              10.00     7800.00
02646               9.00     8000.00
02647               9.00     7800.00
02648               9.80     7800.00
02649              10.80     8000.00
02650               9.80     8000.00
02651              10.00     7800.00
02652              10.60     8000.00
02653              11.60     8200.00
02654              10.40     8000.00
02655              10.60     8000.00
02656              12.20     8200.00
02657              11.60     8000.00
02658              10.80     8200.00
02659              12.20     8000.00
02660              13.00     8200.00
02661              12.20     8000.00
02662              12.60     8000.00
02663              13.20     8200.00
02664              13.00     8200.00
02665              13.00     8200.00
02666              13.80     8000.00
02667              13.80     8200.00
02668              14.00     8000.00
02669              14.20     8200.00
02670              14.20     8200.00
02671              14.40     8000.00
02672              14.40     8000.00
02673              14.80     8200.00
02674              15.00     8000.00
02675              14.60     8200.00
02676              14.60     8000.00
02677              14.80     8000.00
02678              14.40     8200.00
02679              14.00     8000.00
02680              14.20     8200.00
02681              13.80     8200.00
02682              13.20     8000.00
02683              13.00     8200.00
02684              12.60     8000.00
02685              12.60     8200.00
02686              12.20     8000.00
02687              11.60     8200.00
02688              11.60     8000.00
02689              11.20     7800.00
02690              11.00     8200.00
02691              10.80     8000.00
02692              10.80     8000.00
02693              10.60     8000.00
02694              10.20     8200.00
02695              10.00     7800.00
02696               9.60     7800.00
02697               9.80     8000.00
02698               9.20     8000.00
02699               9.40     7800.00
02700               9.00     7800.00
02701               8.60     7800.00
02702               8.60     7800.00
02703               8.40     7800.00
02704               8.20     7800.00
02705               8.20     7600.00
02706               8.20     7800.00
02707               8.20     7800.00
02708               7.60     7800.00
02709               7.40     7800.00
02710               7.60     7600.00
02711               7.00     7800.00
02712               6.80     7600.00
02713               7.20     7600.00
02714               6.80     7600.00
02715               6.60     7600.00
02716               6.60     7400.00
02717               6.60     7400.00
02718               6.20     7400.00
02719               6.00     7400.00
02720               6.20     7400.00
02721               5.80     7600.00
02722               5.80     7400.00
02723               6.00     7200.00
02724               5.80     7400.00
02725               5.40     7200.00
02726               5.40     7000.00
02727               5.80     7200.00
02728               5.40     7000.00
02729               4.60     7200.00
02730               5.00     7200.00
02731               5.20     7000.00
02732               5.00     7000.00
02733               4.20     7000.00
02734               5.00     7200.00
02735               5.20     6800.00
02736               4.20     7000.00
02737               4.40     6800.00
02738               5.20     6800.00
02739               4.60     6800.00
02740               3.60     6800.00
02741               4.60     6800.00
02742               4.60     6600.00
02743               3.80     6800.00
02744               3.80     6600.00
02745               4.40     6600.00
02746               4.20     6600.00
02747               2.80     6600.00
02748               4.40     6400.00
02749               4.40     6400.00
02750               3.00     6400.00
02751               2.80     6400.00
02752               4.20     6400.00
02753               4.20     6200.00
02754               1.80     6200.00
02755               3.60     6200.00
02756               5.20     6200.00
02757               2.20     6200.00
02758               2.60     6000.00
02759               5.20     6000.00
02760               3.00     6000.00
02761               1.40     6000.00
02762               4.00     6000.00
02763               3.00     6000.00
02764               1.60     5800.00
02765               3.40     5800.00
02766               3.80     5600.00
02767               2.20     5600.00
02768               3.00     5600.00
02769               2.80     5400.00
02770               2.00     5400.00
02771               2.00     5400.00
02772               2.40     5400.00
02773               2.60     5200.00
02774               2.60     5200.00
02775               2.20     5400.00
02776               2.20     5200.00
02777               2.60     5200.00
02778               1.60     5000.00
02779               1.40     5000.00
02780               2.20     4800.00
02781               2.00     4800.00
02782               2.00     4800.00
02783               2.00     4600.00
02784               1.80     4800.00
02785               2.00     4800.00
02786               1.80     4600.00
02787               1.80     4400.00
02788               1.80     4400.00
02789               2.00     4400.00
02790               1.80     4400.00
02791               2.00     4400.00
02792               1.80     4200.00
02793               1.20     4200.00
02794               1.20     4000.00
02795               1.20     4000.00
02796               1.00     4000.00
02797               1.40     4000.00
02798               1.80     4000.00
02799               1.40     3800.00
02800               1.40     4000.00
02801               1.40     3800.00
02802               1.00     3600.00
02803               1.00     3600.00
02804               1.40     3600.00
02805               1.00     3600.00
02806               1.00     3600.00
02807               1.80     3200.00
02808               1.00     3200.00
02809               0.60     3400.00
02810               1.40     3200.00
02811               1.00     3000.00
02812               0.60     3000.00
02813               1.40     3200.00
02814               1.00     2800.00
02815               1.20     2800.00
02816               1.00     2800.00
02817               0.40     2800.00
02818               1.00     2600.00
02819               1.20     2800.00
02820               0.60     2600.00
02821               0.20     2400.00
02822               1.20     2400.00
02823               0.60     2400.00
02824               0.40     2400.00
02825               0.60     2200.00
02826               1.00     2200.00
02827               0.20     2200.00
02828               0.20     2000.00
02829               1.00     2000.00
02830               0.40     2000.00
02831               0.20     2000.00
02832               1.20     1800.00
02833               0.60     1800.00
02834               0.20     1800.00
02835               0.60     1600.00
02836               0.40     1400.00
02837               0.20     1400.00
02838              -0.20     1400.00
02839               0.20     1400.00
02840               0.40     1200.00
02841              -0.40     1200.00
02842               0.00     1200.00
02843               0.40     1200.00
02844              -0.60      800.00
02845              -0.20      800.00
02846               0.40      800.00
02847              -0.40      800.00
02848              -0.20      800.00
02849               0.20      600.00
02850              -0.60      600.00
02851              -0.40      400.00
02852               0.00      400.00
02853              -0.60      400.00
02854              -0.40        0.00
02855              -0.20      200.00
02856              -0.60      200.00
02857              -0.20        0.00
02858              -0.20        0.00
02859              -1.20        0.00
02860              -0.40        0.00
02861               0.40     -200.00
02862              -0.40     -200.00
02863               0.20     -200.00
02864              -0.20     -400.00
02865              -1.00     -400.00
02866              -0.20     -400.00
02867               0.20     -400.00
02868               0.60     -400.00
02869              17.00     -800.00
02870              12.20    -1000.00
02871             -25.00    -1000.00
02872             -25.00    -1000.00
02873              25.00     -600.00
02874              25.00    -1000.00
02875             -25.00    -1600.00
02876             -25.00     -600.00
02877              25.00    -1600.00
02878              25.00    -1400.00
02879             -25.00    -1600.00
02880             -25.00    -1400.00
02881              25.00    -1600.00
02882              25.00    -1800.00
02883             -25.00    -1000.00
02884              25.00    -2000.00
02885              25.00    -1800.00
02886             -25.00    -1600.00
02887             -25.00    -2000.00
02888              25.00    -2000.00
02889             -25.00    -1800.00
02890             -25.00    -2000.00
02891              25.00    -2600.00
02892              25.00    -2000.00
02893             -25.00    -2200.00
02894               6.20    -2600.00
02895              25.00    -2400.00
02896             -25.00    -2400.00
02897             -25.00    -2600.00
02898              25.00    -2800.00
02899              25.00    -2600.00
02900             -25.00    -2800.00
02901              21.20    -3200.00
02902              25.00    -2800.00
02903             -25.00    -3000.00
02904             -25.00    -3200.00
02905              25.00    -3000.00
02906             -25.00    -3200.00
02907             -25.00    -3200.00
02908              25.00    -3400.00
02909              20.40    -3200.00
02910             -25.00    -3200.00
02911              11.80    -3400.00
02912              25.00    -3600.00
02913             -25.00    -3600.00
02914             -18.80    -3600.00
02915              25.00    -3800.00
02916              -7.80    -3600.00
02917             -25.00    -4000.00
02918              15.00    -3800.00
02919              10.60    -4000.00
02920             -20.40    -4000.00
02921              -4.60    -4000.00
02922              15.80    -4200.00
02923              -7.00    -4200.00
02924             -16.40    -4200.00
02925               9.80    -4200.00
02926               4.60    -4400.00
02927             -17.40    -4400.00
02928               0.40    -4400.00
02929              10.80    -4600.00
02930             -12.20    -4600.00
02931              -9.00    -4600.00
02932              10.80    -4800.00
02933              -5.40    -4600.00
02934             -12.60    -4600.00
02935               7.60    -4800.00
02936               0.60    -5000.00
02937             -13.00    -5000.00
02938               0.60    -5000.00
02939               4.40    -5000.00
02940             -10.00    -5200.00
02941              -5.40    -5200.00
02942               5.00    -5200.00
02943              -4.40    -5400.00
02944              -7.80    -5200.00
02945               1.80    -5400.00
02946              -1.20    -5200.00
02947              -8.40    -5600.00
02948              -2.20    -5600.00
02949               1.40    -5600.00
02950              -5.40    -5800.00
02951              -5.40    -5800.00
02952               0.20    -5800.00
02953              -2.80    -5600.00
02954              -6.60    -5800.00
02955              -2.60    -5800.00
02956              -1.40    -6000.00
02957              -5.20    -6000.00
02958              -4.20    -6000.00
02959              -1.80    -6000.00
02960              -4.20    -6200.00
02961              -5.20    -6200.00
02962              -2.80    -6200.00
02963              -3.40    -6200.00
02964              -4.60    -6400.00
02965              -3.00    -6400.00
02966              -3.80    -6400.00
02967              -5.00    -6400.00
02968              -3.80    -6600.00
02969              -3.60    -6600.00
02970              -5.40    -6400.00
02971              -4.80    -6600.00
02972              -3.40    -6600.00
02973              -4.60    -6600.00
02974              -5.20    -6800.00
02975              -4.40    -6800.00
02976              -4.60    -6600.00
02977              -5.20    -6800.00
02978              -5.20    -6800.00
02979              -4.40    -6800.00
02980              -5.20    -6800.00
02981              -6.00    -7000.00
02982              -5.20    -6800.00
02983              -4.60    -7000.00
02984              -6.80    -7200.00
02985              -6.00    -7200.00
02986              -4.60    -7200.00
02987              -6.20    -7200.00
02988              -6.60    -7200.00
02989              -5.00    -7200.00
02990              -5.80    -7200.00
02991              -7.40    -7400.00
02992              -5.80    -7400.00
02993              -5.80    -7200.00
02994              -7.40    -7400.00
02995              -7.00    -7400.00
02996              -6.20    -7400.00
02997              -7.60    -7400.00
02998              -7.60    -7400.00
02999              -6.20    -7600.00
03000              -7.40    -7400.00
03001              -7.60    -7600.00
03002              -7.00    -7400.00
03003              -7.00    -7600.00
03004              -8.20    -7600.00
03005              -8.20    -7800.00
03006              -7.00    -7600.00
03007              -8.40    -7600.00
03008              -9.00    -7600.00
03009              -7.40    -7600.00
03010              -9.00    -8000.00
03011              -9.20    -7600.00
03012              -9.20    -7800.00
03013              -8.40    -8000.00
03014              -9.60    -7800.00
03015              -9.40    -8000.00
03016              -9.40    -8000.00
03017             -10.20    -8000.00
03018              -9.20    -8000.00
03019             -10.00    -8000.00
03020             -11.20    -8000.00
03021             -10.20    -7800.00
03022             -11.00    -8000.00
03023             -11.00    -8000.00
03024             -11.00    -8000.00
03025             -11.60    -8000.00
03026             -11.60    -8000.00
03027             -11.00    -8000.00
03028             -12.60    -8000.00
03029             -12.40    -8000.00
03030             -11.60    -8000.00
03031             -13.40    -8000.00
03032             -12.60    -8200.00
03033             -13.00    -8000.00
03034             -14.00    -8000.00
03035             -13.40    -8200.00
03036             -13.60    -8000.00
03037             -14.40    -8200.00
03038             -14.20    -8000.00
03039             -14.60    -8200.00
03040             -14.80    -8000.00
03041             -15.00    -8000.00
03042             -15.00    -8200.00
03043             -14.80    -8200.00
03044             -15.00    -8000.00
03045             -15.40    -8200.00
03046             -15.60    -8000.00
03047             -15.00    -8200.00
03048             -15.40    -8000.00
03049             -15.40    -8000.00
03050             -14.80    -8200.00
03051             -14.60    -8200.00
03052             -14.60    -8000.00
03053             -14.20    -8000.00
03054             -13.60    -8000.00
03055             -13.20    -8200.00
03056             -13.40    -8000.00
03057             -12.40    -8000.00
03058             -12.20    -8000.00
03059             -12.20    -8000.00
03060             -11.80    -8000.00
03061             -11.80    -8000.00
03062             -11.40    -8000.00
03063             -10.80    -8000.00
03064             -10.80    -8000.00
03065             -10.80    -8000.00
03066             -10.20    -8000.00
03067             -10.60    -8000.00
03068             -10.20    -8000.00
03069              -9.40    -8000.00
03070              -9.60    -8000.00
03071              -9.40    -8000.00
03072              -9.20    -7800.00
03073              -9.00    -7800.00
03074              -9.00    -7800.00
03075              -9.00    -7600.00
03076              -8.40    -8000.00
03077              -8.20    -7600.00
03078              -8.40    -7600.00
03079              -8.20    -7600.00
03080              -8.00    -7600.00
03081              -8.20    -7600.00
03082              -7.60    -7600.00
03083              -7.60    -7600.00
03084              -7.60    -7600.00
03085              -7.00    -7600.00
03086              -7.40    -7400.00
03087              -7.40    -7400.00
03088              -6.60    -7400.00
03089              -7.00    -7600.00
03090              -7.00    -7400.00
03091              -6.80    -7400.00
03092              -6.20    -7400.00
03093              -6.60    -7200.00
03094              -6.60    -7400.00
03095              -5.80    -7200.00
03096              -6.20    -7400.00
03097              -6.40    -7400.00
03098              -5.80    -7200.00
03099              -6.20    -7200.00
03100              -5.60    -7200.00
03101              -5.40    -7200.00
03102              -6.20    -7200.00
03103              -5.00    -7200.00
03104              -5.40    -7000.00
03105              -6.80    -7200.00
03106              -5.00    -7200.00
03107              -4.60    -6800.00
03108              -6.40    -7000.00
03109              -5.00    -6800.00
03110              -3.60    -6800.00
03111              -5.40    -6800.00
03112              -5.20    -6800.00
03113              -3.80    -6600.00
03114              -5.40    -6800.00
03115              -5.40    -6600.00
03116              -3.40    -6600.00
03117              -3.80    -6600.00
03118              -4.60    -6600.00
03119              -4.60    -6400.00
03120              -4.80    -6400.00
03121              -4.60    -6400.00
03122              -3.80    -6400.00
03123              -3.60    -6400.00
03124              -4.20    -6400.00
03125              -3.80    -6200.00
03126              -3.40    -6000.00
03127              -3.80    -6000.00
03128              -4.20    -6000.00
03129              -3.60    -6000.00
03130              -3.40    -6000.00
03131              -3.60    -6000.00
03132              -3.20    -5800.00
03133              -3.60    -6000.00
03134              -4.20    -6000.00
03135              -3.80    -5800.00
03136              -2.20    -5800.00
03137              -2.80    -5800.00
03138              -3.60    -5600.00
03139              -3.20    -5600.00
03140              -3.00    -5400.00
03141              -3.00    -5600.00
03142              -2.80    -5400.00
03143              -3.60    -5400.00
03144              -2.80    -5200.00
03145              -1.80    -5400.00
03146              -3.80    -5200.00
03147              -2.80    -5200.00
03148              -2.00    -5200.00
03149              -2.80    -5000.00
03150              -3.00    -5000.00
03151              -2.00    -5000.00
03152              -2.00    -4800.00
03153              -2.80    -4800.00
03154              -2.20    -4600.00
03155              -2.40    -4800.00
03156              -1.80    -4600.00
03157              -2.20    -4400.00
03158              -2.60    -4400.00
03159              -2.00    -4600.00
03160              -2.00    -4400.00
03161              -2.80    -4400.00
03162              -2.20    -4400.00
03163              -1.80    -4400.00
03164              -2.80    -4400.00
03165              -2.60    -4200.00
03166              -1.40    -4200.00
03167              -1.40    -4000.00
03168              -2.80    -4000.00
03169              -2.00    -4000.00
03170              -1.00    -4000.00
03171              -2.60    -4000.00
03172              -2.60    -4000.00
03173              -1.20    -3800.00
03174              -1.40    -3600.00
03175              -2.80    -3600.00
03176              -1.80    -3600.00
03177              -1.20    -3600.00
03178              -2.40    -3400.00
03179              -1.80    -3400.00
03180              -1.20    -3400.00
03181              -1.80    -3200.00
03182              -1.80    -3400.00
03183              -1.20    -3200.00
03184              -2.00    -3200.00
03185              -1.80    -3000.00
03186              -1.20    -3000.00
03187              -2.20    -2800.00
03188              -1.80    -2800.00
03189              -1.00    -2800.00
03190              -1.20    -2600.00
03191              -1.40    -2600.00
03192              -1.00    -2600.00
03193              -0.80    -2400.00
03194              -1.20    -2400.00
03195              -1.80    -2600.00
03196              -1.20    -2400.00
03197              -1.40    -2200.00
03198              -1.80    -2200.00
03199              -0.60    -2000.00
03200              -1.20    -2000.00
03201              -1.40    -2000.00
03202              -0.40    -2000.00
03203              -0.60    -1800.00
03204              -2.00    -1800.00
03205              -0.60    -1800.00
03206               0.20    -1600.00
03207              -1.40    -1600.00
03208              -1.40    -1600.00
03209               0.20    -1600.00
03210              -0.80    -1200.00
03211              -1.80    -1400.00
03212              -0.40    -1200.00
03213              -0.60    -1200.00
03214              -1.00    -1000.00
03215              -0.60    -1000.00
03216              -0.40     -800.00
03217              -0.60     -800.00
03218              -0.40     -800.00
03219               0.20     -800.00
03220              -1.00     -800.00
03221              -1.20     -600.00
03222               0.20     -400.00
03223              -0.20     -400.00
03224              -1.20     -400.00
03225              -0.20     -400.00
03226               0.20     -400.00
03227              -0.60     -400.00
03228              -0.60     -200.00
03229               0.20     -200.00
03230              -0.80     -200.00
03231              -1.00        0.00
03232               0.80        0.00
03233               0.40      200.00
03234              -0.40        0.00
03235               0.20      400.00
03236               0.40      400.00
03237              -1.00      400.00
03238               0.20      600.00
03239               1.20      400.00
03240               4.00      600.00
03241              14.20      800.00
03242              -8.60     1000.00
03243             -25.00      800.00
03244             -12.00      800.00
03245              25.00      800.00
03246              25.00     1400.00
03247             -25.00     1000.00
03248             -21.40     1000.00
03249              25.00     1600.00
03250               1.80     1000.00
03251             -25.00     1600.00
03252              25.00     1400.00
03253              25.00     1800.00
03254             -25.00     1400.00
03255              -5.40     2000.00
03256              25.00     1800.00
03257             -25.00     1800.00
03258             -25.00     2000.00
03259              25.00     2000.00
03260              18.00     2000.00
03261             -25.00     2400.00
03262              25.00     2000.00
03263              25.00     2000.00
03264             -25.00     2400.00
03265             -25.00     2400.00
03266              25.00     2400.00
03267              25.00     2400.00
03268             -25.00     2600.00
03269              -2.80     2400.00
03270              25.00     2800.00
03271             -25.00     2800.00
03272             -25.00     2800.00
03273              25.00     2800.00
03274               2.60     3000.00
03275             -25.00     3000.00
03276              25.00     3200.00
03277              25.00     3000.00
03278             -25.00     3200.00
03279              10.00     3200.00
03280              25.00     3400.00
03281             -25.00     3200.00
03282             -17.80     3600.00
03283              25.00     3400.00
03284              -2.20     3600.00
03285             -24.60     3600.00
03286              19.40     3600.00
03287              11.60     3800.00
03288             -19.00     3800.00
03289               5.00     3800.00
03290              14.40     3800.00
03291              -7.00     4000.00
03292              -5.80     4000.00
03293              12.40     4000.00
03294               3.60     4000.00
03295              -8.60     4000.00
03296               3.00     4200.00
03297              10.80     4400.00
03298              -5.20     4400.00
03299              -3.00     4400.00
03300              10.80     4600.00
03301               1.80     4600.00
03302              -7.40     4600.00
03303               7.00     4600.00
03304               6.40     4600.00
03305              -6.00     4600.00
03306               2.60     4800.00
03307               9.40     5000.00
03308              -2.60     5000.00
03309              -1.40     5200.00
03310               8.20     5200.00
03311               1.40     5200.00
03312              -2.60     5200.00
03313               5.20     5400.00
03314               4.00     5400.00
03315              -0.40     5400.00
03316               2.60     5400.00
03317               3.00     5400.00
03318               2.00     5600.00
03319               1.20     5600.00
03320               4.80     5600.00
03321               3.60     5600.00
03322               1.00     5800.00
03323               2.00     5800.00
03324               4.20     5800.00
03325               2.60     5800.00
03326               1.60     6000.00
03327               4.20     6000.00
03328               3.80     6000.00
03329               2.40     6000.00
03330               3.80     6200.00
03331               2.60     6200.00
03332               2.80     6200.00
03333               3.40     6200.00
03334               3.60     6400.00
03335               4.60     6200.00
03336               2.60     6400.00
03337               3.00     6400.00
03338               4.40     6400.00
03339               4.20     6400.00
03340               4.20     6600.00
03341               3.80     6400.00
03342               3.60     6600.00
03343               4.60     6600.00
03344               4.40     6600.00
03345               3.60     6800.00
03346               4.40     6600.00
03347               4.80     6800.00
03348               3.40     6800.00
03349               4.60     6800.00
03350               5.80     6800.00
03351               4.20     7000.00
03352               4.60     7000.00
03353               6.00     7000.00
03354               4.40     7000.00
03355               4.20     7200.00
03356               5.80     7200.00
03357               6.00     7200.00
03358               4.60     7200.00
03359               5.20     7000.00
03360               5.80     7200.00
03361               5.20     7200.00
03362               5.40     7200.00
03363               6.00     7200.00
03364               6.20     7400.00
03365               6.00     7200.00
03366               6.00     7400.00
03367               6.20     7600.00
03368               6.00     7400.00
03369               5.80     7600.00
03370               7.00     7600.00
03371               7.20     7400.00
03372               6.80     7600.00
03373               7.60     7600.00
03374               7.00     7600.00
03375               5.80     7600.00
03376               7.80     7600.00
03377               8.60     7600.00
03378               7.00     7600.00
03379               7.40     7800.00
03380               9.00     7800.00
03381               8.00     7800.00
03382               7.20     7800.00
03383               8.40     7800.00
03384               9.40     7800.00
03385               8.20     7800.00
03386               9.00     7800.00
03387              10.60     7800.00
03388               9.20     7800.00
03389               8.20     7800.00
03390              10.60     7800.00
03391              11.00     8000.00
03392               9.00     7800.00
03393              10.80     8200.00
03394              11.60     8000.00
03395              10.40     8000.00
03396              10.20     8000.00
03397              11.80     8000.00
03398              11.80     8200.00
03399              11.40     8000.00
03400              12.20     8000.00
03401              13.20     8200.00
03402              12.20     8200.00
03403              12.20     8200.00
03404              13.20     8200.00
03405              13.20     8200.00
03406              12.60     8000.00
03407              13.80     8200.00
03408              14.20     8000.00
03409              13.60     8200.00
03410              14.00     8000.00
03411              14.60     8200.00
03412              14.40     8200.00
03413              14.60     8000.00
03414              14.20     8200.00
03415              15.20     8200.00
03416              15.00     8200.00
03417              14.80     8000.00
03418              15.00     8200.00
03419              14.60     8200.00
03420              14.20     8200.00
03421              14.00     8000.00
03422              13.80     8200.00
03423              13.40     8000.00
03424              13.20     8000.00
03425              13.00     8200.00
03426              12.60     8000.00
03427              11.80     8000.00
03428              12.20     8200.00
03429              11.60     7800.00
03430              11.60     7800.00
03431              11.20     8000.00
03432              11.00     7800.00
03433              10.60     8200.00
03434              10.20     8000.00
03435              10.00     8000.00
03436               9.80     8000.00
03437               9.80     8000.00
03438               9.80     7800.00
03439               9.00     7800.00
03440               9.40     7800.00
03441               8.60     7800.00
03442               9.00     7800.00
03443               8.60     7800.00
03444               7.80     8200.00
03445               8.40     7800.00
03446               8.20     7800.00
03447               7.80     7800.00
03448               7.80     8000.00
03449               8.20     7800.00
03450               7.60     7600.00
03451               7.60     7800.00
03452               7.40     7800.00
03453               7.60     7600.00
03454               7.20     7600.00
03455               6.60     7600.00
03456               7.20     7600.00
03457               6.80     7600.00
03458               5.80     7600.00
03459               6.80     7600.00
03460               6.80     7600.00
03461               6.00     7400.00
03462               6.60     7600.00
03463               6.00     7600.00
03464               5.80     7200.00
03465               6.40     7200.00
03466               5.00     7200.00
03467               5.60     7200.00
03468               6.80     7200.00
03469               4.40     7200.00
03470               5.00     7200.00
03471               6.80     7200.00
03472               4.40     7000.00
03473               4.80     7000.00
03474               6.00     7000.00
03475               4.80     7000.00
03476               4.60     7000.00
03477               5.20     7000.00
03478               4.60     6800.00
03479               5.00     6800.00
03480               5.00     6800.00
03481               4.40     6800.00
03482               4.60     6600.00
03483               4.60     6800.00
03484               4.20     6800.00
03485               5.40     6600.00
03486               5.00     6400.00
03487              -3.00     6400.00
03488              12.20     6400.00
03489              -4.20     6600.00
03490               2.20     6400.00
03491              10.00     6600.00
03492               1.80     6400.00
03493              10.20     6400.00
03494              -1.20     6400.00
03495               5.40     6200.00
03496               2.60     6200.00
03497               1.20     6000.00
03498               0.60     6200.00
03499               2.20     6000.00
03500               5.40     6000.00
03501               7.60     6000.00
03502               1.00     6000.00
03503               3.60     6000.00
03504               5.80     5800.00
03505              -3.20     6000.00
03506               5.40     5600.00
03507              -2.20     5600.00
03508               5.60     5600.00
03509               5.80     5600.00
03510              -0.20     5600.00
03511               4.60     5600.00
03512               4.60     5400.00
03513              -1.00     5400.00
03514               2.00     5200.00
03515               2.60     5400.00
03516               2.40     5400.00
03517               2.00     5200.00
03518               1.40     5200.00
03519               2.80     5000.00
03520               4.00     5000.00
03521               2.00     4800.00
03522               1.20     4800.00
03523               2.80     4800.00
03524               1.40     4800.00
03525               2.00     4800.00
03526               1.00     4600.00
03527               2.00     4600.00
03528               2.00     4600.00
03529               2.20     4600.00
03530               2.60     4400.00
03531               2.00     4400.00
03532               2.00     4400.00
03533              -0.40     4400.00
03534               2.00     4400.00
03535               2.20     4400.00
03536              -0.40     4000.00
03537               2.20     4000.00
03538               2.60     4000.00
03539               1.80     4000.00
03540               1.40     3800.00
03541               2.20     4000.00
03542               0.40     3800.00
03543               1.00     3800.00
03544               1.20     3600.00
03545               1.40     3600.00
03546               1.20     3600.00
03547               1.40     3600.00
03548               1.20     3600.00
03549               1.00     3400.00
03550               1.40     3400.00
03551               1.00     3200.00
03552               1.20     3200.00
03553               0.20     3200.00
03554               0.80     3000.00
03555               1.20     3000.00
03556               1.20     2800.00
03557               0.20     2800.00
03558               1.00     2800.00
03559               1.00     2800.00
03560               0.60     2800.00
03561               0.40     2400.00
03562               0.60     2600.00
03563               0.60     2400.00
03564              -0.20     2400.00
03565               0.20     2400.00
03566               1.40     2400.00
03567               0.40     2200.00
03568               0.40     2400.00
03569               0.60     2200.00
03570               0.40     2000.00
03571               1.00     2000.00
03572               0.40     2000.00
03573               0.00     1800.00
03574               0.40     1800.00
03575               0.20     1600.00
03576               1.00     1800.00
03577               0.20     1600.00
03578              -0.60     1400.00
03579               1.00     1400.00
03580               0.60     1600.00
03581              -0.60     1400.00
03582              -0.60     1400.00
03583               0.60     1400.00
03584               0.00     1200.00
03585               0.40     1000.00
03586               0.40     1000.00
03587               0.20      800.00
03588              -0.40      800.00
03589              -0.40      800.00
03590              -0.20      600.00
03591               0.20      600.00
03592               0.20      600.00
03593              -0.60      600.00
03594               0.00      400.00
03595               0.40      400.00
03596              -0.60      200.00
03597              -0.60      400.00
03598               0.40      400.00
03599              -0.60      200.00
03600              -0.60        0.00
03601              -0.40        0.00
03602              -0.20        0.00
03603               0.40     -200.00
03604               0.20     -200.00
03605               0.60     -200.00
03606              -0.60     -400.00
03607              -0.80     -400.00
03608              -0.20     -400.00
03609              -0.40     -600.00
03610               4.20     -400.00
03611              24.20     -800.00
03612              -8.60    -1000.00
03613             -25.00    -1000.00
03614             -25.00     -800.00
03615              25.00     -800.00
03616              25.00    -1000.00
03617             -25.00    -1400.00
03618             -25.00     -800.00
03619              25.00    -1400.00
03620              25.00    -1800.00
03621             -25.00    -1000.00
03622              25.00    -1800.00
03623              25.00    -1600.00
03624             -25.00    -1600.00
03625             -25.00    -1400.00
03626              25.00    -1800.00
03627              25.00    -2000.00
03628             -25.00    -1600.00
03629              25.00    -2400.00
03630              25.00    -2000.00
03631             -25.00    -1800.00
03632             -19.00    -2000.00
03633              25.00    -2400.00
03634             -25.00    -2000.00
03635             -25.00    -2400.00
03636              25.00    -2600.00
03637              25.00    -2400.00
03638             -25.00    -2400.00
03639             -25.00    -2800.00
03640              25.00    -2600.00
03641              -7.80    -2600.00
03642             -25.00    -2800.00
03643              25.00    -2800.00
03644              25.00    -2800.00
03645             -25.00    -3000.00
03646              25.00    -3200.00
03647              25.00    -3200.00
03648             -25.00    -3000.00
03649             -16.60    -3400.00
03650              25.00    -3400.00
03651             -24.60    -3400.00
03652             -25.00    -3400.00
03653              25.00    -3400.00
03654              17.80    -3400.00
03655             -25.00    -3600.00
03656               7.60    -3600.00
03657              25.00    -3600.00
03658             -25.00    -3800.00
03659             -14.00    -4000.00
03660              22.60    -4000.00
03661              -2.80    -4000.00
03662             -20.40    -4000.00
03663               7.00    -4200.00
03664              12.00    -4000.00
03665             -16.40    -4200.00
03666              -7.60    -4400.00
03667              14.00    -4400.00
03668              -6.00    -4400.00
03669             -15.00    -4600.00
03670               9.20    -4400.00
03671               3.60    -4400.00
03672             -16.20    -4600.00
03673               0.60    -4600.00
03674               9.00    -4800.00
03675             -13.00    -4800.00
03676              -5.40    -4800.00
03677               9.20    -4800.00
03678              -6.80    -5000.00
03679              -9.20    -5000.00
03680               5.00    -5200.00
03681              -0.60    -5000.00
03682             -10.20    -5200.00
03683              -0.80    -5200.00
03684               2.60    -5200.00
03685              -7.40    -5200.00
03686              -5.20    -5200.00
03687               2.00    -5400.00
03688              -3.80    -5600.00
03689              -7.60    -5600.00
03690              -0.40    -5600.00
03691              -0.20    -5600.00
03692              -6.80    -5800.00
03693              -3.80    -5800.00
03694               0.20    -5800.00
03695              -4.60    -5800.00
03696              -6.00    -6000.00
03697              -1.20    -6000.00
03698              -3.00    -6000.00
03699              -6.40    -6200.00
03700              -2.80    -6000.00
03701              -2.20    -6200.00
03702              -5.80    -6000.00
03703              -4.00    -6400.00
03704              -2.80    -6200.00
03705              -4.40    -6400.00
03706              -4.40    -6400.00
03707              -2.80    -6400.00
03708              -4.60    -6400.00
03709              -5.00    -6600.00
03710              -3.20    -6400.00
03711              -4.40    -6600.00
03712              -5.40    -6600.00
03713              -3.80    -6600.00
03714              -3.60    -6600.00
03715              -5.40    -6800.00
03716              -5.00    -6600.00
03717              -4.20    -6800.00
03718              -5.00    -6800.00
03719              -6.00    -6800.00
03720              -4.40    -6800.00
03721              -4.20    -6800.00
03722              -5.80    -7000.00
03723              -5.40    -7000.00
03724              -4.40    -7000.00
03725              -5.80    -7000.00
03726              -6.20    -7200.00
03727              -5.00    -7200.00
03728              -5.20    -7200.00
03729              -6.40    -7200.00
03730              -5.80    -7200.00
03731              -5.40    -7200.00
03732              -6.80    -7200.00
03733              -6.80    -7200.00
03734              -5.00    -7400.00
03735              -6.60    -7200.00
03736              -7.40    -7400.00
03737              -5.40    -7600.00
03738              -7.00    -7400.00
03739              -8.20    -7400.00
03740              -6.20    -7400.00
03741              -6.20    -7400.00
03742              -8.40    -7600.00
03743              -7.00    -7400.00
03744              -6.20    -7400.00
03745              -8.40    -7600.00
03746              -8.40    -7400.00
03747              -7.00    -7600.00
03748              -8.40    -7800.00
03749              -9.00    -7600.00
03750              -7.60    -7800.00
03751              -8.40    -7600.00
03752              -9.40    -7800.00
03753              -9.00    -7800.00
03754              -9.00    -8000.00
03755              -9.80    -7600.00
03756              -9.20    -8000.00
03757              -9.20    -8000.00
03758              -9.80    -8000.00
03759             -10.20    -8000.00
03760              -9.80    -7800.00
03761             -10.20    -8000.00
03762             -11.00    -8000.00
03763             -11.00    -8000.00
03764             -10.80    -8000.00
03765             -11.00    -8000.00
03766             -11.40    -8000.00
03767             -11.80    -8000.00
03768             -11.60    -8000.00
03769             -12.20    -8000.00
03770             -12.40    -8000.00
03771             -12.60    -8000.00
03772             -13.20    -8200.00
03773             -13.20    -8000.00
03774             -12.60    -8200.00
03775             -13.40    -8200.00
03776             -13.40    -8200.00
03777             -13.80    -8000.00
03778             -13.60    -8200.00
03779             -14.20    -8000.00
03780             -14.60    -8000.00
03781             -14.40    -8200.00
03782             -15.00    -8200.00
03783             -15.00    -8200.00
03784             -14.80    -8200.00
03785             -15.00    -8200.00
03786             -15.00    -8200.00
03787             -15.00    -8000.00
03788             -15.00    -8000.00
03789             -15.40    -8200.00
03790             -15.00    -8200.00
03791             -15.00    -8000.00
03792             -14.80    -8000.00
03793             -14.60    -8200.00
03794             -13.80    -8200.00
03795             -13.80    -8200.00
03796             -13.80    -8200.00
03797             -13.00    -8000.00
03798             -12.60    -8000.00
03799             -12.60    -8000.00
03800             -12.20    -8200.00
03801             -11.60    -8000.00
03802             -11.80    -8000.00
03803             -11.20    -8000.00
03804             -11.00    -8200.00
03805             -11.00    -8000.00
03806             -11.00    -8000.00
03807             -10.20    -8000.00
03808             -10.20    -8000.00
03809             -10.40    -8000.00
03810             -10.00    -8000.00
03811              -9.40    -8000.00
03812              -9.60    -7800.00
03813              -9.20    -8000.00
03814              -9.00    -7800.00
03815              -9.20    -7800.00
03816              -9.20    -7600.00
03817              -8.40    -7800.00
03818              -8.60    -8000.00
03819              -9.00    -7800.00
03820              -8.20    -8000.00
03821              -8.00    -7800.00
03822              -8.40    -7600.00
03823              -7.80    -7600.00
03824              -7.60    -7600.00
03825              -7.60    -7800.00
03826              -7.60    -7600.00
03827              -7.40    -7600.00
03828              -7.60    -7600.00
03829              -7.00    -7600.00
03830              -7.00    -7600.00
03831              -7.00    -7600.00
03832              -6.80    -7400.00
03833              -6.80    -7400.00
03834              -6.60    -7400.00
03835              -6.80    -7400.00
03836              -6.40    -7400.00
03837              -6.60    -7400.00
03838              -6.20    -7200.00
03839              -5.80    -7200.00
03840              -6.00    -7200.00
03841              -6.20    -7200.00
03842              -5.60    -7200.00
03843              -5.40    -7200.00
03844              -5.60    -7000.00
03845              -5.20    -7200.00
03846              -5.20    -7200.00
03847              -5.60    -7200.00
03848              -5.80    -6800.00
03849              -5.00    -6800.00
03850              -5.20    -6800.00
03851              -5.20    -6800.00
03852              -4.60    -6800.00
03853              -4.60    -6800.00
03854              -4.60    -6600.00
03855              -4.40    -6600.00
03856              -4.60    -6600.00
03857              -4.40    -6600.00
03858              -4.40    -6600.00
03859              -4.40    -6600.00
03860              -4.20    -6600.00
03861              -4.40    -6600.00
03862              -4.20    -6600.00
03863              -3.80    -6400.00
03864              -3.80    -6400.00
03865              -3.80    -6400.00
03866              -3.60    -6400.00
03867              -3.60    -6400.00
03868              -4.20    -6200.00
03869              -3.60    -6200.00
03870              -3.40    -6000.00
03871              -3.80    -6000.00
03872              -3.60    -6000.00
03873              -3.00    -6000.00
03874              -3.80    -5800.00
03875              -3.60    -6000.00
03876              -2.80    -5800.00
03877              -3.40    -5800.00
03878              -3.40    -5600.00
03879              -2.60    -5800.00
03880              -3.40    -5600.00
03881              -3.40    -5600.00
03882              -3.00    -5400.00
03883              -3.40    -5600.00
03884              -3.00    -5600.00
03885              -3.00    -5400.00
03886              -3.00    -5400.00
03887              -2.80    -5200.00
03888              -2.80    -5200.00
03889              -3.00    -5200.00
03890              -2.60    -5200.00
03891              -3.00    -5000.00
03892              -2.80    -5000.00
03893              -2.20    -5000.00
03894              -2.80    -4600.00
03895              -2.80    -4600.00
03896              -2.20    -5000.00
03897              -2.60    -4600.00
03898              -2.60    -4800.00
03899              -2.60    -4600.00
03900              -2.40    -4400.00
03901              -2.60    -4400.00
03902              -2.40    -4400.00
03903              -2.20    -4400.00
03904              -2.20    -4400.00
03905              -2.60    -4200.00
03906              -2.20    -4400.00
03907              -2.00    -4200.00
03908              -2.00    -4200.00
03909              -1.80    -4000.00
03910              -2.20    -4000.00
03911              -2.00    -4000.00
03912              -1.60    -3800.00
03913              -2.20    -4000.00
03914              -2.00    -3600.00
03915              -2.20    -3800.00
03916              -2.00    -3600.00
03917              -2.00    -3600.00
03918              -1.80    -3600.00
03919              -0.60    -3400.00
03920              -2.20    -3400.00
03921              -1.20    -3400.00
03922              -1.20    -3200.00
03923              -2.00    -3200.00
03924              -1.40    -3200.00
03925              -1.00    -3000.00
03926              -1.00    -3000.00
03927              -2.20    -2800.00
03928              -1.00    -2800.00
03929              -1.20    -2800.00
03930              -2.00    -2800.00
03931              -1.20    -2600.00
03932              -1.20    -2800.00
03933              -1.20    -2600.00
03934              -1.80    -2400.00
03935              -1.20    -2400.00
03936              -0.40    -2400.00
03937              -1.80    -2400.00
03938              -1.40    -2200.00
03939              -0.40    -2400.00
03940              -1.20    -2200.00
03941              -1.80    -2200.00
03942              -0.60    -2000.00
03943              -1.00    -2000.00
03944              -1.80    -2000.00
03945              -0.60    -1800.00
03946              -0.20    -1800.00
03947              -1.80    -1600.00
03948              -1.40    -1600.00
03949              -0.60    -1600.00
03950              -1.40    -1600.00
03951              -1.40    -1400.00
03952              -0.40    -1400.00
03953              -0.60    -1200.00
03954              -1.20    -1200.00
03955              -0.40    -1200.00
03956              -0.60    -1000.00
03957              -1.20    -1000.00
03958              -1.00    -1000.00
03959              -0.20     -800.00
03960              -1.00     -800.00
03961              -1.20     -800.00
03962              -0.40     -800.00
03963              -0.60     -600.00
03964              -1.00     -600.00
03965              -0.40     -400.00
03966              -0.60     -400.00
03967              -1.00     -400.00
03968              -0.60     -400.00
03969              -0.20     -200.00
03970              -0.40     -200.00
03971              -0.60        0.00
03972              -0.60        0.00
03973               0.40        0.00
03974               0.40        0.00
03975               0.40        0.00
03976               0.60      200.00
03977              -0.60      400.00
03978              -0.40      200.00
03979               0.40      400.00
03980              -0.20      400.00
03981               0.80      600.00
03982              10.00      800.00
03983              10.20      800.00
03984             -20.40     1000.00
03985             -25.00      800.00
03986               3.80      600.00
03987              25.00     1200.00
03988               3.00     1000.00
03989             -25.00     1200.00
03990              25.00      800.00
03991              25.00     1800.00
03992             -25.00      800.00
03993             -25.00     1600.00
03994              25.00     1600.00
03995              25.00     1600.00
03996             -25.00     1800.00
03997              25.00     1800.00
03998              25.00     1800.00
03999             -25.00     2000.00
04000               0.00     2000.00
04001              25.00     2000.00
04002             -25.00     2000.00
04003             -25.00     2400.00
04004              25.00     2000.00
04005              25.00     2200.00
04006             -25.00     2400.00
04007              -3.60     2200.00
04008              25.00     2200.00
04009             -11.40     2800.00
04010             -25.00     2400.00
04011              25.00     2600.00
04012              25.00     2800.00
04013             -25.00     2800.00
04014               0.20     2800.00
04015              25.00     3000.00
04016             -25.00     3000.00
04017             -25.00     3000.00
04018              25.00     3000.00
04019              -9.40     3200.00
04020             -25.00     3200.00
04021              25.00     3200.00
04022              22.20     3200.00
04023             -25.00     3400.00
04024               8.60     3400.00
04025              25.00     3400.00
04026             -21.00     3600.00
04027             -10.80     3400.00
04028              25.00     3800.00
04029              -4.00     3600.00
04030             -15.20     3800.00
04031              13.80     3800.00
04032               7.60     3800.00
04033             -11.80     4000.00
04034               2.00     3800.00
04035              13.00     4000.00
04036              -3.40     4000.00
04037              -7.00     4000.00
04038               9.80     4400.00
04039               5.40     4400.00
04040              -8.20     4400.00
04041               3.40     4600.00
04042               9.80     4600.00
04043              -3.40     4600.00
04044              -3.00     4400.00
04045               9.80     4600.00
04046               1.00     4800.00
04047              -4.40     4800.00
04048               7.00     4800.00
04049               5.40     4800.00
04050              -4.60     5000.00
04051               2.80     5200.00
04052               7.80     5000.00
04053              -1.20     5200.00
04054              -1.00     5200.00
04055               7.60     5200.00
04056               2.00     5400.00
04057              -1.80     5400.00
04058               5.00     5600.00
04059               4.40     5600.00
04060              -0.40     5600.00
04061               2.60     5600.00
04062               5.40     5600.00
04063               1.20     5600.00
04064               0.60     5600.00
04065               5.20     5600.00
04066               3.60     5800.00
04067               0.20     5800.00
04068               3.40     6000.00
04069               5.00     6000.00
04070               2.20     6000.00
04071               1.80     6200.00
04072               5.00     6000.00
04073               2.60     6200.00
04074               1.80     6200.00
04075               4.20     6200.00
04076               3.80     6400.00
04077               2.60     6400.00
04078               4.20     6400.00
04079               4.20     6400.00
04080               3.60     6400.00
04081               3.20     6600.00
04082               3.80     6400.00
04083               3.80     6400.00
04084               3.80     6400.00
04085               3.80     6800.00
04086               4.20     6800.00
04087               4.00     6600.00
04088               4.00     6800.00
04089               4.20     6800.00
04090               4.20     6800.00
04091               4.20     6800.00
04092               5.20     6800.00
04093               4.40     6800.00
04094               4.40     6800.00
04095               5.00     7000.00
04096               5.00     7000.00
04097               4.20     7200.00
04098               5.40     7000.00
04099               6.00     7000.00
04100               4.20     7200.00
04101               5.20     7200.00
04102               6.20     7000.00
04103               5.40     7200.00
04104               5.20     7200.00
04105               6.60     7400.00
04106               6.40     7400.00
04107               5.80     7200.00
04108               6.00     7400.00
04109               6.80     7400.00
04110               6.20     7600.00
04111               5.80     7400.00
04112               7.60     7400.00
04113               7.20     7600.00
04114               6.60     7400.00
04115               7.40     7600.00
04116               7.60     7600.00
04117               7.00     7600.00
04118               7.20     7800.00
04119               8.00     7800.00
04120               8.20     7800.00
04121               7.80     7800.00
04122               8.40     7800.00
04123               9.00     7800.00
04124               8.40     7800.00
04125               8.40     7800.00
04126               9.00     8000.00
04127               9.00     7800.00
04128               9.00     7800.00
04129               9.40     7800.00
04130              10.00     7800.00
04131               9.40     7800.00
04132              10.00     7800.00
04133              10.20     7800.00
04134              10.20     8200.00
04135              10.80     8000.00
04136              11.00     8000.00
04137              10.80     8000.00
04138              11.40     8000.00
04139              11.40     8200.00
04140              11.40     8000.00
04141              11.80     8200.00
04142              11.80     8000.00
04143              12.40     8200.00
04144              12.60     8000.00
04145              12.40     8000.00
04146              13.00     8200.00
04147              12.80     8000.00
04148              13.00     8000.00
04149              13.40     8200.00
04150              13.80     8000.00
04151              13.80     8200.00
04152              14.00     8200.00
04153              14.60     8200.00
04154              14.20     8000.00
04155              14.40     8200.00
04156              14.80     8000.00
04157              14.80     8200.00
04158              14.60     8200.00
04159              14.80     8000.00
04160              14.80     8200.00
04161              14.40     8000.00
04162              14.20     8200.00
04163              13.80     8200.00
04164              13.60     8000.00
04165              13.20     8200.00
04166              13.20     8200.00
04167              12.60     8000.00
04168              12.60     8200.00
04169              12.20     8000.00
04170              11.80     8000.00
04171              11.60     8200.00
04172              11.40     8000.00
04173              11.40     8200.00
04174              10.80     8000.00
04175              10.40     7800.00
04176              10.20     7800.00
04177              10.20     8200.00
04178              10.00     8000.00
04179               9.80     8000.00
04180               9.80     7800.00
04181               9.40     7800.00
04182               9.20     8000.00
04183               9.00     7800.00
04184               9.00     7800.00
04185               8.60     7800.00
04186               8.60     7800.00
04187               8.40     7800.00
04188               8.20     7800.00
04189               7.80     7600.00
04190               8.40     7800.00
04191               7.80     7800.00
04192               7.40     7800.00
04193               7.40     7600.00
04194               7.40     7600.00
04195               7.40     7600.00
04196               6.80     7600.00
04197               6.80     7600.00
04198               7.00     7600.00
04199               6.60     7600.00
04200               6.60     7600.00
04201               7.00     7400.00
04202               6.20     7400.00
04203               5.80     7400.00
04204               6.00     7400.00
04205               5.80     7400.00
04206               5.60     7200.00
04207               6.60     7200.00
04208               5.20     7200.00
04209               4.60     7200.00
04210               5.80     7200.00
04211               5.80     7200.00
04212               5.20     7000.00
04213               4.60     7200.00
04214               5.00     7000.00
04215               5.20     7000.00
04216               4.60     7000.00
04217               5.00     7000.00
04218               5.20     7000.00
04219               3.80     6800.00
04220               4.00     6800.00
04221               4.60     7000.00
04222               4.60     6800.00
04223               3.80     6800.00
04224               5.00     6800.00
04225               4.20     6800.00
04226               3.20     6800.00
04227               4.20     6600.00
04228               4.20     6600.00
04229               3.60     6600.00
04230               3.40     6400.00
04231               3.80     6200.00
04232               4.40     6400.00
04233               3.60     6200.00
04234               2.60     6400.00
04235               3.60     6400.00
04236               4.20     6400.00
04237               4.20     6200.00
04238               2.60     6200.00
04239               2.00     6000.00
04240               4.20     6200.00
04241               3.80     6000.00
04242               2.00     6000.00
04243               3.40     6000.00
04244               3.20     6000.00
04245               3.40     6000.00
04246               2.20     6000.00
04247               2.80     5800.00
04248               4.00     5800.00
04249               2.60     5600.00
04250               1.20     5800.00
04251               4.20     5600.00
04252               2.60     5600.00
04253               1.00     5400.00
04254               3.80     5400.00
04255               3.40     5400.00
04256               0.60     5400.00
04257               2.60     5200.00
04258               3.00     5400.00
04259               2.00     5200.00
04260               2.60     5000.00
04261               3.00     5200.00
04262               1.80     5200.00
04263               2.00     4800.00
04264               2.20     4800.00
04265               1.80     4800.00
04266               1.80     4800.00
04267               2.80     4600.00
04268               2.20     4600.00
04269               1.40     4600.00
04270               1.80     4600.00
04271               2.00     4400.00
04272               1.40     4400.00
04273               2.00     4400.00
04274               2.00     4400.00
04275               1.40     4200.00
04276               2.00     4400.00
04277               1.20     4000.00
04278               1.00     4000.00
04279               2.00     4000.00
04280               1.20     4000.00
04281               0.40     3800.00
04282               2.20     3800.00
04283               1.40     3800.00
04284              -0.20     3800.00
04285               1.60     3800.00
04286               1.80     3600.00
04287               0.40     3600.00
04288               1.00     3600.00
04289               1.20     3400.00
04290               0.60     3400.00
04291               1.20     3600.00
04292               1.40     3200.00
04293               1.00     3200.00
04294               0.80     3200.00
04295               1.00     3000.00
04296               0.60     3000.00
04297               0.40     3000.00
04298               1.00     3000.00
04299               0.60     2800.00
04300               0.60     3000.00
04301               1.00     2800.00
04302               1.00     2600.00
04303               0.40     2800.00
04304               0.20     2400.00
04305               1.20     2400.00
04306               1.00     2400.00
04307               0.40     2400.00
04308               0.40     2200.00
04309               0.60     2200.00
04310               1.00     2200.00
04311               0.40     2000.00
04312               0.20     2000.00
04313               1.00     2000.00
04314               0.60     2000.00
04315               0.20     2000.00
04316               0.40     2000.00
04317               0.60     1600.00
04318               0.20     1800.00
04319              -0.20     1800.00
04320               0.40     1600.00
04321               0.40     1400.00
04322               0.20     1400.00
04323               0.40     1200.00
04324               1.00     1400.00
04325               0.00     1200.00
04326               0.00     1200.00
04327               0.20     1200.00
04328              -0.20      800.00
04329               0.20      800.00
04330               0.20      800.00
04331               0.20      800.00
04332              -0.20      600.00
04333              -0.20      600.00
04334              -0.20      400.00
04335               0.00      400.00
04336              -0.60      400.00
04337              -0.20      400.00
04338               0.20      200.00
04339              -0.40      200.00
04340              -0.60        0.00
04341              -0.20      200.00
04342              -0.60        0.00
04343              -0.60        0.00
04344               0.00        0.00
04345               0.20     -200.00
04346               0.20     -400.00
04347               0.20     -200.00
04348              -1.00     -400.00
04349              -0.60     -400.00
04350               0.00     -400.00
04351              -0.40     -400.00
04352              10.00     -400.00
04353              23.00    -1000.00
04354             -25.00    -1000.00
04355             -25.00    -1000.00
04356              10.80     -400.00
04357              25.00    -1200.00
04358              -0.60    -1400.00
04359             -25.00    -1000.00
04360              25.00    -1000.00
04361              25.00    -1200.00
04362             -25.00    -1600.00
04363             -25.00     -800.00
04364              25.00    -1800.00
04365              25.00    -1800.00
04366             -25.00    -1200.00
04367               0.40    -2000.00
04368              25.00    -1800.00
04369             -25.00    -1800.00
04370             -25.00    -1800.00
04371              25.00    -2400.00
04372              25.00    -2000.00
04373             -25.00    -2000.00
04374              25.00    -2400.00
04375              25.00    -2200.00
04376             -25.00    -2200.00
04377             -25.00    -2600.00
04378              25.00    -2400.00
04379              22.80    -2400.00
04380             -25.00    -2400.00
04381              25.00    -2600.00
04382              25.00    -2400.00
04383             -25.00    -2600.00
04384             -25.00    -2800.00
04385              25.00    -2800.00
04386             -25.00    -2800.00
04387             -25.00    -3000.00
04388              25.00    -3200.00
04389              25.00    -3200.00
04390             -25.00    -3200.00
04391              25.00    -3200.00
04392              25.00    -3400.00
04393             -25.00    -3400.00
04394             -16.80    -3400.00
04395              25.00    -3400.00
04396             -14.00    -3600.00
04397             -25.00    -3600.00
04398              25.00    -3600.00
04399              10.80    -3600.00
04400             -25.00    -3600.00
04401               4.20    -4000.00
04402              18.80    -4000.00
04403             -15.60    -4000.00
04404             -12.40    -4200.00
04405              14.60    -4000.00
04406               0.60    -4200.00
04407             -19.00    -4200.00
04408               3.40    -4200.00
04409              10.40    -4200.00
04410             -15.00    -4400.00
04411              -6.60    -4400.00
04412              12.40    -4400.00
04413              -6.60    -4400.00
04414             -13.40    -4600.00
04415               8.40    -4600.00
04416               0.40    -4800.00
04417             -15.00    -4600.00
04418               3.40    -5000.00
04419               5.40    -5000.00
04420             -12.20    -5000.00
04421              -3.80    -5000.00
04422               6.00    -5200.00
04423              -7.00    -5200.00
04424              -9.00    -5000.00
04425               3.80    -5200.00
04426              -1.20    -5200.00
04427              -9.60    -5200.00
04428              -0.20    -5400.00
04429               0.80    -5200.00
04430              -8.00    -5600.00
04431              -4.40    -5600.00
04432               2.00    -5600.00
04433              -4.00    -5600.00
04434              -7.00    -5800.00
04435              -0.40    -5800.00
04436              -1.80    -5800.00
04437              -7.00    -5800.00
04438              -3.80    -6000.00
04439              -0.80    -6000.00
04440              -4.60    -6000.00
04441              -5.20    -6000.00
04442              -1.80    -6000.00
04443              -3.40    -6000.00
04444              -5.40    -6200.00
04445              -3.00    -6200.00
04446              -2.80    -6200.00
04447              -4.80    -6400.00
04448              -3.40    -6200.00
04449              -3.40    -6600.00
04450              -5.40    -6400.00
04451              -4.20    -6400.00
04452              -3.60    -6400.00
04453              -5.00    -6600.00
04454              -5.00    -6600.00
04455              -3.80    -6600.00
04456              -4.20    -6600.00
04457              -5.40    -6600.00
04458              -4.40    -6600.00
04459              -4.00    -6800.00
04460              -5.00    -6600.00
04461              -5.20    -6800.00
04462              -4.40    -6800.00
04463              -4.60    -6800.00
04464              -6.20    -6800.00
04465              -5.40    -7000.00
04466              -5.00    -7000.00
04467              -6.20    -7200.00
04468              -6.20    -7200.00
04469              -5.00    -7200.00
04470              -5.40    -7200.00
04471              -6.80    -7200.00
04472              -5.40    -7200.00
04473              -5.80    -7200.00
04474              -7.00    -7200.00
04475              -6.20    -7200.00
04476              -5.40    -7400.00
04477              -7.00    -7400.00
04478              -7.40    -7400.00
04479              -6.00    -7400.00
04480              -7.00    -7400.00
04481              -8.20    -7400.00
04482              -6.60    -7400.00
04483              -6.80    -7600.00
04484              -8.20    -7600.00
04485              -7.60    -7400.00
04486              -7.00    -7600.00
04487              -8.40    -7600.00
04488              -8.40    -7600.00
04489              -7.40    -7600.00
04490              -8.40    -7800.00
04491              -9.00    -7600.00
04492              -8.20    -7800.00
04493              -8.60    -7600.00
04494              -9.20    -8000.00
04495              -9.20    -8000.00
04496              -8.60    -7800.00
04497              -9.80    -8000.00
04498              -9.80    -8000.00
04499              -9.40    -8000.00
04500             -10.20    -8000.00
04501              -9.60    -7800.00
04502              -9.80    -8000.00
04503             -10.80    -8000.00
04504             -10.80    -8000.00
04505             -10.80    -8000.00
04506             -11.00    -8000.00
04507             -11.20    -8000.00
04508             -11.00    -8000.00
04509             -11.80    -8000.00
04510             -11.60    -8000.00
04511             -12.20    -8000.00
04512             -12.40    -8000.00
04513             -12.20    -8200.00
04514             -12.80    -8000.00
04515             -13.00    -8000.00
04516             -13.00    -8200.00
04517             -13.20    -8000.00
04518             -13.80    -8000.00
04519             -13.80    -8200.00
04520             -13.80    -8000.00
04521             -14.60    -8000.00
04522             -14.20    -8200.00
04523             -14.20    -8000.00
04524             -15.00    -8200.00
04525             -14.80    -8200.00
04526             -14.20    -8200.00
04527             -15.00    -8000.00
04528             -15.00    -8200.00
04529             -14.80    -8000.00
04530             -15.40    -8200.00
04531             -15.20    -8200.00
04532             -15.00    -8200.00
04533             -15.00    -8200.00
04534             -14.80    -8000.00
04535             -14.20    -8000.00
04536             -14.00    -8200.00
04537             -13.40    -8200.00
04538             -13.40    -8000.00
04539             -13.20    -8200.00
04540             -12.40    -8000.00
04541             -12.60    -8000.00
04542             -12.40    -8000.00
04543             -11.80    -8200.00
04544             -12.20    -8000.00
04545             -11.40    -8000.00
04546             -11.60    -8000.00
04547             -10.80    -8000.00
04548             -10.40    -8200.00
04549             -10.80    -8000.00
04550             -10.20    -8000.00
04551              -9.80    -8000.00
04552              -9.80    -8000.00
04553              -9.80    -7800.00
04554              -9.40    -7800.00
04555              -9.20    -8000.00
04556              -9.20    -7800.00
04557              -9.00    -7800.00
04558              -8.80    -7800.00
04559              -8.60    -7800.00
04560              -8.60    -7800.00
04561              -8.40    -7600.00
04562              -8.20    -7600.00
04563              -8.20    -7600.00
04564              -8.20    -7600.00
04565              -7.60    -7800.00
04566              -7.60    -7600.00
04567              -7.60    -7400.00
04568              -7.40    -7600.00
04569              -7.00    -7600.00
04570              -7.00    -7400.00
04571              -7.00    -7400.00
04572              -6.80    -7400.00
04573              -6.80    -7400.00
04574              -6.60    -7400.00
04575              -6.60    -7400.00
04576              -6.60    -7400.00
04577              -6.60    -7400.00
04578              -6.20    -7400.00
04579              -6.20    -7400.00
04580              -6.00    -7400.00
04581              -5.80    -7200.00
04582              -5.60    -7200.00
04583              -6.00    -7200.00
04584              -5.40    -7200.00
04585              -5.40    -7000.00
04586              -5.40    -7200.00
04587              -5.80    -7000.00
04588              -5.40    -7200.00
04589              -5.40    -7000.00
04590              -5.20    -7000.00
04591              -5.20    -6800.00
04592              -5.00    -6800.00
04593              -5.00    -6800.00
04594              -4.60    -6800.00
04595              -5.00    -6800.00
04596              -4.60    -6800.00
04597              -5.20    -6600.00
04598              -4.40    -6600.00
04599              -4.20    -6600.00
04600              -4.80    -6800.00
04601              -4.60    -6600.00
04602              -4.20    -6400.00
04603              -4.40    -6400.00
04604              -4.40    -6400.00
04605              -4.20    -6400.00
04606              -4.20    -6200.00
04607              -4.40    -6400.00
04608              -3.80    -6400.00
04609              -4.00    -6200.00
04610              -4.20    -6200.00
04611              -3.80    -6200.00
04612              -3.80    -6000.00
04613              -3.80    -6000.00
04614              -3.80    -6000.00
04615              -3.40    -6000.00
04616              -3.80    -5800.00
04617              -3.80    -5800.00
04618              -2.60    -5800.00
04619              -4.20    -5800.00
04620              -3.80    -5800.00
04621              -2.60    -5600.00
04622              -3.80    -5600.00
04623              -2.80    -5600.00
04624              -2.40    -5400.00
04625              -3.80    -5400.00
04626              -2.60    -5600.00
04627              -2.20    -5200.00
04628              -3.80    -5400.00
04629              -2.60    -5200.00
04630              -2.20    -5200.00
04631              -3.60    -5200.00
04632              -2.80    -5000.00
04633              -2.00    -5200.00
04634              -3.20    -4800.00
04635              -2.80    -5000.00
04636              -1.80    -4600.00
04637              -2.60    -4600.00
04638              -2.80    -4800.00
04639              -2.00    -4600.00
04640              -2.60    -4600.00
04641              -2.60    -4600.00
04642              -2.00    -4400.00
04643              -2.20    -4400.00
04644              -2.60    -4400.00
04645              -2.00    -4400.00
04646              -2.00    -4400.00
04647              -2.40    -4200.00
04648              -1.80    -4200.00
04649              -2.00    -4200.00
04650              -2.60    -4000.00
04651              -1.40    -4000.00
04652              -1.40    -4000.00
04653              -2.60    -4000.00
04654              -2.00    -3800.00
04655              -1.20    -4000.00
04656              -1.80    -3600.00
04657              -2.20    -3600.00
04658              -1.80    -3600.00
04659              -0.80    -3600.00
04660              -2.20    -3600.00
04661              -2.20    -3400.00
04662              -1.20    -3400.00
04663              -1.00    -3400.00
04664              -2.60    -3200.00
04665              -2.20    -3200.00
04666              -0.60    -3200.00
04667              -1.40    -3200.00
04668              -3.00    -3000.00
04669              -2.00    -3000.00
04670               0.20    -2800.00
04671              -0.60    -2800.00
04672              -3.00    -2800.00
04673              -2.20    -2800.00
04674               0.40    -2600.00
04675              -1.20    -2600.00
04676              -3.60    -2400.00
04677              -1.00    -2400.00
04678               0.40    -2400.00
04679              -2.00    -2400.00
04680              -2.00    -2400.00
04681              -0.60    -2200.00
04682              -1.20    -2200.00
04683              -2.00    -2000.00
04684              -1.40    -2000.00
04685              -1.40    -1800.00
04686              -1.00    -2000.00
04687              -0.20    -1800.00
04688              -0.60    -1800.00
04689              -1.60    -1600.00
04690              -1.20    -1600.00
04691              -0.60    -1400.00
04692              -1.40    -1600.00
04693              -1.20    -1400.00
04694              -0.40    -1200.00
04695              -0.40    -1200.00
04696              -1.00    -1200.00
04697              -1.00    -1000.00
04698              -0.60    -1000.00
04699              -1.20    -1000.00
04700              -1.00    -1000.00
04701              -0.40     -800.00
04702              -0.40     -800.00
04703              -0.40     -800.00
04704              -0.20     -600.00
04705              -0.40     -600.00
04706              -0.60     -400.00
04707              -0.60     -400.00
04708              -0.20     -200.00
04709              -0.40     -200.00
04710              -0.80     -200.00
04711               0.20     -200.00
04712              -0.20     -200.00
04713              -0.60        0.00
04714              -0.40        0.00
04715               0.40        0.00
04716               0.20      200.00
04717               1.20      400.00
04718               0.40      200.00
04719              -0.60      400.00
04720               0.40      400.00
04721               0.40      600.00
04722              -0.40      600.00
04723               3.00      600.00
04724              13.80      800.00
04725               0.40     1000.00
04726             -25.00      800.00
04727             -20.60      800.00
04728              25.00      800.00
04729              25.00     1400.00
04730             -25.00     1000.00
04731             -25.00     1200.00
04732              25.00     1400.00
04733              25.00     1400.00
04734             -25.00     1200.00
04735              22.60     1400.00
04736              25.00     2000.00
04737             -25.00     1000.00
04738             -25.00     2000.00
04739              25.00     1600.00
04740              11.60     1800.00
04741             -25.00     2000.00
04742              25.00     2000.00
04743              25.00     2000.00
04744             -25.00     2000.00
04745              -4.20     2400.00
04746              25.00     2000.00
04747             -17.80     2200.00
04748             -25.00     2400.00
04749              25.00     2400.00
04750              25.00     2400.00
04751             -25.00     2600.00
04752             -25.00     2400.00
04753              25.00     2800.00
04754               2.00     2800.00
04755             -25.00     2800.00
04756              25.00     2800.00
04757              25.00     2800.00
04758             -25.00     3000.00
04759              14.80     3000.00
04760              25.00     3200.00
04761             -25.00     3200.00
04762             -17.40     3200.00
04763              25.00     3200.00
04764             -11.00     3400.00
04765             -25.00     3400.00
04766              25.00     3600.00
04767              14.80     3600.00
04768             -25.00     3600.00
04769               8.40     3600.00
04770              21.80     3800.00
04771             -16.40     3800.00
04772              -4.40     3800.00
04773              17.00     4000.00
04774              -1.60     4000.00
04775             -10.20     4000.00
04776               9.60     4000.00
04777               8.40     4000.00
04778              -7.60     4400.00
04779              -1.40     4400.00
04780              12.20     4400.00
04781              -1.00     4400.00
04782              -6.60     4400.00
04783               9.00     4400.00
04784               6.20     4400.00
04785              -7.40     4600.00
04786               3.40     4600.00
04787               9.20     4800.00
04788              -4.60     4800.00
04789              -0.60     4800.00
04790               9.40     4800.00
04791               0.20     4800.00
04792              -3.40     5000.00
04793               7.00     5200.00
04794               3.40     5000.00
04795              -3.00     5200.00
04796               3.00     5200.00
04797               6.20     5400.00
04798              -0.60     5400.00
04799               1.20     5600.00
04800               5.20     5400.00
04801               2.00     5400.00
04802              -0.20     5600.00
04803               3.80     5600.00
04804               3.80     5600.00
04805               0.60     5600.00
04806               2.20     5800.00
04807               4.80     5800.00
04808               2.00     5600.00
04809               1.40     6000.00
04810               3.60     6000.00
04811               4.20     6200.00
04812               1.80     6000.00
04813               2.60     6000.00
04814               5.00     6000.00
04815               2.60     6000.00
04816               2.00     6200.00
04817               4.20     6200.00
04818               3.80     6200.00
04819               2.00     6400.00
04820               4.20     6400.00
04821               4.60     6400.00
04822               2.40     6400.00
04823               3.40     6400.00
04824               5.00     6400.00
04825               3.20     6600.00
04826               3.40     6400.00
04827               5.20     6600.00
04828               4.20     6600.00
04829               3.40     6800.00
04830               4.60     6800.00
04831               5.00     6800.00
04832               3.80     7000.00
04833               4.40     6800.00
04834               5.20     6800.00
04835               4.40     7000.00
04836               4.20     7000.00
04837               5.60     7000.00
04838               5.00     7000.00
04839               4.40     7000.00
04840               5.80     7200.00
04841               5.40     7000.00
04842               5.00     7200.00
04843               6.00     7200.00
04844               5.80     7200.00
04845               5.60     7200.00
04846               5.80     7200.00
04847               6.20     7200.00
04848               6.00     7200.00
04849               5.80     7400.00
04850               6.60     7200.00
04851               6.80     7400.00
04852               5.80     7400.00
04853               6.60     7600.00
04854               7.20     7600.00
04855               6.60     7400.00
04856               6.80     7600.00
04857               7.60     7600.00
04858               7.40     7600.00
04859               6.80     7600.00
04860               7.60     7600.00
04861               8.20     7800.00
04862               7.60     7800.00
04863               8.00     7800.00
04864               8.40     7800.00
04865               8.20     7800.00
04866               8.20     7800.00
04867               8.60     7800.00
04868               8.60     7800.00
04869               8.60     7800.00
04870              10.00     7800.00
04871               9.20     7800.00
04872               9.00     8000.00
04873              10.00     8000.00
04874              10.60     7800.00
04875               9.20     8200.00
04876              10.60     8000.00
04877              11.40     8000.00
04878              10.00     8200.00
04879              10.20     8000.00
04880              12.40     8000.00
04881              11.40     8000.00
04882              10.60     8000.00
04883              12.40     8000.00
04884              12.60     8000.00
04885              11.60     8200.00
04886              12.40     8000.00
04887              13.40     8200.00
04888              13.00     8200.00
04889              12.60     8000.00
04890              13.60     8200.00
04891              14.00     8000.00
04892              13.40     8200.00
04893              13.80     8000.00
04894              15.20     8000.00
04895              14.00     8000.00
04896              14.60     8200.00
04897              14.80     8200.00
04898              14.80     8000.00
04899              14.20     8200.00
04900              15.40     8200.00
04901              15.00     8000.00
04902              14.00     8200.00
04903              15.00     8200.00
04904              14.60     8200.00
04905              13.80     8000.00
04906              14.00     8200.00
04907              13.60     8000.00
04908              13.00     8200.00
04909              13.00     8000.00
04910              12.40     8200.00
04911              12.20     8000.00
04912              12.20     8200.00
04913              11.20     8200.00
04914              11.40     8000.00
04915              11.60     8200.00
04916              10.00     8000.00
04917              10.40     7800.00
04918              11.00     8000.00
04919               9.80     8000.00
04920               9.60     8000.00
04921               9.80     8200.00
04922               9.40     8000.00
04923               9.00     7800.00
04924               9.20     7800.00
04925               9.00     7800.00
04926               8.80     7800.00
04927               8.40     8000.00
04928               8.20     7800.00
04929               8.20     7800.00
04930               8.00     7800.00
04931               7.40     7800.00
04932               8.20     7600.00
04933               7.40     7800.00
04934               7.00     7800.00
04935               8.00     7600.00
04936               6.80     7800.00
04937               7.20     7600.00
04938               7.20     7600.00
04939               6.80     7600.00
04940               6.80     7600.00
04941               6.40     7600.00
04942               6.20     7600.00
04943               6.60     7400.00
04944               5.80     7600.00
04945               5.40     7400.00
04946               7.00     7200.00
04947               6.20     7400.00
04948               4.60     7200.00
04949               6.20     7200.00
04950               6.00     7200.00
04951               4.40     7200.00
04952               5.20     7200.00
04953               6.00     7200.00
04954               5.40     7200.00
04955               4.60     7200.00
04956               5.40     7000.00
04957               5.60     7200.00
04958               3.80     7000.00
04959               4.80     7000.00
04960               5.20     7000.00
04961               4.60     7000.00
04962               4.20     6800.00
04963               5.00     7000.00
04964               5.00     6800.00
04965               3.60     6800.00
04966               4.40     6800.00
04967               4.60     6800.00
04968               3.80     6600.00
04969               3.80     6600.00
04970               4.60     6600.00
04971               3.80     6600.00
04972               3.60     6600.00
04973               4.20     6400.00
04974               4.20     6400.00
04975               3.40     6400.00
04976               3.40     6400.00
04977               3.80     6400.00
04978               3.20     6200.00
04979               2.80     6200.00
04980               4.20     6200.00
04981               4.20     6200.00
04982               2.80     6200.00
04983               2.80     6000.00
04984               3.60     6000.00
04985               2.60     6000.00
04986               2.40     6000.00
04987               3.00     6000.00
04988               2.60     5800.00
04989               2.80     5800.00
04990               2.60     5600.00
04991               2.80     5600.00
04992               2.60     5600.00
04993               2.60     5600.00
04994               2.40     5600.00
04995               2.60     5600.00
04996               3.40     5400.00
04997               2.20     5400.00
04998               2.00     5200.00
04999               2.20     5400.00
05000               2.00     5200.00
