Unit:(mV)
                     CH1         CH2
Frequency              ? 134.572 kHz
00001              -4.00    -5400.00
00002              -4.80    -5400.00
00003              -3.80    -5200.00
00004              -4.20    -5400.00
00005              -5.20    -5400.00
00006              -4.40    -5600.00
00007              -3.80    -5400.00
00008              -5.20    -5400.00
00009              -5.00    -5600.00
00010              -4.40    -5600.00
00011              -5.20    -5600.00
00012              -5.60    -5800.00
00013              -4.60    -5600.00
00014              -5.20    -5600.00
00015              -5.60    -5800.00
00016              -5.20    -5800.00
00017              -5.00    -5800.00
00018              -6.00    -5800.00
00019              -5.80    -6000.00
00020              -5.20    -5800.00
00021              -5.80    -5800.00
00022              -6.80    -6000.00
00023              -5.80    -6000.00
00024              -5.60    -6000.00
00025              -7.00    -6000.00
00026              -6.80    -6000.00
00027              -5.20    -6000.00
00028              -6.80    -6000.00
00029              -7.40    -6000.00
00030              -5.60    -6000.00
00031              -6.20    -6000.00
00032              -7.60    -6000.00
00033              -7.00    -6000.00
00034              -6.20    -6000.00
00035              -7.80    -6000.00
00036              -8.20    -6200.00
00037              -6.60    -6000.00
00038              -7.60    -6200.00
00039              -8.60    -6000.00
00040              -7.40    -6200.00
00041              -7.00    -6200.00
00042              -8.40    -6200.00
00043              -8.60    -6000.00
00044              -7.40    -6200.00
00045              -8.20    -6200.00
00046              -9.40    -6400.00
00047              -8.20    -6200.00
00048              -8.40    -6400.00
00049              -9.40    -6400.00
00050              -8.80    -6200.00
00051              -8.60    -6400.00
00052              -9.20    -6400.00
00053              -9.40    -6400.00
00054              -9.20    -6400.00
00055              -9.40    -6400.00
00056             -10.20    -6400.00
00057             -10.20    -6400.00
00058              -9.20    -6400.00
00059             -10.20    -6400.00
00060             -10.20    -6400.00
00061             -10.20    -6400.00
00062              -9.80    -6400.00
00063             -11.00    -6400.00
00064             -11.00    -6400.00
00065             -10.20    -6400.00
00066             -11.40    -6600.00
00067             -11.40    -6400.00
00068             -11.00    -6400.00
00069             -11.40    -6400.00
00070             -11.80    -6400.00
00071             -11.40    -6600.00
00072             -11.40    -6600.00
00073             -12.20    -6400.00
00074             -11.80    -6400.00
00075             -11.20    -6400.00
00076             -11.60    -6400.00
00077             -12.40    -6400.00
00078             -11.20    -6600.00
00079             -11.60    -6400.00
00080             -12.40    -6400.00
00081             -11.00    -6400.00
00082             -11.20    -6400.00
00083             -11.80    -6400.00
00084             -10.60    -6600.00
00085             -10.20    -6400.00
00086             -10.80    -6400.00
00087             -10.20    -6400.00
00088              -9.00    -6400.00
00089             -10.60    -6400.00
00090             -10.20    -6400.00
00091              -8.60    -6400.00
00092              -9.60    -6400.00
00093             -10.00    -6400.00
00094              -9.00    -6400.00
00095              -8.00    -6400.00
00096              -9.40    -6400.00
00097              -8.60    -6400.00
00098              -7.80    -6400.00
00099              -8.40    -6400.00
00100              -8.60    -6400.00
00101              -8.20    -6400.00
00102              -7.40    -6400.00
00103              -8.60    -6200.00
00104              -7.80    -6400.00
00105              -6.80    -6400.00
00106              -7.60    -6000.00
00107              -8.20    -6200.00
00108              -6.60    -6200.00
00109              -6.60    -6200.00
00110              -7.80    -6200.00
00111              -6.80    -6200.00
00112              -5.80    -6200.00
00113              -7.00    -6000.00
00114              -7.00    -6000.00
00115              -5.60    -6000.00
00116              -6.80    -6000.00
00117              -6.80    -6000.00
00118              -5.80    -6000.00
00119              -5.80    -6000.00
00120              -6.40    -6000.00
00121              -5.40    -6000.00
00122              -5.40    -6000.00
00123              -6.40    -6000.00
00124              -5.80    -5800.00
00125              -5.20    -5800.00
00126              -5.40    -5800.00
00127              -5.40    -5800.00
00128              -4.60    -5800.00
00129              -5.00    -5800.00
00130              -5.40    -5800.00
00131              -5.20    -5600.00
00132              -4.80    -5800.00
00133              -4.80    -5800.00
00134              -4.80    -5600.00
00135              -4.60    -5600.00
00136              -4.60    -5600.00
00137              -4.40    -5600.00
00138              -4.40    -5600.00
00139              -4.60    -5400.00
00140              -4.40    -5400.00
00141              -4.00    -5600.00
00142              -4.40    -5200.00
00143              -4.40    -5400.00
00144              -4.40    -5400.00
00145              -3.80    -5400.00
00146              -4.20    -5200.00
00147              -4.40    -5200.00
00148              -4.20    -5200.00
00149              -4.40    -5200.00
00150              -3.80    -5200.00
00151              -3.80    -5000.00
00152              -3.80    -5000.00
00153              -3.60    -5000.00
00154              -4.20    -4600.00
00155              -3.60    -5000.00
00156              -3.00    -4800.00
00157              -4.40    -5000.00
00158              -3.40    -4600.00
00159              -2.80    -4800.00
00160              -3.80    -4800.00
00161              -4.40    -4600.00
00162              -2.80    -4800.00
00163              -3.00    -4600.00
00164              -4.20    -4400.00
00165              -2.80    -4600.00
00166              -2.60    -4600.00
00167              -3.40    -4400.00
00168              -3.20    -4400.00
00169              -3.00    -4400.00
00170              -2.80    -4400.00
00171              -2.80    -4400.00
00172              -3.00    -4400.00
00173              -3.00    -4200.00
00174              -2.40    -4200.00
00175              -2.80    -4200.00
00176              -3.00    -4200.00
00177              -2.80    -4200.00
00178              -2.60    -4200.00
00179              -2.60    -4000.00
00180              -2.20    -4000.00
00181              -2.80    -4000.00
00182              -2.00    -4000.00
00183              -1.40    -3600.00
00184              -2.80    -4000.00
00185              -2.80    -3800.00
00186              -1.80    -3600.00
00187              -2.20    -3600.00
00188              -2.60    -3600.00
00189              -2.00    -3600.00
00190              -1.80    -3400.00
00191              -2.60    -3600.00
00192              -2.20    -3400.00
00193              -2.00    -3400.00
00194              -2.20    -3400.00
00195              -2.00    -3400.00
00196              -1.80    -3200.00
00197              -1.40    -3200.00
00198              -2.00    -3200.00
00199              -2.00    -3200.00
00200              -1.40    -3200.00
00201              -1.60    -3200.00
00202              -2.20    -2800.00
00203              -1.20    -3000.00
00204              -1.40    -2800.00
00205              -2.20    -2800.00
00206              -2.00    -2600.00
00207              -0.80    -2600.00
00208              -2.00    -2600.00
00209              -1.80    -2600.00
00210              -1.00    -2800.00
00211              -1.60    -2600.00
00212              -2.00    -2600.00
00213              -1.20    -2400.00
00214              -1.40    -2400.00
00215              -2.00    -2600.00
00216              -1.00    -2400.00
00217              -1.20    -2400.00
00218              -1.80    -2400.00
00219              -1.20    -2000.00
00220              -1.20    -2200.00
00221              -1.40    -2000.00
00222              -1.20    -2000.00
00223              -1.40    -2000.00
00224              -1.40    -2000.00
00225              -1.20    -1800.00
00226              -1.40    -1800.00
00227              -1.60    -1800.00
00228              -1.00    -1800.00
00229              -1.00    -1600.00
00230              -1.20    -1600.00
00231              -1.00    -1600.00
00232              -0.60    -1600.00
00233              -1.20    -1200.00
00234              -1.20    -1200.00
00235              -0.60    -1400.00
00236              -1.40    -1200.00
00237              -1.20    -1200.00
00238              -0.40    -1000.00
00239              -1.20    -1000.00
00240              -0.60    -1000.00
00241              -0.60    -1000.00
00242              -1.00    -1000.00
00243              -0.80    -1000.00
00244              -1.20     -800.00
00245              -0.20     -800.00
00246              -0.40     -600.00
00247              -0.60     -600.00
00248              -0.40     -600.00
00249              -0.60     -400.00
00250              -0.40     -400.00
00251              -0.40     -400.00
00252              -0.60     -400.00
00253              -0.20     -200.00
00254              -0.20     -400.00
00255              -0.60     -200.00
00256              -0.60     -200.00
00257              -0.20     -200.00
00258              -0.60        0.00
00259              -0.60        0.00
00260               0.40        0.00
00261               0.40        0.00
00262              -0.20      200.00
00263               1.00      200.00
00264               0.60      200.00
00265              -0.80      200.00
00266              -0.20      400.00
00267               0.40      400.00
00268               0.40      400.00
00269               3.00      600.00
00270              13.40      800.00
00271              -4.60      800.00
00272             -25.00      600.00
00273              -9.00      600.00
00274              25.00      800.00
00275              13.40      800.00
00276             -25.00     1200.00
00277              10.80      600.00
00278              25.00     1800.00
00279             -25.00      400.00
00280             -25.00     1400.00
00281              25.00      800.00
00282              25.00     1800.00
00283             -25.00     1200.00
00284             -12.60     1600.00
00285              25.00     1400.00
00286             -25.00     1400.00
00287             -25.00     1400.00
00288              25.00     1800.00
00289              25.00     1400.00
00290             -25.00     2000.00
00291              25.00     1600.00
00292              25.00     2000.00
00293             -25.00     1800.00
00294             -25.00     2000.00
00295              25.00     1600.00
00296              10.60     2000.00
00297             -25.00     2200.00
00298              25.00     2000.00
00299              25.00     2200.00
00300             -25.00     2400.00
00301             -23.80     2200.00
00302              25.00     2200.00
00303              -8.60     2400.00
00304             -25.00     2400.00
00305              25.00     2400.00
00306              25.00     2400.00
00307             -25.00     2800.00
00308               3.60     2400.00
00309              25.00     2800.00
00310             -25.00     2600.00
00311             -25.00     2800.00
00312              25.00     2800.00
00313               2.00     3000.00
00314             -25.00     2800.00
00315              25.00     3000.00
00316              25.00     3000.00
00317             -25.00     3200.00
00318               0.40     3000.00
00319              25.00     3200.00
00320             -15.60     3000.00
00321             -19.00     3200.00
00322              25.00     3200.00
00323               4.60     3200.00
00324             -24.40     3200.00
00325              11.80     3400.00
00326              20.20     3600.00
00327             -18.20     3400.00
00328              -2.00     3600.00
00329              20.00     3600.00
00330              -3.40     3800.00
00331             -12.60     3600.00
00332              14.80     3800.00
00333               6.20     3800.00
00334             -10.80     3800.00
00335               4.20     3800.00
00336              13.00     4000.00
00337              -6.80     3800.00
00338              -2.20     4000.00
00339              11.60     4000.00
00340               1.40     4000.00
00341              -6.20     4000.00
00342               7.40     4200.00
00343               6.80     4200.00
00344              -4.80     4200.00
00345               2.20     4000.00
00346               8.00     4400.00
00347              -0.60     4400.00
00348              -1.40     4400.00
00349               7.00     4400.00
00350               3.00     4600.00
00351              -1.20     4600.00
00352               3.40     4600.00
00353               5.80     4600.00
00354              -0.20     4600.00
00355               1.80     4800.00
00356               5.00     4600.00
00357               2.80     4800.00
00358               0.40     4800.00
00359               4.20     4800.00
00360               3.40     4800.00
00361               1.80     5200.00
00362               2.60     4800.00
00363               4.20     5200.00
00364               2.20     4800.00
00365               3.00     5200.00
00366               3.80     5200.00
00367               3.00     5200.00
00368               3.00     5200.00
00369               4.20     5200.00
00370               3.60     5200.00
00371               3.40     5200.00
00372               4.20     5400.00
00373               3.40     5400.00
00374               3.80     5200.00
00375               3.80     5400.00
00376               4.20     5600.00
00377               3.40     5400.00
00378               4.40     5600.00
00379               4.40     5600.00
00380               4.20     5600.00
00381               3.60     5600.00
00382               5.00     5600.00
00383               4.40     5600.00
00384               4.40     5600.00
00385               4.40     5600.00
00386               5.00     5800.00
00387               4.80     5600.00
00388               4.60     5600.00
00389               5.20     5800.00
00390               5.20     6000.00
00391               4.60     6000.00
00392               5.40     6000.00
00393               5.20     6000.00
00394               5.00     5800.00
00395               5.40     6000.00
00396               5.80     6000.00
00397               5.40     6200.00
00398               5.60     6000.00
00399               6.40     6000.00
00400               6.00     6200.00
00401               6.00     6000.00
00402               6.00     6200.00
00403               6.60     6200.00
00404               6.20     6000.00
00405               6.00     6200.00
00406               6.80     6200.00
00407               6.80     6200.00
00408               6.00     6200.00
00409               7.40     6200.00
00410               7.40     6200.00
00411               6.80     6000.00
00412               7.00     6200.00
00413               7.80     6200.00
00414               7.40     6200.00
00415               7.20     6200.00
00416               7.60     6200.00
00417               8.20     6200.00
00418               7.80     6200.00
00419               8.20     6400.00
00420               8.20     6400.00
00421               8.40     6400.00
00422               9.00     6400.00
00423               8.60     6400.00
00424               9.00     6200.00
00425               9.00     6400.00
00426               9.00     6400.00
00427               9.20     6400.00
00428               9.40     6400.00
00429               9.40     6400.00
00430              10.00     6400.00
00431              10.00     6400.00
00432              10.00     6400.00
00433              10.00     6400.00
00434              10.60     6400.00
00435              10.00     6400.00
00436              10.60     6400.00
00437              10.80     6400.00
00438              10.60     6400.00
00439              10.60     6400.00
00440              10.80     6400.00
00441              11.00     6400.00
00442              11.40     6400.00
00443              11.40     6400.00
00444              11.40     6600.00
00445              11.80     6400.00
00446              11.60     6400.00
00447              11.40     6400.00
00448              11.60     6400.00
00449              11.60     6400.00
00450              11.40     6400.00
00451              11.40     6400.00
00452              11.00     6400.00
00453              10.80     6400.00
00454              10.60     6400.00
00455              10.40     6400.00
00456              10.20     6400.00
00457              10.20     6600.00
00458              10.00     6400.00
00459              10.00     6400.00
00460               9.80     6400.00
00461               9.00     6400.00
00462               9.40     6400.00
00463               9.20     6400.00
00464               8.60     6400.00
00465               8.80     6400.00
00466               8.60     6400.00
00467               8.60     6200.00
00468               8.20     6400.00
00469               7.40     6400.00
00470               8.20     6200.00
00471               8.40     6200.00
00472               6.80     6400.00
00473               7.00     6200.00
00474               8.40     6400.00
00475               6.80     6400.00
00476               6.20     6400.00
00477               7.80     6200.00
00478               6.80     6200.00
00479               5.80     6200.00
00480               7.40     6200.00
00481               6.60     6200.00
00482               5.20     6200.00
00483               6.80     6200.00
00484               6.60     6000.00
00485               5.20     6200.00
00486               5.80     6000.00
00487               6.20     6200.00
00488               5.40     6200.00
00489               5.40     6000.00
00490               6.00     6000.00
00491               5.80     6000.00
00492               5.20     6200.00
00493               5.20     6000.00
00494               5.40     6000.00
00495               5.00     6000.00
00496               5.40     6000.00
00497               5.20     6000.00
00498               5.00     6000.00
00499               4.80     6000.00
00500               5.00     5800.00
00501               5.00     5600.00
00502               4.60     5800.00
00503               4.40     5600.00
00504               4.60     5600.00
00505               4.40     5600.00
00506               4.20     5600.00
00507               4.40     5600.00
00508               4.40     5600.00
00509               4.20     5400.00
00510               3.80     5600.00
00511               4.40     5400.00
00512               4.20     5400.00
00513               3.60     5400.00
00514               3.80     5400.00
00515               4.00     5400.00
00516               3.60     5200.00
00517               3.60     5400.00
00518               3.60     5400.00
00519               3.40     5200.00
00520               3.60     5200.00
00521               3.60     5200.00
00522               3.00     5200.00
00523               3.40     5200.00
00524               3.40     5000.00
00525               3.40     5200.00
00526               3.40     5000.00
00527               3.00     5000.00
00528               3.00     4800.00
00529               3.40     4800.00
00530               3.00     4800.00
00531               2.40     4800.00
00532               3.00     4600.00
00533               3.40     4600.00
00534               2.00     4600.00
00535               2.60     4600.00
00536               3.00     4400.00
00537               2.20     4600.00
00538               2.60     4600.00
00539               2.80     4400.00
00540               2.00     4400.00
00541               2.60     4400.00
00542               2.60     4400.00
00543               2.20     4400.00
00544               2.00     4400.00
00545               2.00     4400.00
00546               2.60     4200.00
00547               2.00     4400.00
00548               1.80     4000.00
00549               2.00     4000.00
00550               2.20     4000.00
00551               1.80     4000.00
00552               1.80     3800.00
00553               2.20     4000.00
00554               2.00     3800.00
00555               1.80     3800.00
00556               1.80     3600.00
00557               1.80     3800.00
00558               1.60     3800.00
00559               1.80     3600.00
00560               1.00     3600.00
00561               1.80     3600.00
00562               1.80     3600.00
00563               1.60     3600.00
00564               1.40     3600.00
00565               1.40     3600.00
00566               1.80     3400.00
00567               1.20     3200.00
00568               1.40     3200.00
00569               1.40     3200.00
00570               1.20     3200.00
00571               1.20     3200.00
00572               1.20     3000.00
00573               1.20     3200.00
00574               1.20     3000.00
00575               1.00     2800.00
00576               1.20     3000.00
00577               1.00     3000.00
00578               1.20     2800.00
00579               1.00     2800.00
00580               1.00     2600.00
00581               1.00     2800.00
00582               1.00     2600.00
00583               1.20     2400.00
00584               1.20     2600.00
00585               0.40     2400.00
00586               1.00     2400.00
00587               1.20     2400.00
00588               0.80     2200.00
00589               0.60     2200.00
00590               1.00     2000.00
00591               1.00     2200.00
00592               0.60     2200.00
00593               0.60     2000.00
00594               0.60     2000.00
00595               0.60     2000.00
00596               0.40     2000.00
00597               0.60     2000.00
00598               0.40     1800.00
00599               0.40     1600.00
00600               0.80     1800.00
00601               0.40     1600.00
00602               0.20     1800.00
00603               0.40     1400.00
00604               0.40     1400.00
00605               0.20     1400.00
00606               0.20     1200.00
00607               0.40     1400.00
00608               0.20     1200.00
00609               0.20     1200.00
00610               0.20     1200.00
00611               0.20     1200.00
00612               0.00     1200.00
00613               0.40     1000.00
00614              -0.20     1000.00
00615              -0.60      800.00
00616               0.20      800.00
00617               0.40      800.00
00618              -0.60      800.00
00619              -0.60      600.00
00620               0.40      600.00
00621               0.20      400.00
00622              -1.20      400.00
00623              -0.20      400.00
00624               1.00      200.00
00625              -1.20      400.00
00626              -1.00      400.00
00627               1.00      400.00
00628              -0.20        0.00
00629              -1.40        0.00
00630               0.00        0.00
00631               0.20        0.00
00632              -0.60        0.00
00633              -0.40        0.00
00634               1.00     -200.00
00635               0.40     -200.00
00636              -1.60     -200.00
00637              -0.60     -200.00
00638               1.00     -400.00
00639              -1.00     -400.00
00640               5.20     -400.00
00641              22.60     -800.00
00642             -18.80     -800.00
00643             -25.00     -800.00
00644              25.00     -400.00
00645              25.00     -800.00
00646             -23.40    -1000.00
00647             -25.00     -400.00
00648              25.00    -1000.00
00649              25.00     -800.00
00650             -25.00    -1400.00
00651             -25.00     -800.00
00652              25.00    -1200.00
00653              25.00    -1400.00
00654             -25.00    -1000.00
00655             -25.00    -1400.00
00656              25.00    -1400.00
00657              17.00    -1600.00
00658             -25.00    -1200.00
00659              25.00    -2000.00
00660              25.00    -1600.00
00661             -25.00    -1200.00
00662              -7.60    -1800.00
00663              25.00    -1800.00
00664             -25.00    -1600.00
00665             -25.00    -2000.00
00666              25.00    -2000.00
00667              25.00    -2000.00
00668             -25.00    -2000.00
00669              25.00    -2200.00
00670              25.00    -2000.00
00671             -25.00    -2000.00
00672             -25.00    -2400.00
00673              25.00    -2400.00
00674              -1.40    -2200.00
00675             -25.00    -2400.00
00676              25.00    -2600.00
00677              25.00    -2600.00
00678             -25.00    -2400.00
00679              -4.20    -2600.00
00680              25.00    -2600.00
00681             -25.00    -2600.00
00682             -25.00    -2800.00
00683              25.00    -2800.00
00684               1.00    -2800.00
00685             -25.00    -2800.00
00686              25.00    -3000.00
00687              25.00    -2800.00
00688             -25.00    -3000.00
00689              -3.80    -3000.00
00690              25.00    -3200.00
00691             -20.00    -3200.00
00692             -25.00    -3200.00
00693              25.00    -3200.00
00694               3.60    -3200.00
00695             -25.00    -3400.00
00696               9.00    -3400.00
00697              15.80    -3400.00
00698             -21.00    -3400.00
00699              -7.20    -3600.00
00700              16.40    -3600.00
00701              -7.40    -3600.00
00702             -15.60    -3600.00
00703               8.60    -3600.00
00704               4.40    -3600.00
00705             -17.00    -4000.00
00706               0.60    -4000.00
00707              10.00    -4000.00
00708             -11.60    -4000.00
00709              -8.60    -4000.00
00710              10.00    -4000.00
00711              -3.60    -4200.00
00712             -13.00    -4000.00
00713               4.20    -4200.00
00714               3.40    -4200.00
00715             -11.80    -4200.00
00716              -3.20    -4200.00
00717               5.20    -4400.00
00718              -6.60    -4400.00
00719              -8.40    -4400.00
00720               3.40    -4400.00
00721              -0.60    -4400.00
00722              -9.20    -4400.00
00723              -2.00    -4400.00
00724               1.80    -4600.00
00725              -6.20    -4600.00
00726              -6.00    -4600.00
00727               0.60    -4600.00
00728              -2.80    -4800.00
00729              -6.20    -4800.00
00730              -2.80    -4800.00
00731              -1.80    -4800.00
00732              -5.40    -4600.00
00733              -4.40    -4800.00
00734              -2.20    -5000.00
00735              -3.40    -5000.00
00736              -4.60    -5000.00
00737              -3.40    -5000.00
00738              -3.60    -5200.00
00739              -4.20    -5000.00
00740              -4.40    -5200.00
00741              -4.20    -5200.00
00742              -4.00    -5200.00
00743              -4.20    -5200.00
00744              -4.20    -5400.00
00745              -4.60    -5400.00
00746              -4.40    -5200.00
00747              -4.80    -5400.00
00748              -5.00    -5400.00
00749              -4.40    -5600.00
00750              -4.20    -5600.00
00751              -5.20    -5600.00
00752              -5.00    -5600.00
00753              -4.60    -5600.00
00754              -5.00    -5600.00
00755              -5.40    -5600.00
00756              -4.80    -5800.00
00757              -5.00    -5600.00
00758              -5.40    -6000.00
00759              -5.20    -5800.00
00760              -5.40    -5800.00
00761              -5.80    -5800.00
00762              -5.40    -5800.00
00763              -5.40    -5800.00
00764              -5.80    -5800.00
00765              -6.00    -6000.00
00766              -5.80    -6000.00
00767              -5.80    -6000.00
00768              -6.60    -6000.00
00769              -6.20    -6000.00
00770              -5.40    -6000.00
00771              -6.20    -6000.00
00772              -6.80    -6000.00
00773              -6.20    -6000.00
00774              -6.00    -6000.00
00775              -7.00    -6000.00
00776              -7.60    -6200.00
00777              -6.00    -6000.00
00778              -7.00    -6000.00
00779              -7.60    -6000.00
00780              -6.60    -6200.00
00781              -7.40    -6200.00
00782              -8.40    -6200.00
00783              -7.40    -6200.00
00784              -7.00    -6200.00
00785              -8.40    -6400.00
00786              -8.20    -6200.00
00787              -7.00    -6400.00
00788              -8.40    -6200.00
00789              -9.20    -6400.00
00790              -7.80    -6400.00
00791              -8.20    -6400.00
00792              -9.40    -6400.00
00793              -9.00    -6400.00
00794              -8.60    -6400.00
00795              -9.40    -6400.00
00796              -9.40    -6400.00
00797              -9.40    -6400.00
00798             -10.00    -6400.00
00799             -10.00    -6400.00
00800             -10.00    -6400.00
00801              -9.40    -6400.00
00802             -10.20    -6400.00
00803             -10.20    -6600.00
00804             -10.20    -6400.00
00805             -10.60    -6600.00
00806             -11.00    -6400.00
00807             -11.00    -6400.00
00808             -10.80    -6600.00
00809             -11.40    -6400.00
00810             -11.80    -6400.00
00811             -11.40    -6600.00
00812             -11.60    -6400.00
00813             -11.60    -6600.00
00814             -11.80    -6600.00
00815             -11.60    -6400.00
00816             -11.60    -6600.00
00817             -12.00    -6600.00
00818             -12.00    -6400.00
00819             -11.80    -6400.00
00820             -12.20    -6600.00
00821             -11.80    -6400.00
00822             -11.60    -6600.00
00823             -11.60    -6600.00
00824             -11.20    -6600.00
00825             -11.00    -6600.00
00826             -11.40    -6400.00
00827             -11.00    -6600.00
00828             -10.20    -6400.00
00829             -10.60    -6400.00
00830             -10.60    -6400.00
00831             -10.00    -6400.00
00832              -9.80    -6400.00
00833             -10.00    -6400.00
00834              -9.20    -6400.00
00835              -9.40    -6400.00
00836              -9.40    -6400.00
00837              -8.60    -6400.00
00838              -8.80    -6400.00
00839              -9.00    -6400.00
00840              -8.60    -6400.00
00841              -8.40    -6200.00
00842              -8.40    -6200.00
00843              -8.60    -6400.00
00844              -7.60    -6400.00
00845              -7.60    -6400.00
00846              -8.20    -6200.00
00847              -7.00    -6400.00
00848              -7.60    -6400.00
00849              -7.60    -6400.00
00850              -6.60    -6200.00
00851              -7.60    -6200.00
00852              -7.40    -6000.00
00853              -6.00    -6200.00
00854              -7.20    -6000.00
00855              -7.60    -6000.00
00856              -6.20    -6000.00
00857              -6.20    -6000.00
00858              -6.60    -6200.00
00859              -6.00    -6000.00
00860              -6.20    -6000.00
00861              -6.40    -6000.00
00862              -6.00    -6000.00
00863              -6.20    -6000.00
00864              -6.20    -6000.00
00865              -5.80    -6000.00
00866              -5.80    -6000.00
00867              -6.00    -6000.00
00868              -5.40    -5800.00
00869              -5.20    -5800.00
00870              -5.60    -5800.00
00871              -5.40    -6000.00
00872              -5.00    -5600.00
00873              -5.60    -5800.00
00874              -5.80    -5800.00
00875              -4.60    -5800.00
00876              -4.80    -5600.00
00877              -5.20    -5600.00
00878              -4.80    -5600.00
00879              -4.40    -5600.00
00880              -5.20    -5600.00
00881              -4.60    -5600.00
00882              -4.60    -5600.00
00883              -4.40    -5400.00
00884              -4.40    -5200.00
00885              -5.00    -5200.00
00886              -4.00    -5600.00
00887              -4.20    -5200.00
00888              -4.60    -5400.00
00889              -4.40    -5200.00
00890              -4.20    -5200.00
00891              -4.20    -5200.00
00892              -3.80    -5200.00
00893              -3.60    -5000.00
00894              -4.20    -5000.00
00895              -3.80    -5200.00
00896              -3.60    -5200.00
00897              -3.80    -5000.00
00898              -3.80    -5000.00
00899              -3.00    -4800.00
00900              -3.60    -4600.00
00901              -3.80    -4800.00
00902              -3.20    -4600.00
00903              -3.00    -4800.00
00904              -3.60    -4600.00
00905              -3.40    -4800.00
00906              -3.00    -4600.00
00907              -3.40    -4600.00
00908              -3.40    -4600.00
00909              -2.80    -4600.00
00910              -2.80    -4400.00
00911              -3.00    -4400.00
00912              -2.80    -4400.00
00913              -3.00    -4400.00
00914              -3.40    -4400.00
00915              -2.80    -4400.00
00916              -2.60    -4200.00
00917              -2.60    -4400.00
00918              -2.80    -4200.00
00919              -2.60    -4200.00
00920              -2.60    -4200.00
00921              -2.80    -4200.00
00922              -2.80    -4200.00
00923              -2.60    -4000.00
00924              -2.20    -4000.00
00925              -2.20    -4000.00
00926              -2.60    -4000.00
00927              -2.60    -3800.00
00928              -2.20    -3800.00
00929              -2.40    -3600.00
00930              -2.60    -3600.00
00931              -2.20    -3600.00
00932              -2.20    -3600.00
00933              -2.20    -3400.00
00934              -2.40    -3600.00
00935              -2.20    -3400.00
00936              -2.00    -3400.00
00937              -2.00    -3200.00
00938              -2.00    -3400.00
00939              -2.00    -3200.00
00940              -2.00    -3400.00
00941              -2.00    -3200.00
00942              -1.80    -3200.00
00943              -2.20    -3000.00
00944              -2.00    -3200.00
00945              -1.80    -2800.00
00946              -2.00    -3000.00
00947              -2.00    -2800.00
00948              -1.60    -2800.00
00949              -1.80    -2800.00
00950              -1.80    -2800.00
00951              -1.40    -2800.00
00952              -1.80    -2600.00
00953              -1.80    -2600.00
00954              -1.40    -2600.00
00955              -1.20    -2400.00
00956              -1.20    -2600.00
00957              -1.20    -2400.00
00958              -1.20    -2400.00
00959              -1.60    -2400.00
00960              -1.40    -2400.00
00961              -1.40    -2200.00
00962              -1.20    -2400.00
00963              -1.40    -2000.00
00964              -1.20    -2000.00
00965              -1.20    -2000.00
00966              -1.20    -2000.00
00967              -1.00    -1800.00
00968              -0.80    -2000.00
00969              -1.20    -1800.00
00970              -0.80    -1800.00
00971              -0.60    -1600.00
00972              -0.80    -1600.00
00973              -1.00    -1600.00
00974              -1.00    -1600.00
00975              -0.80    -1400.00
00976              -1.00    -1400.00
00977              -0.60    -1600.00
00978              -0.60    -1600.00
00979              -0.60    -1200.00
00980              -1.00    -1200.00
00981              -0.60    -1200.00
00982              -0.80    -1000.00
00983              -0.60    -1000.00
00984              -0.60    -1000.00
00985              -0.60    -1000.00
00986              -0.60     -800.00
00987              -0.40     -800.00
00988              -0.60     -800.00
00989              -0.80     -800.00
00990              -0.40     -600.00
00991              -0.60     -600.00
00992              -0.40     -600.00
00993              -0.40     -400.00
00994              -0.40     -400.00
00995              -0.60     -400.00
00996              -0.60     -400.00
00997              -0.60     -400.00
00998              -0.60     -400.00
00999              -0.20     -200.00
01000              -0.40     -200.00
01001              -0.60     -200.00
01002              -0.60        0.00
01003               0.20        0.00
01004               0.20        0.00
01005              -0.40        0.00
01006               0.40        0.00
01007               0.80      200.00
01008              -0.80      400.00
01009              -0.60      200.00
01010               0.40      400.00
01011               0.40      400.00
01012               2.80      600.00
01013              12.60      800.00
01014              -2.40      800.00
01015             -25.00      600.00
01016             -14.60      400.00
01017              25.00      800.00
01018              20.80      800.00
01019             -25.00      800.00
01020              -3.20      400.00
01021              25.00     1600.00
01022             -15.00      600.00
01023             -25.00     1600.00
01024              25.00      800.00
01025              25.00     1600.00
01026             -25.00      800.00
01027             -25.00     1600.00
01028              25.00     1200.00
01029             -12.00     1600.00
01030             -25.00     1400.00
01031              25.00     1800.00
01032              25.00     1600.00
01033             -25.00     1800.00
01034              18.00     1800.00
01035              25.00     1800.00
01036             -25.00     1800.00
01037             -25.00     2000.00
01038              25.00     1800.00
01039              25.00     2000.00
01040             -25.00     2200.00
01041              25.00     2000.00
01042              25.00     2200.00
01043             -25.00     2400.00
01044             -25.00     2200.00
01045              25.00     2000.00
01046               2.00     2400.00
01047             -25.00     2200.00
01048              25.00     2400.00
01049              25.00     2400.00
01050             -25.00     2800.00
01051              -7.40     2400.00
01052              25.00     2800.00
01053             -25.00     2600.00
01054             -25.00     2800.00
01055              25.00     2600.00
01056              10.40     3000.00
01057             -25.00     2800.00
01058              23.20     3000.00
01059              25.00     2800.00
01060             -25.00     3000.00
01061              -4.60     3000.00
01062              25.00     3200.00
01063             -10.80     3200.00
01064             -23.00     3200.00
01065              25.00     3200.00
01066               9.00     3400.00
01067             -24.80     3200.00
01068               7.60     3200.00
01069              22.00     3600.00
01070             -16.60     3600.00
01071              -5.20     3600.00
01072              19.40     3600.00
01073              -0.60     3600.00
01074             -14.00     3600.00
01075              12.20     3800.00
01076               9.40     3600.00
01077             -10.80     3800.00
01078               1.00     3800.00
01079              14.60     3800.00
01080              -5.00     3800.00
01081              -5.40     4000.00
01082              11.60     4000.00
01083               4.20     4200.00
01084              -7.80     4000.00
01085               5.20     4000.00
01086               9.40     4200.00
01087              -4.20     4200.00
01088              -0.60     4400.00
01089               8.80     4400.00
01090               1.40     4400.00
01091              -3.80     4400.00
01092               6.80     4400.00
01093               5.20     4400.00
01094              -1.80     4600.00
01095               2.20     4600.00
01096               7.60     4600.00
01097               0.40     4800.00
01098               0.00     4800.00
01099               5.80     4800.00
01100               4.20     4600.00
01101              -1.20     4800.00
01102               4.40     4800.00
01103               5.80     4800.00
01104               0.60     4800.00
01105               2.40     5000.00
01106               5.80     5000.00
01107               2.20     5200.00
01108               2.40     5000.00
01109               5.00     5000.00
01110               3.60     5200.00
01111               2.60     5200.00
01112               3.60     5200.00
01113               3.80     5200.00
01114               3.00     5400.00
01115               3.80     5200.00
01116               4.20     5400.00
01117               3.60     5400.00
01118               3.60     5400.00
01119               4.20     5400.00
01120               3.80     5600.00
01121               4.40     5400.00
01122               3.80     5600.00
01123               4.60     5600.00
01124               3.80     5400.00
01125               4.20     5600.00
01126               4.60     5600.00
01127               4.60     5600.00
01128               4.20     5600.00
01129               5.20     5600.00
01130               4.60     5600.00
01131               4.40     5800.00
01132               4.80     5800.00
01133               5.60     5800.00
01134               4.40     5800.00
01135               5.00     6000.00
01136               5.80     6000.00
01137               5.20     6000.00
01138               5.20     6000.00
01139               5.80     6000.00
01140               6.00     6000.00
01141               5.00     6000.00
01142               6.20     6000.00
01143               6.20     6000.00
01144               5.20     6000.00
01145               6.60     6000.00
01146               6.60     6000.00
01147               5.40     6200.00
01148               6.60     6200.00
01149               7.00     6000.00
01150               7.00     6200.00
01151               6.20     6200.00
01152               7.00     6200.00
01153               7.60     6200.00
01154               6.80     6200.00
01155               6.80     6200.00
01156               8.20     6200.00
01157               8.20     6200.00
01158               7.20     6200.00
01159               7.60     6400.00
01160               8.40     6400.00
01161               7.80     6400.00
01162               7.80     6400.00
01163               9.00     6400.00
01164               8.40     6400.00
01165               8.40     6400.00
01166               9.00     6200.00
01167               9.00     6400.00
01168               8.60     6400.00
01169               9.20     6400.00
01170               9.40     6400.00
01171               9.80     6400.00
01172               9.60     6400.00
01173              10.00     6400.00
01174              10.00     6400.00
01175              10.00     6200.00
01176              10.00     6400.00
01177              10.00     6400.00
01178              10.60     6400.00
01179              10.60     6400.00
01180              10.60     6400.00
01181              10.60     6400.00
01182              10.80     6400.00
01183              10.80     6400.00
01184              11.00     6400.00
01185              11.40     6400.00
01186              11.00     6400.00
01187              11.40     6400.00
01188              11.40     6400.00
01189              11.00     6400.00
01190              11.60     6400.00
01191              11.40     6400.00
01192              11.20     6400.00
01193              11.20     6400.00
01194              11.40     6400.00
01195              10.80     6400.00
01196              10.60     6600.00
01197              10.60     6400.00
01198              10.00     6400.00
01199              10.00     6400.00
01200              10.00     6400.00
01201               9.40     6400.00
01202               9.60     6400.00
01203               9.80     6400.00
01204               9.40     6400.00
01205               9.00     6400.00
01206               9.00     6400.00
01207               8.60     6200.00
01208               8.40     6400.00
01209               8.00     6400.00
01210               8.20     6400.00
01211               8.40     6400.00
01212               7.80     6400.00
01213               7.60     6200.00
01214               7.80     6400.00
01215               7.60     6400.00
01216               7.40     6400.00
01217               7.40     6400.00
01218               7.00     6200.00
01219               7.00     6200.00
01220               6.80     6200.00
01221               6.80     6200.00
01222               6.80     6200.00
01223               6.60     6200.00
01224               6.60     6200.00
01225               6.20     6200.00
01226               6.00     6200.00
01227               6.00     6000.00
01228               6.00     6000.00
01229               6.00     6000.00
01230               6.40     6000.00
01231               5.80     6000.00
01232               5.80     6000.00
01233               5.80     6000.00
01234               5.20     6000.00
01235               5.20     6000.00
01236               5.80     6000.00
01237               5.40     5800.00
01238               5.00     6000.00
01239               5.20     5800.00
01240               5.20     6000.00
01241               4.60     5800.00
01242               4.80     5800.00
01243               4.60     5600.00
01244               4.60     5800.00
01245               5.20     6000.00
01246               4.80     5600.00
01247               4.20     5600.00
01248               4.60     5600.00
01249               4.40     5600.00
01250               4.20     5600.00
01251               3.80     5400.00
01252               4.20     5600.00
01253               4.20     5600.00
01254               3.80     5400.00
01255               3.60     5400.00
01256               4.20     5400.00
01257               3.60     5400.00
01258               3.60     5400.00
01259               4.00     5400.00
01260               3.40     5400.00
01261               3.40     5200.00
01262               4.00     5200.00
01263               3.60     5400.00
01264               2.80     5200.00
01265               3.40     5200.00
01266               3.40     5000.00
01267               3.00     5000.00
01268               2.80     5200.00
01269               3.40     4800.00
01270               3.20     4800.00
01271               2.60     4800.00
01272               2.80     4800.00
01273               3.00     4800.00
01274               2.60     4800.00
01275               3.00     4800.00
01276               2.80     4600.00
01277               2.60     4600.00
01278               2.60     4400.00
01279               2.60     4600.00
01280               2.20     4600.00
01281               2.20     4600.00
01282               2.80     4600.00
01283               2.80     4400.00
01284               2.40     4400.00
01285               2.60     4400.00
01286               2.20     4400.00
01287               2.00     4400.00
01288               2.40     4400.00
01289               2.20     4200.00
01290               2.40     4200.00
01291               2.20     4000.00
01292               1.80     4000.00
01293               2.00     4000.00
01294               2.20     4000.00
01295               2.00     4000.00
01296               2.00     3800.00
01297               2.00     4000.00
01298               2.00     3800.00
01299               1.80     3800.00
01300               1.80     3600.00
01301               1.80     3800.00
01302               1.80     3600.00
01303               1.40     3600.00
01304               1.80     3600.00
01305               1.80     3600.00
01306               1.80     3600.00
01307               1.60     3400.00
01308               2.00     3400.00
01309               1.40     3200.00
01310               1.20     3200.00
01311               1.80     3200.00
01312               1.60     3200.00
01313               1.40     3200.00
01314               1.20     3200.00
01315               1.20     3000.00
01316               1.40     3000.00
01317               1.00     3000.00
01318               1.00     3000.00
01319               1.40     2800.00
01320               1.40     3000.00
01321               0.40     2800.00
01322               1.00     2800.00
01323               1.20     2600.00
01324               0.60     2600.00
01325               1.00     2600.00
01326               1.00     2600.00
01327               1.00     2400.00
01328               1.00     2400.00
01329               0.80     2600.00
01330               0.40     2400.00
01331               0.60     2200.00
01332               0.60     2400.00
01333               0.40     2200.00
01334               0.40     2200.00
01335               0.60     2000.00
01336               0.60     2000.00
01337               0.40     2000.00
01338               0.60     2000.00
01339               0.40     2000.00
01340               0.40     2000.00
01341               0.60     1800.00
01342               0.40     1800.00
01343               0.40     1800.00
01344               1.00     1800.00
01345               0.80     1600.00
01346               0.20     1600.00
01347               0.20     1400.00
01348               0.40     1400.00
01349              -0.20     1400.00
01350               0.20     1200.00
01351               0.40     1200.00
01352               0.20     1200.00
01353               0.60     1200.00
01354               0.20     1200.00
01355               0.60     1000.00
01356               0.40     1200.00
01357              -0.20      800.00
01358               0.20      800.00
01359               0.40      800.00
01360              -0.40      800.00
01361               0.20      600.00
01362               0.40      600.00
01363              -0.20      600.00
01364              -0.20      400.00
01365               0.20      400.00
01366               0.20      400.00
01367              -0.20      200.00
01368               0.20      400.00
01369              -0.20      400.00
01370              -0.40      400.00
01371              -0.40        0.00
01372               0.00      200.00
01373              -0.60        0.00
01374               0.20        0.00
01375               0.20        0.00
01376              -0.20        0.00
01377               0.20     -200.00
01378               0.40     -200.00
01379              -0.40     -200.00
01380              -0.60     -200.00
01381              -0.40     -200.00
01382              -0.40     -400.00
01383               4.60     -400.00
01384              21.20     -800.00
01385             -14.80     -800.00
01386             -25.00     -800.00
01387              18.00     -400.00
01388              25.00     -800.00
01389             -10.00    -1000.00
01390             -25.00     -800.00
01391              25.00     -800.00
01392              25.00    -1000.00
01393             -25.00    -1400.00
01394             -25.00     -600.00
01395              25.00    -1200.00
01396              25.00    -1600.00
01397             -25.00    -1000.00
01398             -25.00    -1200.00
01399              25.00    -1400.00
01400              25.00    -1600.00
01401             -25.00    -1000.00
01402              25.00    -2000.00
01403              25.00    -1600.00
01404             -25.00    -1600.00
01405             -25.00    -1800.00
01406              25.00    -1800.00
01407             -15.80    -1600.00
01408             -25.00    -1800.00
01409              25.00    -2000.00
01410              25.00    -2000.00
01411             -25.00    -2000.00
01412              25.00    -2400.00
01413              25.00    -2000.00
01414             -25.00    -2200.00
01415             -25.00    -2400.00
01416              25.00    -2400.00
01417              14.60    -2200.00
01418             -25.00    -2400.00
01419              25.00    -2400.00
01420              25.00    -2400.00
01421             -25.00    -2400.00
01422             -18.80    -2600.00
01423              25.00    -2600.00
01424             -25.00    -2600.00
01425             -25.00    -2800.00
01426              25.00    -2800.00
01427              13.00    -2800.00
01428             -25.00    -2800.00
01429              25.00    -3000.00
01430              25.00    -3000.00
01431             -25.00    -3000.00
01432             -10.00    -3200.00
01433              25.00    -3200.00
01434             -15.20    -3200.00
01435             -25.00    -3200.00
01436              25.00    -3200.00
01437               7.60    -3400.00
01438             -25.00    -3200.00
01439               5.80    -3400.00
01440              18.60    -3400.00
01441             -19.40    -3400.00
01442              -9.80    -3600.00
01443              17.00    -3600.00
01444              -5.20    -3600.00
01445             -17.40    -3600.00
01446               7.60    -3600.00
01447               6.00    -3600.00
01448             -17.00    -3800.00
01449              -1.20    -3800.00
01450              11.00    -4000.00
01451             -10.20    -3800.00
01452             -10.60    -4000.00
01453               9.20    -4000.00
01454              -2.20    -4200.00
01455             -13.80    -4200.00
01456               2.40    -4000.00
01457               4.60    -4200.00
01458             -11.40    -4200.00
01459              -4.60    -4200.00
01460               5.40    -4400.00
01461              -6.00    -4400.00
01462              -8.60    -4400.00
01463               2.60    -4400.00
01464              -0.20    -4400.00
01465              -8.60    -4600.00
01466              -2.80    -4600.00
01467               1.00    -4600.00
01468              -5.40    -4600.00
01469              -6.00    -4800.00
01470              -0.40    -4600.00
01471              -2.80    -4600.00
01472              -5.80    -4800.00
01473              -3.00    -4800.00
01474              -1.80    -4600.00
01475              -4.80    -4800.00
01476              -4.60    -5000.00
01477              -2.20    -5000.00
01478              -3.00    -4600.00
01479              -4.20    -5000.00
01480              -3.40    -5000.00
01481              -4.40    -5000.00
01482              -4.20    -5000.00
01483              -3.60    -5200.00
01484              -4.40    -5000.00
01485              -4.40    -5200.00
01486              -3.60    -5400.00
01487              -3.80    -5200.00
01488              -4.60    -5600.00
01489              -3.80    -5200.00
01490              -4.60    -5600.00
01491              -4.40    -5400.00
01492              -3.80    -5600.00
01493              -4.60    -5400.00
01494              -4.60    -5600.00
01495              -4.20    -5600.00
01496              -5.00    -5600.00
01497              -5.20    -5600.00
01498              -4.60    -5600.00
01499              -5.00    -5800.00
01500              -5.00    -5800.00
01501              -5.00    -5600.00
01502              -5.00    -5600.00
01503              -4.60    -5800.00
01504              -6.20    -5800.00
01505              -6.40    -5800.00
01506              -5.00    -5800.00
01507              -5.20    -5800.00
01508              -6.00    -6000.00
01509              -5.40    -6000.00
01510              -5.40    -5800.00
01511              -6.20    -6000.00
01512              -6.80    -6000.00
01513              -6.20    -6000.00
01514              -6.20    -6000.00
01515              -7.00    -6000.00
01516              -6.00    -6000.00
01517              -6.00    -6000.00
01518              -7.60    -6000.00
01519              -7.40    -6000.00
01520              -6.60    -6200.00
01521              -7.60    -6200.00
01522              -7.60    -6200.00
01523              -6.60    -6200.00
01524              -7.20    -6400.00
01525              -7.80    -6200.00
01526              -7.80    -6400.00
01527              -7.60    -6400.00
01528              -8.60    -6200.00
01529              -8.40    -6400.00
01530              -7.40    -6400.00
01531              -8.20    -6400.00
01532              -9.40    -6400.00
01533              -8.20    -6400.00
01534              -9.20    -6400.00
01535              -9.40    -6400.00
01536              -8.60    -6400.00
01537              -9.00    -6400.00
01538              -9.40    -6400.00
01539              -9.40    -6400.00
01540              -9.60    -6400.00
01541              -9.40    -6400.00
01542              -9.40    -6400.00
01543             -10.40    -6400.00
01544              -9.80    -6400.00
01545              -9.80    -6400.00
01546             -10.60    -6400.00
01547             -10.80    -6400.00
01548             -10.00    -6400.00
01549             -11.00    -6400.00
01550             -11.00    -6400.00
01551             -10.60    -6400.00
01552             -10.80    -6400.00
01553             -11.80    -6600.00
01554             -11.00    -6400.00
01555             -11.00    -6600.00
01556             -11.60    -6600.00
01557             -11.80    -6400.00
01558             -11.60    -6400.00
01559             -11.40    -6400.00
01560             -11.60    -6400.00
01561             -12.20    -6600.00
01562             -12.20    -6400.00
01563             -11.40    -6400.00
01564             -12.40    -6400.00
01565             -12.40    -6400.00
01566             -10.60    -6400.00
01567             -11.00    -6400.00
01568             -12.20    -6600.00
01569             -10.80    -6400.00
01570             -10.20    -6400.00
01571             -11.40    -6400.00
01572             -11.00    -6400.00
01573              -9.20    -6400.00
01574              -9.40    -6600.00
01575             -10.60    -6600.00
01576              -9.80    -6400.00
01577              -9.20    -6400.00
01578             -10.00    -6400.00
01579             -10.20    -6400.00
01580              -9.00    -6400.00
01581              -8.40    -6400.00
01582              -9.00    -6400.00
01583              -9.00    -6400.00
01584              -8.20    -6400.00
01585              -8.40    -6400.00
01586              -9.00    -6400.00
01587              -8.40    -6400.00
01588              -7.40    -6400.00
01589              -7.60    -6200.00
01590              -8.00    -6400.00
01591              -7.60    -6200.00
01592              -7.40    -6200.00
01593              -8.20    -6400.00
01594              -7.60    -6200.00
01595              -7.00    -6200.00
01596              -7.40    -6000.00
01597              -6.60    -6200.00
01598              -7.00    -6200.00
01599              -6.80    -6200.00
01600              -6.80    -6200.00
01601              -6.40    -6000.00
01602              -6.40    -6000.00
01603              -6.20    -6200.00
01604              -6.20    -6000.00
01605              -5.40    -6000.00
01606              -6.60    -6000.00
01607              -6.60    -6000.00
01608              -5.20    -6000.00
01609              -6.60    -5800.00
01610              -5.40    -6000.00
01611              -5.20    -5800.00
01612              -5.40    -6000.00
01613              -5.00    -5800.00
01614              -6.20    -5800.00
01615              -6.20    -5800.00
01616              -3.00    -5800.00
01617              -5.20    -5800.00
01618              -7.40    -5600.00
01619              -2.80    -5600.00
01620              -3.80    -5600.00
01621              -8.20    -5600.00
01622              -3.60    -5600.00
01623              -2.80    -5600.00
01624              -7.00    -5600.00
01625              -4.40    -5400.00
01626              -2.20    -5200.00
01627              -5.40    -5400.00
01628              -5.20    -5400.00
01629              -3.00    -5200.00
01630              -4.40    -5200.00
01631              -4.60    -5400.00
01632              -3.00    -5200.00
01633              -3.60    -5200.00
01634              -4.40    -5200.00
01635              -3.60    -5200.00
01636              -3.80    -5000.00
01637              -3.80    -5000.00
01638              -3.60    -5000.00
01639              -3.60    -5000.00
01640              -3.60    -5000.00
01641              -4.00    -4800.00
01642              -3.80    -5000.00
01643              -3.80    -4800.00
01644              -3.60    -4800.00
01645              -3.00    -4600.00
01646              -3.20    -4600.00
01647              -3.40    -4800.00
01648              -3.40    -4600.00
01649              -3.60    -4600.00
01650              -3.40    -4600.00
01651              -3.80    -4600.00
01652              -3.00    -4400.00
01653              -2.80    -4600.00
01654              -2.80    -4400.00
01655              -2.60    -4400.00
01656              -3.80    -4400.00
01657              -3.00    -4400.00
01658              -1.20    -4400.00
01659              -3.80    -4200.00
01660              -4.60    -4200.00
01661              -0.20    -4200.00
01662              -2.80    -4200.00
01663              -5.20    -4200.00
01664              -1.20    -4000.00
01665              -1.40    -4000.00
01666              -3.60    -4000.00
01667              -4.00    -4000.00
01668               0.20    -4000.00
01669              -2.20    -4000.00
01670              -4.60    -3800.00
01671              -0.80    -3800.00
01672              -1.00    -3800.00
01673              -4.40    -3600.00
01674              -3.20    -3600.00
01675               0.60    -3600.00
01676              -2.20    -3600.00
01677              -5.80    -3600.00
01678               0.20    -3600.00
01679               0.00    -3200.00
01680              -4.40    -3400.00
01681              -2.80    -3200.00
01682               0.60    -3400.00
01683              -1.80    -3200.00
01684              -4.60    -3200.00
01685              -0.60    -3200.00
01686               0.40    -3000.00
01687              -4.20    -3200.00
01688              -2.60    -3200.00
01689               0.60    -3000.00
01690              -2.20    -2800.00
01691              -4.00    -2800.00
01692              -0.20    -2800.00
01693              -0.20    -2800.00
01694              -2.60    -2600.00
01695              -1.20    -2600.00
01696              -0.60    -2600.00
01697              -2.40    -2600.00
01698              -2.00    -2400.00
01699              -0.60    -2400.00
01700              -1.00    -2400.00
01701              -2.00    -2400.00
01702              -1.00    -2400.00
01703              -0.80    -2200.00
01704              -2.20    -2200.00
01705              -1.80    -2000.00
01706              -0.80    -2200.00
01707              -1.00    -2000.00
01708              -1.20    -2000.00
01709              -1.00    -2000.00
01710              -1.20    -2000.00
01711              -1.20    -2000.00
01712              -1.00    -1800.00
01713              -1.40    -1800.00
01714              -1.20    -1600.00
01715              -0.60    -1600.00
01716              -1.00    -1600.00
01717              -1.40    -1600.00
01718              -1.20    -1600.00
01719              -0.60    -1600.00
01720              -0.40    -1400.00
01721              -1.40    -1200.00
01722              -1.00    -1200.00
01723              -0.20    -1200.00
01724              -1.20    -1200.00
01725              -2.00    -1000.00
01726              -0.40    -1000.00
01727               0.20    -1000.00
01728              -1.40     -800.00
01729              -1.00    -1000.00
01730              -0.20     -800.00
01731              -1.00     -800.00
01732              -1.40     -800.00
01733              -0.60     -600.00
01734              -0.20     -600.00
01735              -1.20     -600.00
01736              -0.60     -400.00
01737               0.40     -400.00
01738              -1.20     -400.00
01739              -1.40     -400.00
01740               0.20     -400.00
01741              -0.20     -200.00
01742              -1.00     -200.00
01743               0.40     -200.00
01744              -0.20     -200.00
01745              -1.20        0.00
01746               0.20        0.00
01747               0.40        0.00
01748              -0.60        0.00
01749               0.20        0.00
01750               1.20      200.00
01751              -0.60      200.00
01752              -0.80      200.00
01753               0.60      400.00
01754               0.60      400.00
01755               2.20      600.00
01756              13.20      800.00
01757               0.20      800.00
01758             -25.00      800.00
01759             -19.80      400.00
01760              25.00      800.00
01761              25.00     1000.00
01762             -25.00      800.00
01763             -17.80      400.00
01764              25.00     1400.00
01765               4.20      400.00
01766             -25.00     1600.00
01767              25.00      600.00
01768              25.00     2000.00
01769             -25.00      600.00
01770             -25.00     1800.00
01771              25.00     1200.00
01772               7.40     1400.00
01773             -25.00     1400.00
01774              25.00     1800.00
01775              25.00     1400.00
01776             -25.00     1800.00
01777              -1.20     1600.00
01778              25.00     1800.00
01779             -25.00     1800.00
01780             -25.00     2000.00
01781              25.00     1600.00
01782              25.00     2000.00
01783             -25.00     2200.00
01784              19.40     2000.00
01785              25.00     2200.00
01786             -25.00     2200.00
01787             -25.00     2200.00
01788              25.00     2000.00
01789              15.60     2600.00
01790             -25.00     2200.00
01791              25.00     2400.00
01792              25.00     2400.00
01793             -25.00     2800.00
01794             -17.80     2400.00
01795              25.00     2800.00
01796             -24.20     2800.00
01797             -25.00     2800.00
01798              25.00     2600.00
01799              19.40     3000.00
01800             -25.00     2800.00
01801              17.80     3000.00
01802              25.00     2800.00
01803             -25.00     3200.00
01804             -10.80     3000.00
01805              25.00     3200.00
01806              -6.00     3200.00
01807             -25.00     3200.00
01808              25.00     3200.00
01809              13.40     3400.00
01810             -25.00     3400.00
01811               5.20     3200.00
01812              25.00     3600.00
01813             -16.60     3600.00
01814              -9.60     3600.00
01815              22.00     3600.00
01816               3.40     3600.00
01817             -17.40     3600.00
01818              11.60     3800.00
01819              12.40     3800.00
01820             -11.80     3800.00
01821              -0.40     3800.00
01822              15.80     4000.00
01823              -3.00     3800.00
01824              -6.80     4000.00
01825              11.00     4000.00
01826               5.00     4000.00
01827              -7.20     4000.00
01828               4.20     4200.00
01829               9.40     4200.00
01830              -3.00     4200.00
01831              -0.40     4400.00
01832               7.60     4400.00
01833               2.00     4400.00
01834              -2.60     4400.00
01835               6.60     4600.00
01836               5.00     4400.00
01837              -1.40     4600.00
01838               2.00     4600.00
01839               6.80     4600.00
01840              -0.20     4400.00
01841               0.40     4800.00
01842               5.80     4800.00
01843               3.40     4800.00
01844              -0.20     4600.00
01845               4.60     5000.00
01846               4.40     4800.00
01847               0.60     5000.00
01848               2.20     4800.00
01849               5.80     5200.00
01850               2.60     4800.00
01851               1.60     5200.00
01852               4.60     5200.00
01853               3.40     5200.00
01854               2.00     5200.00
01855               3.60     5200.00
01856               4.20     5400.00
01857               2.60     5400.00
01858               3.80     5400.00
01859               3.80     5400.00
01860               3.60     5400.00
01861               3.60     5400.00
01862               4.40     5600.00
01863               3.40     5400.00
01864               3.80     5600.00
01865               4.20     5600.00
01866               4.80     5600.00
01867               3.80     5600.00
01868               4.60     5600.00
01869               4.60     5600.00
01870               4.20     5800.00
01871               4.20     5600.00
01872               4.60     5600.00
01873               5.00     6000.00
01874               5.00     5800.00
01875               5.00     6000.00
01876               5.20     5800.00
01877               5.20     6000.00
01878               5.20     6000.00
01879               5.40     6000.00
01880               5.80     6000.00
01881               5.40     6000.00
01882               5.60     6000.00
01883               5.80     6000.00
01884               5.40     6000.00
01885               6.00     6200.00
01886               6.00     6000.00
01887               5.80     6200.00
01888               6.00     6200.00
01889               6.80     6000.00
01890               6.60     6200.00
01891               6.60     6200.00
01892               6.60     6000.00
01893               6.80     6200.00
01894               6.80     6200.00
01895               7.00     6200.00
01896               7.40     6200.00
01897               7.00     6400.00
01898               7.00     6200.00
01899               7.80     6200.00
01900               7.60     6400.00
01901               7.40     6400.00
01902               7.40     6200.00
01903               8.20     6200.00
01904               8.40     6400.00
01905               8.20     6400.00
01906               8.20     6400.00
01907               8.40     6400.00
01908               8.60     6400.00
01909               8.20     6400.00
01910               9.20     6400.00
01911               9.00     6200.00
01912               8.60     6400.00
01913               9.40     6400.00
01914               9.20     6400.00
01915               9.00     6400.00
01916              10.00     6400.00
01917               9.80     6400.00
01918               9.80     6400.00
01919              10.40     6400.00
01920              10.20     6400.00
01921              10.00     6400.00
01922              10.00     6400.00
01923              10.60     6400.00
01924              10.80     6400.00
01925              10.60     6400.00
01926              10.80     6600.00
01927              11.20     6400.00
01928              11.00     6400.00
01929              11.00     6600.00
01930              11.00     6400.00
01931              11.40     6400.00
01932              11.40     6400.00
01933              11.60     6400.00
01934              11.60     6400.00
01935              11.20     6400.00
01936              11.60     6400.00
01937              11.40     6400.00
01938              10.00     6400.00
01939              11.40     6400.00
01940              11.40     6400.00
01941               9.80     6400.00
01942              10.80     6400.00
01943              10.60     6400.00
01944               9.20     6400.00
01945               9.80     6400.00
01946              10.00     6400.00
01947               9.00     6400.00
01948               8.40     6400.00
01949               9.40     6400.00
01950               9.40     6400.00
01951               8.40     6400.00
01952               7.60     6400.00
01953               9.00     6400.00
01954               8.60     6400.00
01955               7.00     6400.00
01956               8.20     6200.00
01957               8.80     6200.00
01958               7.40     6400.00
01959               6.80     6200.00
01960               8.40     6200.00
01961               7.60     6400.00
01962               5.80     6400.00
01963               7.80     6200.00
01964               7.60     6200.00
01965               5.80     6200.00
01966               6.60     6200.00
01967               7.00     6200.00
01968               6.00     6200.00
01969               5.80     6000.00
01970               6.60     6000.00
01971               6.60     6200.00
01972               5.40     6000.00
01973               5.80     6000.00
01974               6.20     6000.00
01975               5.00     6200.00
01976               5.00     6000.00
01977               6.40     6000.00
01978               5.40     6000.00
01979               5.00     6000.00
01980               5.40     6000.00
01981               5.20     6000.00
01982               4.20     6000.00
01983               5.20     6000.00
01984               5.00     6000.00
01985               4.60     5800.00
01986               5.00     5600.00
01987               5.20     5800.00
01988               4.20     5800.00
01989               4.20     5800.00
01990               4.60     5600.00
01991               4.40     5600.00
01992               3.60     5600.00
01993               4.60     5600.00
01994               4.20     5600.00
01995               3.60     5600.00
01996               4.20     5400.00
01997               3.80     5400.00
01998               3.40     5600.00
01999               4.40     5600.00
02000               3.60     5400.00
02001               3.40     5600.00
02002               4.20     5400.00
02003               3.80     5400.00
02004               3.00     5200.00
02005               4.20     5400.00
02006               3.60     5200.00
02007               3.40     5400.00
02008               3.80     5200.00
02009               3.20     5200.00
02010               3.00     5000.00
02011               3.80     5200.00
02012               2.80     4800.00
02013               2.80     5000.00
02014               3.40     5000.00
02015               3.00     4800.00
02016               2.60     4800.00
02017               3.20     4600.00
02018               3.00     4800.00
02019               2.60     4800.00
02020               3.00     4800.00
02021               3.00     4400.00
02022               2.20     4600.00
02023               2.60     4600.00
02024               3.40     4600.00
02025               2.60     4600.00
02026               2.00     4400.00
02027               2.60     4600.00
02028               2.80     4400.00
02029               2.20     4400.00
02030               2.00     4200.00
02031               2.60     4200.00
02032               2.60     4200.00
02033               1.40     4200.00
02034               2.00     4000.00
02035               2.60     4200.00
02036               1.80     4000.00
02037               1.80     4000.00
02038               2.60     3800.00
02039               2.20     4000.00
02040               1.20     3800.00
02041               2.00     3800.00
02042               2.60     3800.00
02043               1.00     3800.00
02044               1.80     3600.00
02045               2.00     3800.00
02046               1.00     3600.00
02047               2.00     3600.00
02048               1.40     3600.00
02049               1.80     3600.00
02050               1.80     3600.00
02051               1.00     3400.00
02052               1.40     3200.00
02053               1.80     3200.00
02054               1.00     3200.00
02055               1.40     3200.00
02056               1.20     3200.00
02057               0.60     3000.00
02058               1.60     3000.00
02059               1.60     3200.00
02060               0.40     3000.00
02061               1.40     2800.00
02062               1.80     3000.00
02063               0.60     3000.00
02064               0.80     2800.00
02065               1.80     2800.00
02066               1.20     2800.00
02067               0.60     2600.00
02068               1.20     2800.00
02069               1.20     2600.00
02070               0.60     2400.00
02071               1.00     2400.00
02072               1.00     2400.00
02073               0.60     2400.00
02074               1.20     2400.00
02075               0.60     2200.00
02076               0.40     2200.00
02077               1.20     2000.00
02078               1.00     2000.00
02079               0.40     2000.00
02080               0.40     2000.00
02081               1.00     2000.00
02082               0.60     2000.00
02083               0.60     2000.00
02084               0.40     2000.00
02085               0.40     1800.00
02086               0.60     1600.00
02087               0.40     1800.00
02088               0.20     1600.00
02089               0.40     1600.00
02090               0.40     1600.00
02091               0.40     1400.00
02092               0.40     1400.00
02093               0.40     1200.00
02094               0.20     1200.00
02095               0.40     1200.00
02096               0.40     1200.00
02097               0.20     1200.00
02098               0.20     1000.00
02099               0.20     1000.00
02100              -0.40     1000.00
02101               0.00      800.00
02102               0.00      800.00
02103              -0.40      600.00
02104              -0.20      800.00
02105               0.20      600.00
02106              -0.20      600.00
02107              -0.20      600.00
02108               0.20      400.00
02109              -0.40      400.00
02110              -0.20      400.00
02111              -0.20      400.00
02112              -0.40      400.00
02113              -0.40      200.00
02114              -0.20        0.00
02115              -0.20        0.00
02116              -0.20        0.00
02117              -0.80        0.00
02118              -0.60     -200.00
02119               0.20     -200.00
02120              -0.60     -200.00
02121              -0.40     -200.00
02122               0.40     -200.00
02123              -1.00     -200.00
02124              -0.60     -400.00
02125               0.00     -200.00
02126               4.20     -400.00
02127              21.00     -600.00
02128              -9.40     -800.00
02129             -25.00     -800.00
02130               6.20     -400.00
02131              25.00     -800.00
02132               1.60     -800.00
02133             -25.00    -1000.00
02134              25.00     -600.00
02135              25.00    -1000.00
02136             -25.00    -1200.00
02137             -25.00     -800.00
02138              25.00    -1200.00
02139              25.00    -1200.00
02140             -25.00    -1000.00
02141             -25.00    -1200.00
02142              25.00    -1200.00
02143              25.00    -1800.00
02144             -25.00    -1000.00
02145              25.00    -1800.00
02146              25.00    -1600.00
02147             -25.00    -1600.00
02148             -25.00    -1600.00
02149              25.00    -2000.00
02150               8.40    -1600.00
02151             -25.00    -1800.00
02152              25.00    -2000.00
02153              25.00    -2000.00
02154             -25.00    -1800.00
02155              25.00    -2400.00
02156              25.00    -2000.00
02157             -25.00    -2200.00
02158             -25.00    -2400.00
02159              25.00    -2400.00
02160              25.00    -2200.00
02161             -25.00    -2400.00
02162              25.00    -2400.00
02163              25.00    -2400.00
02164             -25.00    -2400.00
02165             -25.00    -2600.00
02166              25.00    -2600.00
02167             -24.20    -2600.00
02168             -25.00    -2800.00
02169              25.00    -2600.00
02170              24.20    -2800.00
02171             -25.00    -2800.00
02172              17.80    -3000.00
02173              25.00    -3200.00
02174             -25.00    -3200.00
02175             -17.20    -3000.00
02176              25.00    -3200.00
02177              -8.60    -3200.00
02178             -25.00    -3200.00
02179              20.60    -3400.00
02180              13.40    -3200.00
02181             -25.00    -3400.00
02182              -0.20    -3400.00
02183              20.40    -3400.00
02184             -15.40    -3600.00
02185             -14.00    -3600.00
02186              16.40    -3600.00
02187              -1.20    -3600.00
02188             -18.80    -3600.00
02189               4.80    -3600.00
02190               9.00    -3800.00
02191             -16.20    -3800.00
02192              -4.20    -3800.00
02193              11.80    -4000.00
02194              -7.80    -4000.00
02195             -12.20    -4000.00
02196               8.20    -4000.00
02197               0.20    -4000.00
02198             -14.20    -4200.00
02199               1.00    -4000.00
02200               5.80    -4200.00
02201             -10.60    -4200.00
02202              -5.80    -4400.00
02203               5.80    -4400.00
02204              -5.00    -4400.00
02205              -9.20    -4400.00
02206               2.00    -4400.00
02207               1.00    -4600.00
02208              -8.40    -4400.00
02209              -3.40    -4600.00
02210               1.40    -4400.00
02211              -4.40    -4400.00
02212              -6.80    -4600.00
02213              -0.60    -4600.00
02214              -1.80    -4800.00
02215              -6.00    -4600.00
02216              -3.00    -5000.00
02217              -1.00    -4600.00
02218              -4.60    -4800.00
02219              -5.00    -5000.00
02220              -2.20    -4800.00
02221              -2.80    -4800.00
02222              -4.60    -4800.00
02223              -3.60    -5000.00
02224              -3.40    -5000.00
02225              -4.20    -5200.00
02226              -4.20    -5200.00
02227              -4.20    -5200.00
02228              -4.20    -5200.00
02229              -3.80    -5200.00
02230              -4.20    -5400.00
02231              -4.40    -5200.00
02232              -3.80    -5200.00
02233              -4.60    -5400.00
02234              -5.40    -5600.00
02235              -4.40    -5600.00
02236              -3.80    -5400.00
02237              -5.20    -5600.00
02238              -5.40    -5600.00
02239              -4.20    -5600.00
02240              -5.00    -5600.00
02241              -6.20    -5600.00
02242              -4.40    -5600.00
02243              -5.00    -5600.00
02244              -6.20    -5600.00
02245              -5.00    -5800.00
02246              -4.60    -5800.00
02247              -6.20    -6000.00
02248              -6.00    -5800.00
02249              -4.40    -5800.00
02250              -5.80    -6000.00
02251              -7.00    -6000.00
02252              -5.20    -5800.00
02253              -5.40    -6000.00
02254              -7.60    -6000.00
02255              -6.20    -5800.00
02256              -5.40    -6000.00
02257              -6.60    -6000.00
02258              -6.00    -6000.00
02259              -5.20    -6000.00
02260             -10.80    -6000.00
02261              -2.80    -6000.00
02262             -10.40    -6000.00
02263             -11.00    -6200.00
02264              -0.60    -6000.00
02265              -8.40    -6200.00
02266              -1.80    -6000.00
02267              -7.60    -6200.00
02268              -9.80    -6200.00
02269             -10.00    -6200.00
02270              -9.40    -6200.00
02271              -9.80    -6200.00
02272              -8.80    -6400.00
02273              -5.20    -6200.00
02274              -2.60    -6400.00
02275             -10.00    -6400.00
02276             -10.20    -6400.00
02277              -3.80    -6400.00
02278             -16.60    -6400.00
02279              -7.60    -6400.00
02280             -12.60    -6400.00
02281              -6.20    -6400.00
02282              -4.40    -6600.00
02283             -11.20    -6400.00
02284              -8.40    -6400.00
02285              -8.60    -6400.00
02286             -12.60    -6600.00
02287             -12.40    -6400.00
02288              -9.20    -6400.00
02289             -10.20    -6400.00
02290              -8.60    -6400.00
02291             -10.40    -6400.00
02292             -10.20    -6400.00
02293             -10.20    -6400.00
02294             -12.20    -6600.00
02295             -11.00    -6600.00
02296             -10.80    -6400.00
02297             -12.40    -6600.00
02298             -11.40    -6600.00
02299             -11.60    -6400.00
02300             -11.00    -6400.00
02301             -11.80    -6600.00
02302             -11.20    -6400.00
02303             -12.20    -6600.00
02304             -12.20    -6400.00
02305             -12.20    -6600.00
02306             -12.60    -6400.00
02307             -11.80    -6600.00
02308             -10.80    -6400.00
02309             -13.60    -6600.00
02310             -11.00    -6400.00
02311             -10.20    -6400.00
02312             -11.60    -6400.00
02313             -11.20    -6600.00
02314             -10.80    -6600.00
02315             -11.00    -6400.00
02316             -10.80    -6400.00
02317              -9.80    -6400.00
02318             -10.00    -6600.00
02319             -10.00    -6400.00
02320              -9.80    -6400.00
02321              -9.00    -6400.00
02322             -10.00    -6400.00
02323              -9.00    -6400.00
02324              -8.60    -6600.00
02325              -9.20    -6400.00
02326              -9.20    -6400.00
02327              -7.40    -6400.00
02328              -8.20    -6400.00
02329              -9.00    -6400.00
02330              -7.80    -6400.00
02331              -7.40    -6200.00
02332              -8.20    -6400.00
02333              -8.00    -6400.00
02334              -7.40    -6200.00
02335              -7.60    -6200.00
02336              -7.00    -6200.00
02337              -7.00    -6200.00
02338              -7.00    -6200.00
02339              -6.80    -6000.00
02340              -6.60    -6200.00
02341              -6.80    -6000.00
02342              -6.60    -6000.00
02343              -6.60    -6000.00
02344              -6.20    -6000.00
02345              -6.40    -6000.00
02346              -5.80    -6000.00
02347              -6.20    -6000.00
02348              -6.20    -6000.00
02349              -6.20    -6000.00
02350              -5.80    -6000.00
02351              -6.20    -6000.00
02352              -5.80    -6000.00
02353              -5.20    -6000.00
02354              -5.20    -5800.00
02355              -5.60    -5800.00
02356              -5.20    -5800.00
02357              -5.20    -5800.00
02358              -5.40    -5800.00
02359              -5.20    -5800.00
02360              -5.20    -5800.00
02361              -5.00    -5800.00
02362              -5.00    -5600.00
02363              -5.20    -5800.00
02364              -5.20    -5600.00
02365              -4.60    -5600.00
02366              -5.00    -5600.00
02367              -5.00    -5600.00
02368              -4.40    -5600.00
02369              -4.40    -5600.00
02370              -4.80    -5200.00
02371              -4.40    -5200.00
02372              -4.20    -5600.00
02373              -4.40    -5200.00
02374              -4.40    -5400.00
02375              -3.80    -5200.00
02376              -4.40    -5200.00
02377              -4.40    -5200.00
02378              -3.80    -5200.00
02379              -4.20    -5200.00
02380              -4.20    -5200.00
02381              -3.80    -5200.00
02382              -3.80    -5000.00
02383              -3.80    -5000.00
02384              -3.80    -5000.00
02385              -3.40    -5000.00
02386              -3.00    -4800.00
02387              -3.60    -5000.00
02388              -3.60    -4800.00
02389              -3.20    -4600.00
02390              -3.60    -4800.00
02391              -3.00    -4600.00
02392              -3.40    -4600.00
02393              -3.40    -4600.00
02394              -3.00    -4400.00
02395              -3.20    -4400.00
02396              -2.80    -4600.00
02397              -2.80    -4400.00
02398              -2.80    -4400.00
02399              -2.80    -4400.00
02400              -2.60    -4200.00
02401              -2.80    -4400.00
02402              -2.80    -4200.00
02403              -2.60    -4200.00
02404              -2.80    -4200.00
02405              -2.40    -4000.00
02406              -2.60    -4200.00
02407              -2.20    -4200.00
02408              -2.60    -4000.00
02409              -2.60    -4000.00
02410              -2.20    -4000.00
02411              -2.60    -4000.00
02412              -2.80    -3800.00
02413              -2.20    -4000.00
02414              -2.20    -3800.00
02415              -2.20    -3800.00
02416              -2.00    -3800.00
02417              -2.20    -3600.00
02418              -2.20    -3600.00
02419              -2.20    -3600.00
02420              -1.80    -3400.00
02421              -2.00    -3600.00
02422              -2.20    -3400.00
02423              -2.00    -3400.00
02424              -2.20    -3400.00
02425              -2.20    -3400.00
02426              -1.40    -3200.00
02427              -1.80    -3400.00
02428              -3.00    -3200.00
02429              -2.20    -3200.00
02430              -1.80    -3200.00
02431              -1.40    -3200.00
02432              -1.40    -2800.00
02433              -2.20    -2800.00
02434              -1.80    -2800.00
02435              -1.80    -2800.00
02436              -2.20    -2800.00
02437              -1.40    -2800.00
02438              -1.20    -2800.00
02439              -2.00    -2600.00
02440              -1.20    -2400.00
02441              -1.00    -2600.00
02442              -2.60    -2400.00
02443              -2.80    -2400.00
02444              -0.40    -2400.00
02445              -0.60    -2400.00
02446              -1.80    -2200.00
02447              -1.40    -2400.00
02448              -1.40    -2400.00
02449              -2.20    -2000.00
02450              -1.60    -2000.00
02451               0.20    -2000.00
02452              -1.80    -2000.00
02453              -1.60    -2000.00
02454              -0.20    -1800.00
02455              -2.20    -1800.00
02456              -1.40    -1800.00
02457              -0.20    -1800.00
02458              -1.80    -1800.00
02459              -1.40    -1600.00
02460               0.00    -1600.00
02461              -1.00    -1600.00
02462              -1.80    -1600.00
02463              -0.60    -1200.00
02464              -0.60    -1400.00
02465              -1.60    -1200.00
02466              -0.40    -1200.00
02467              -0.40    -1000.00
02468              -1.20    -1200.00
02469              -0.60    -1000.00
02470              -0.60    -1000.00
02471              -1.20     -800.00
02472              -0.60     -800.00
02473              -0.60     -800.00
02474              -1.40     -800.00
02475              -0.40     -800.00
02476              -0.20     -600.00
02477              -1.20     -600.00
02478              -1.20     -400.00
02479               0.60     -400.00
02480              -0.20     -400.00
02481              -1.40     -400.00
02482              -0.20     -400.00
02483               0.60     -200.00
02484              -1.20     -400.00
02485              -1.00     -200.00
02486               0.60     -200.00
02487              -0.40     -200.00
02488              -2.00        0.00
02489              -0.40        0.00
02490               1.20        0.00
02491              -1.00      200.00
02492              -1.00        0.00
02493               2.00      200.00
02494               0.40      200.00
02495              -2.20      200.00
02496               0.60      400.00
02497               1.80      400.00
02498               0.60      600.00
02499              11.60      800.00
02500               3.00      800.00
02501             -25.00      800.00
02502             -23.80      600.00
02503              25.00      800.00
02504              25.00     1000.00
02505             -25.00      800.00
02506             -25.00      600.00
02507              25.00     1400.00
02508              22.80      600.00
02509             -25.00     1400.00
02510              25.00      600.00
02511              25.00     2000.00
02512             -25.00      600.00
02513             -25.00     1800.00
02514              25.00     1200.00
02515              25.00     1600.00
02516             -25.00     1400.00
02517              25.00     1800.00
02518              25.00     1600.00
02519             -25.00     1800.00
02520             -22.00     1800.00
02521              25.00     1600.00
02522             -24.60     1800.00
02523             -25.00     2000.00
02524              25.00     1800.00
02525              25.00     2000.00
02526             -25.00     2400.00
02527               5.80     2000.00
02528              25.00     2000.00
02529             -25.00     2400.00
02530             -25.00     2200.00
02531              25.00     2000.00
02532              25.00     2400.00
02533             -25.00     2200.00
02534              23.40     2400.00
02535              25.00     2400.00
02536             -25.00     2800.00
02537             -25.00     2400.00
02538              25.00     2800.00
02539             -12.20     2600.00
02540             -25.00     3000.00
02541              25.00     2800.00
02542              25.00     3000.00
02543             -25.00     2800.00
02544              10.60     3000.00
02545              25.00     3000.00
02546             -25.00     3000.00
02547             -15.00     3000.00
02548              25.00     3200.00
02549              -1.00     3200.00
02550             -25.00     3200.00
02551              22.20     3000.00
02552              16.20     3400.00
02553             -23.60     3200.00
02554               0.60     3400.00
02555              25.00     3400.00
02556             -12.20     3600.00
02557             -10.20     3600.00
02558              18.80     3600.00
02559               4.20     3600.00
02560             -14.80     3600.00
02561               9.20     3800.00
02562              11.60     3600.00
02563             -10.20     3800.00
02564              -1.20     3800.00
02565              14.60     4000.00
02566              -2.20     3800.00
02567              -7.00     4000.00
02568              10.80     3800.00
02569               4.40     4000.00
02570              -7.00     4000.00
02571               3.60     4000.00
02572               9.20     4000.00
02573              -3.00     4200.00
02574               0.20     4200.00
02575               7.00     4400.00
02576               2.60     4400.00
02577              -2.60     4400.00
02578               5.20     4400.00
02579               4.20     4400.00
02580              -0.60     4600.00
02581               1.80     4400.00
02582               6.60     4600.00
02583               0.60     4600.00
02584               0.80     4600.00
02585               5.20     4600.00
02586               3.60     4800.00
02587               0.60     4800.00
02588               3.80     4800.00
02589               4.20     4800.00
02590               1.40     4800.00
02591               2.80     5000.00
02592               4.40     4800.00
02593               2.80     5200.00
02594               2.20     5200.00
02595               4.20     5200.00
02596               3.60     5200.00
02597               3.00     5200.00
02598               3.60     5200.00
02599               4.00     5200.00
02600               3.20     5400.00
02601               3.80     5400.00
02602               3.80     5200.00
02603               3.80     5400.00
02604               3.60     5400.00
02605               4.40     5400.00
02606               3.40     5600.00
02607               4.20     5400.00
02608               4.60     5600.00
02609               3.80     5600.00
02610               4.20     5400.00
02611               5.00     5600.00
02612               4.20     5600.00
02613               4.20     5600.00
02614               4.80     5600.00
02615               4.80     5800.00
02616               4.60     5600.00
02617               5.00     5600.00
02618               5.00     5800.00
02619               5.20     5800.00
02620               4.60     5800.00
02621               5.20     5800.00
02622               5.80     6000.00
02623               5.20     6000.00
02624               5.40     6000.00
02625               5.80     6000.00
02626               4.40     6000.00
02627               5.20     6000.00
02628               7.40     6000.00
02629               5.80     6000.00
02630               5.40     6000.00
02631               6.00     6200.00
02632               6.20     6000.00
02633               5.80     6200.00
02634               6.20     6200.00
02635               7.00     6200.00
02636               7.00     6200.00
02637               6.60     6200.00
02638               6.40     6200.00
02639               6.80     6200.00
02640               6.80     6200.00
02641               6.00     6200.00
02642               8.20     6200.00
02643               9.20     6200.00
02644               6.00     6200.00
02645               6.60     6400.00
02646               9.20     6400.00
02647               8.20     6400.00
02648               7.80     6200.00
02649               8.60     6400.00
02650               8.60     6200.00
02651               8.60     6400.00
02652               7.80     6400.00
02653               8.40     6400.00
02654               9.00     6400.00
02655               9.20     6400.00
02656               8.60     6400.00
02657              10.20     6400.00
02658               9.80     6400.00
02659               9.20     6400.00
02660               9.40     6400.00
02661              10.60     6400.00
02662              10.00     6400.00
02663               9.80     6400.00
02664              10.80     6600.00
02665              10.80     6400.00
02666              10.20     6400.00
02667              10.40     6400.00
02668              11.00     6400.00
02669              11.00     6400.00
02670              10.80     6400.00
02671              11.60     6600.00
02672              11.00     6400.00
02673              11.00     6400.00
02674              11.80     6400.00
02675              11.40     6400.00
02676              11.40     6400.00
02677              12.20     6400.00
02678              11.40     6400.00
02679              11.40     6600.00
02680              11.60     6400.00
02681              10.80     6400.00
02682              10.80     6400.00
02683              10.80     6400.00
02684              10.20     6200.00
02685              10.20     6400.00
02686              10.60     6400.00
02687               9.80     6400.00
02688               9.40     6400.00
02689               9.20     6400.00
02690               9.20     6400.00
02691               9.00     6400.00
02692               9.00     6400.00
02693               9.00     6400.00
02694               8.60     6400.00
02695               8.40     6400.00
02696               8.20     6400.00
02697               8.40     6200.00
02698               7.80     6400.00
02699               7.80     6400.00
02700               7.80     6200.00
02701               7.40     6400.00
02702               7.60     6400.00
02703               7.60     6200.00
02704               7.00     6400.00
02705               6.80     6200.00
02706               6.80     6200.00
02707               7.00     6200.00
02708               6.80     6200.00
02709               6.60     6200.00
02710               6.80     6200.00
02711               6.60     6200.00
02712               6.20     6200.00
02713               6.60     6200.00
02714               6.20     6200.00
02715               6.00     6200.00
02716               5.80     6200.00
02717               5.80     6000.00
02718               5.80     6000.00
02719               5.40     6000.00
02720               5.40     6000.00
02721               5.80     6000.00
02722               5.40     6000.00
02723               5.20     6000.00
02724               5.40     6000.00
02725               5.20     5800.00
02726               5.00     6000.00
02727               5.20     5600.00
02728               5.20     5800.00
02729               4.60     5800.00
02730               5.00     5600.00
02731               5.00     5600.00
02732               4.60     5600.00
02733               4.40     5600.00
02734               4.40     5600.00
02735               4.40     5600.00
02736               4.40     5600.00
02737               4.40     5600.00
02738               4.20     5600.00
02739               4.20     5400.00
02740               4.40     5600.00
02741               4.20     5400.00
02742               4.20     5400.00
02743               4.20     5600.00
02744               3.60     5400.00
02745               4.00     5400.00
02746               4.20     5400.00
02747               3.20     5200.00
02748               3.40     5200.00
02749               3.80     5200.00
02750               3.40     5200.00
02751               3.00     5200.00
02752               3.60     5200.00
02753               2.80     5000.00
02754               2.60     4800.00
02755               4.20     5000.00
02756               2.60     5200.00
02757               2.20     5000.00
02758               4.20     4800.00
02759               2.60     4800.00
02760               2.00     4800.00
02761               3.60     4800.00
02762               2.80     4800.00
02763               1.80     4600.00
02764               3.40     4600.00
02765               2.80     4600.00
02766               1.80     4600.00
02767               2.60     4400.00
02768               3.00     4400.00
02769               2.00     4600.00
02770               2.20     4400.00
02771               3.00     4400.00
02772               2.00     4400.00
02773               1.80     4200.00
02774               2.80     4400.00
02775               1.80     4200.00
02776               1.80     4400.00
02777               2.60     4000.00
02778               2.00     4000.00
02779               1.80     4000.00
02780               2.00     4000.00
02781               2.20     3800.00
02782               1.40     3800.00
02783               2.00     3800.00
02784               2.20     3800.00
02785               1.40     3800.00
02786               1.40     3800.00
02787               2.60     3800.00
02788               2.00     3600.00
02789               1.20     3800.00
02790               2.00     3600.00
02791               2.00     3600.00
02792               1.00     3400.00
02793               1.40     3400.00
02794               2.00     3400.00
02795               1.20     3400.00
02796               1.20     3200.00
02797               1.80     3200.00
02798               2.00     3200.00
02799               1.00     3200.00
02800               1.20     3200.00
02801               1.80     3200.00
02802               1.20     3000.00
02803               1.20     3000.00
02804               1.40     3000.00
02805               1.40     2800.00
02806               1.00     2800.00
02807               1.00     2800.00
02808               1.00     2600.00
02809               1.20     2800.00
02810               1.00     2600.00
02811               0.60     2400.00
02812               1.40     2600.00
02813               1.20     2400.00
02814              -0.20     2400.00
02815               1.20     2400.00
02816               1.00     2200.00
02817               0.00     2400.00
02818               0.60     2200.00
02819               1.80     2200.00
02820               0.20     2200.00
02821               0.40     2000.00
02822               1.20     2000.00
02823               0.40     2000.00
02824              -0.20     2000.00
02825               0.80     1800.00
02826               0.60     1800.00
02827              -0.20     1800.00
02828               0.60     2000.00
02829               0.60     1800.00
02830              -0.40     1600.00
02831               0.60     1600.00
02832               0.60     1600.00
02833               0.00     1400.00
02834               0.20     1400.00
02835               0.20     1400.00
02836               0.40     1400.00
02837               0.20     1400.00
02838              -0.20     1200.00
02839               0.80     1200.00
02840              -0.40     1200.00
02841              -0.60     1200.00
02842               0.60     1000.00
02843               0.20     1000.00
02844              -0.80      800.00
02845               0.40      800.00
02846               0.60      800.00
02847              -0.80      600.00
02848              -0.20      800.00
02849               0.60      600.00
02850              -0.40      600.00
02851               0.00      400.00
02852               0.20      400.00
02853              -0.20      400.00
02854              -0.20      400.00
02855              -0.20      200.00
02856              -0.40      200.00
02857              -0.20      200.00
02858              -0.20        0.00
02859              -0.60        0.00
02860               0.00        0.00
02861               0.40        0.00
02862              -0.40        0.00
02863               0.20     -200.00
02864               0.20     -200.00
02865              -0.20     -200.00
02866              -0.20     -200.00
02867              -0.60     -400.00
02868               0.00     -400.00
02869               3.40     -400.00
02870              20.60     -600.00
02871              -5.20     -800.00
02872             -25.00     -800.00
02873              -4.60     -600.00
02874              25.00     -800.00
02875              12.40     -800.00
02876             -25.00    -1000.00
02877              16.40     -600.00
02878              25.00    -1000.00
02879             -25.00    -1400.00
02880             -25.00     -800.00
02881              25.00    -1200.00
02882              25.00    -1200.00
02883             -25.00    -1200.00
02884             -25.00    -1000.00
02885              25.00    -1200.00
02886              25.00    -1800.00
02887             -25.00    -1000.00
02888              25.00    -2000.00
02889              25.00    -1600.00
02890             -25.00    -1600.00
02891             -25.00    -1600.00
02892              25.00    -2000.00
02893              25.00    -1600.00
02894             -25.00    -1800.00
02895              25.00    -2000.00
02896              25.00    -2000.00
02897             -25.00    -1800.00
02898              15.40    -2200.00
02899              25.00    -2000.00
02900             -25.00    -2000.00
02901             -25.00    -2400.00
02902              25.00    -2600.00
02903              25.00    -2200.00
02904             -25.00    -2400.00
02905              17.40    -2600.00
02906              25.00    -2400.00
02907             -25.00    -2400.00
02908             -25.00    -2600.00
02909              25.00    -2600.00
02910             -10.20    -2600.00
02911             -25.00    -2800.00
02912              25.00    -2800.00
02913              25.00    -2800.00
02914             -25.00    -2800.00
02915              10.60    -3000.00
02916              25.00    -3000.00
02917             -25.00    -3200.00
02918             -22.80    -3000.00
02919              25.00    -3200.00
02920              -5.40    -3000.00
02921             -25.00    -3200.00
02922              20.60    -3400.00
02923              16.40    -3200.00
02924             -25.00    -3400.00
02925              -1.20    -3400.00
02926              22.60    -3400.00
02927             -14.80    -3400.00
02928             -15.60    -3600.00
02929              16.60    -3600.00
02930              -0.20    -3600.00
02931             -18.80    -3600.00
02932               4.60    -3600.00
02933               8.80    -3600.00
02934             -15.40    -3800.00
02935              -4.60    -3800.00
02936              11.60    -3800.00
02937              -7.40    -3800.00
02938             -12.40    -4000.00
02939               8.20    -4000.00
02940               1.00    -4000.00
02941             -14.00    -4200.00
02942               0.20    -4200.00
02943               6.60    -4200.00
02944              -9.40    -4200.00
02945              -7.00    -4200.00
02946               5.20    -4400.00
02947              -3.80    -4400.00
02948             -10.20    -4400.00
02949               1.00    -4400.00
02950               1.80    -4600.00
02951              -8.60    -4400.00
02952              -4.20    -4400.00
02953               1.20    -4600.00
02954              -4.80    -4600.00
02955              -6.60    -4600.00
02956              -1.20    -4600.00
02957              -2.60    -4800.00
02958              -4.60    -4800.00
02959              -3.40    -4600.00
02960              -2.60    -5000.00
02961              -4.20    -4800.00
02962              -4.20    -5000.00
02963              -3.60    -5000.00
02964              -3.40    -5000.00
02965              -3.00    -5000.00
02966              -4.20    -5000.00
02967              -4.60    -5000.00
02968              -3.40    -5200.00
02969              -3.80    -5200.00
02970              -5.40    -5200.00
02971              -3.60    -5200.00
02972              -3.00    -5200.00
02973              -5.00    -5200.00
02974              -5.20    -5400.00
02975              -2.80    -5600.00
02976              -4.40    -5400.00
02977              -5.80    -5200.00
02978              -3.80    -5600.00
02979              -3.40    -5600.00
02980              -5.80    -5600.00
02981              -5.40    -5400.00
02982              -3.80    -5600.00
02983              -5.00    -5600.00
02984              -6.00    -5600.00
02985              -4.20    -5600.00
02986              -4.40    -5800.00
02987              -6.00    -5600.00
02988              -5.00    -5600.00
02989              -4.20    -5800.00
02990              -6.00    -5600.00
02991              -6.20    -6000.00
02992              -4.40    -5800.00
02993              -5.40    -5800.00
02994              -6.80    -6000.00
02995              -5.80    -5800.00
02996              -4.60    -6000.00
02997              -7.00    -6000.00
02998              -7.00    -6000.00
02999              -5.20    -6000.00
03000              -6.00    -6000.00
03001              -7.40    -6000.00
03002              -6.00    -6000.00
03003              -5.40    -6000.00
03004              -7.00    -6200.00
03005              -7.60    -6000.00
03006              -6.00    -6200.00
03007              -7.00    -6000.00
03008              -8.20    -6000.00
03009              -6.80    -6200.00
03010              -6.80    -6200.00
03011              -8.60    -6200.00
03012              -7.60    -6200.00
03013              -6.80    -6200.00
03014              -8.60    -6400.00
03015              -8.80    -6200.00
03016              -7.00    -6200.00
03017              -8.00    -6400.00
03018              -9.60    -6400.00
03019              -7.80    -6400.00
03020              -8.40    -6200.00
03021              -9.40    -6400.00
03022              -9.00    -6400.00
03023              -8.80    -6400.00
03024              -9.20    -6400.00
03025              -9.40    -6400.00
03026              -9.60    -6400.00
03027             -10.00    -6400.00
03028             -10.00    -6400.00
03029             -10.20    -6400.00
03030              -9.80    -6400.00
03031             -10.20    -6600.00
03032             -10.00    -6400.00
03033             -10.40    -6400.00
03034             -10.40    -6400.00
03035             -10.80    -6400.00
03036             -11.00    -6600.00
03037             -10.80    -6600.00
03038             -11.40    -6400.00
03039             -11.00    -6400.00
03040             -11.00    -6400.00
03041             -11.40    -6400.00
03042             -11.80    -6400.00
03043             -11.60    -6400.00
03044             -11.60    -6400.00
03045             -11.80    -6400.00
03046             -11.60    -6400.00
03047             -11.60    -6400.00
03048             -11.60    -6600.00
03049             -11.80    -6400.00
03050             -11.60    -6600.00
03051             -11.60    -6600.00
03052             -11.60    -6400.00
03053             -11.40    -6600.00
03054             -11.40    -6600.00
03055             -11.00    -6400.00
03056             -11.00    -6400.00
03057             -10.80    -6600.00
03058             -10.20    -6400.00
03059             -10.20    -6600.00
03060             -10.20    -6400.00
03061              -9.40    -6200.00
03062             -10.00    -6400.00
03063              -9.40    -6400.00
03064              -9.20    -6400.00
03065              -9.40    -6400.00
03066              -9.20    -6400.00
03067              -8.40    -6400.00
03068              -8.80    -6400.00
03069              -8.60    -6400.00
03070              -8.40    -6400.00
03071              -8.60    -6400.00
03072              -8.40    -6400.00
03073              -8.00    -6400.00
03074              -7.60    -6200.00
03075              -8.20    -6200.00
03076              -7.60    -6200.00
03077              -7.60    -6400.00
03078              -7.40    -6200.00
03079              -7.60    -6200.00
03080              -7.00    -6200.00
03081              -7.00    -6200.00
03082              -7.00    -6200.00
03083              -7.00    -6000.00
03084              -7.00    -6200.00
03085              -6.60    -6200.00
03086              -7.00    -6000.00
03087              -6.80    -6000.00
03088              -6.20    -6000.00
03089              -6.20    -6000.00
03090              -6.40    -6000.00
03091              -6.20    -6000.00
03092              -6.00    -6000.00
03093              -6.60    -6000.00
03094              -6.00    -5800.00
03095              -5.60    -5800.00
03096              -5.80    -5800.00
03097              -5.60    -5800.00
03098              -5.20    -6000.00
03099              -5.40    -5800.00
03100              -6.00    -5800.00
03101              -5.40    -5800.00
03102              -5.20    -5600.00
03103              -5.20    -5600.00
03104              -5.00    -5800.00
03105              -4.80    -5600.00
03106              -4.60    -5800.00
03107              -5.00    -5800.00
03108              -4.60    -5600.00
03109              -5.00    -5600.00
03110              -4.60    -5600.00
03111              -4.40    -5600.00
03112              -4.60    -5600.00
03113              -4.00    -5200.00
03114              -4.40    -5400.00
03115              -4.40    -5400.00
03116              -4.00    -5400.00
03117              -4.40    -5200.00
03118              -4.40    -5200.00
03119              -3.80    -5200.00
03120              -3.80    -5200.00
03121              -4.40    -5200.00
03122              -3.60    -5200.00
03123              -3.60    -5200.00
03124              -4.20    -5200.00
03125              -3.40    -5000.00
03126              -3.00    -5000.00
03127              -3.80    -4800.00
03128              -3.20    -5000.00
03129              -3.00    -5000.00
03130              -3.80    -4800.00
03131              -3.60    -4800.00
03132              -3.20    -4600.00
03133              -3.80    -4600.00
03134              -2.80    -4800.00
03135              -3.00    -4600.00
03136              -3.40    -4600.00
03137              -3.40    -4600.00
03138              -2.80    -4600.00
03139              -3.40    -4400.00
03140              -3.00    -4400.00
03141              -2.80    -4400.00
03142              -3.40    -4400.00
03143              -3.00    -4400.00
03144              -2.80    -4200.00
03145              -2.80    -4200.00
03146              -3.00    -4400.00
03147              -2.20    -4200.00
03148              -2.80    -4200.00
03149              -2.80    -4200.00
03150              -2.20    -4000.00
03151              -2.80    -4200.00
03152              -2.80    -4000.00
03153              -2.60    -4000.00
03154              -2.20    -4000.00
03155              -2.40    -3800.00
03156              -2.40    -3800.00
03157              -2.20    -3800.00
03158              -2.20    -3800.00
03159              -2.40    -3600.00
03160              -2.20    -3600.00
03161              -2.60    -3600.00
03162              -2.40    -3600.00
03163              -2.00    -3600.00
03164              -2.20    -3600.00
03165              -2.40    -3400.00
03166              -2.20    -3200.00
03167              -2.00    -3400.00
03168              -1.80    -3400.00
03169              -2.00    -3200.00
03170              -1.60    -3200.00
03171              -1.80    -3200.00
03172              -2.00    -3200.00
03173              -1.80    -3000.00
03174              -1.40    -2800.00
03175              -2.20    -3000.00
03176              -2.00    -2800.00
03177              -1.20    -2800.00
03178              -1.60    -2800.00
03179              -1.80    -2800.00
03180              -1.20    -2600.00
03181              -1.40    -2600.00
03182              -2.00    -2600.00
03183              -1.80    -2600.00
03184              -1.20    -2400.00
03185              -1.20    -2400.00
03186              -2.00    -2400.00
03187              -1.20    -2400.00
03188              -0.60    -2200.00
03189              -1.80    -2200.00
03190              -2.20    -2200.00
03191              -0.40    -2200.00
03192              -0.60    -2400.00
03193              -2.00    -2000.00
03194              -1.40    -2000.00
03195              -0.40    -2000.00
03196              -1.20    -2000.00
03197              -1.80    -1800.00
03198              -1.00    -1800.00
03199              -0.60    -1800.00
03200              -1.40    -1600.00
03201              -1.20    -1800.00
03202              -0.20    -1600.00
03203              -1.20    -1600.00
03204              -1.20    -1600.00
03205              -0.60    -1600.00
03206              -0.80    -1400.00
03207              -1.20    -1400.00
03208              -1.00    -1200.00
03209              -0.60    -1400.00
03210              -1.20    -1200.00
03211              -1.00    -1200.00
03212              -0.60    -1000.00
03213              -1.20    -1000.00
03214              -1.00    -1000.00
03215              -0.60    -1000.00
03216              -0.60    -1000.00
03217              -0.80     -800.00
03218              -0.60     -800.00
03219              -0.40     -800.00
03220              -1.20     -600.00
03221              -0.60     -600.00
03222              -0.20     -600.00
03223              -0.60     -400.00
03224              -0.80     -400.00
03225              -0.40     -400.00
03226              -0.60     -200.00
03227              -0.60     -400.00
03228              -0.40     -200.00
03229              -0.40        0.00
03230              -0.60     -200.00
03231              -1.00        0.00
03232               0.20        0.00
03233              -0.20        0.00
03234              -0.60        0.00
03235               0.40      200.00
03236               1.20      200.00
03237              -0.40      400.00
03238              -0.60      400.00
03239               0.40      400.00
03240               0.40      400.00
03241               1.40      400.00
03242              11.60      800.00
03243               4.40      800.00
03244             -25.00      600.00
03245             -25.00      600.00
03246              25.00      800.00
03247              25.00     1200.00
03248             -25.00     1000.00
03249             -25.00      800.00
03250              25.00     1400.00
03251              25.00      600.00
03252             -25.00     1600.00
03253              25.00      600.00
03254              25.00     1800.00
03255             -25.00      800.00
03256             -25.00     1800.00
03257              25.00     1200.00
03258              25.00     1800.00
03259             -25.00     1400.00
03260              25.00     1800.00
03261              25.00     1600.00
03262             -25.00     1800.00
03263             -25.00     2000.00
03264              25.00     1600.00
03265              -6.60     2000.00
03266             -25.00     2000.00
03267              25.00     1600.00
03268              25.00     1800.00
03269             -25.00     2200.00
03270              -6.80     2000.00
03271              25.00     2000.00
03272             -25.00     2200.00
03273             -25.00     2200.00
03274              25.00     2000.00
03275              25.00     2600.00
03276             -25.00     2200.00
03277              13.80     2400.00
03278              25.00     2400.00
03279             -25.00     2800.00
03280             -25.00     2400.00
03281              25.00     2800.00
03282              -2.20     2800.00
03283             -25.00     2800.00
03284              25.00     2600.00
03285              25.00     3000.00
03286             -25.00     3000.00
03287               3.20     2800.00
03288              25.00     3000.00
03289             -25.00     3000.00
03290             -19.60     3200.00
03291              25.00     3200.00
03292               3.60     3200.00
03293             -25.00     3200.00
03294              19.20     3200.00
03295              19.40     3200.00
03296             -22.60     3600.00
03297              -2.80     3400.00
03298              25.00     3600.00
03299              -9.20     3600.00
03300             -12.40     3600.00
03301              17.60     3600.00
03302               6.60     3800.00
03303             -15.80     3600.00
03304               7.20     3800.00
03305              13.20     3600.00
03306              -9.20     3800.00
03307              -2.40     3800.00
03308              14.60     4000.00
03309              -0.60     4000.00
03310              -7.60     4000.00
03311               9.60     3800.00
03312               6.00     4000.00
03313              -6.20     4000.00
03314               2.20     4000.00
03315              10.20     4000.00
03316              -2.20     4400.00
03317              -1.40     4400.00
03318               7.40     4400.00
03319               3.20     4400.00
03320              -3.40     4400.00
03321               5.20     4400.00
03322               5.20     4400.00
03323              -0.40     4600.00
03324               1.40     4600.00
03325               6.00     4800.00
03326               2.00     4600.00
03327               1.00     4600.00
03328               3.60     4600.00
03329               5.00     4600.00
03330               1.60     4800.00
03331               1.80     4800.00
03332               4.60     4800.00
03333               3.20     4800.00
03334               1.20     5000.00
03335               3.60     5000.00
03336               4.40     5000.00
03337               1.80     5200.00
03338               3.40     5000.00
03339               4.20     5200.00
03340               3.00     5200.00
03341               2.60     5200.00
03342               4.40     5200.00
03343               3.00     5200.00
03344               3.40     5200.00
03345               3.80     5400.00
03346               3.80     5400.00
03347               2.80     5400.00
03348               4.40     5400.00
03349               3.80     5400.00
03350               3.80     5400.00
03351               3.60     5400.00
03352               4.40     5600.00
03353               4.20     5600.00
03354               4.00     5600.00
03355               4.20     5600.00
03356               4.60     5600.00
03357               4.40     5800.00
03358               4.20     5600.00
03359               5.20     5600.00
03360               5.20     5800.00
03361               4.40     5600.00
03362               5.00     6000.00
03363               5.40     5800.00
03364               3.80     5800.00
03365               5.40     6000.00
03366               6.20     6000.00
03367               5.00     6000.00
03368               4.80     6000.00
03369               6.80     6000.00
03370               6.00     6000.00
03371               5.20     6000.00
03372               5.80     6000.00
03373               7.40     6200.00
03374               5.80     6000.00
03375               5.20     6200.00
03376               7.80     6000.00
03377               6.20     6200.00
03378               5.40     6200.00
03379               7.20     6200.00
03380               7.60     6200.00
03381               6.20     6200.00
03382               7.20     6200.00
03383               7.40     6200.00
03384               7.40     6200.00
03385               7.60     6400.00
03386               6.60     6400.00
03387               7.60     6200.00
03388               9.00     6400.00
03389               6.60     6200.00
03390               8.20     6400.00
03391              10.00     6400.00
03392               7.40     6400.00
03393               7.60     6400.00
03394              10.40     6400.00
03395               8.40     6200.00
03396               8.20     6400.00
03397               9.60     6400.00
03398               9.00     6400.00
03399               8.40     6400.00
03400               9.40     6400.00
03401               9.80     6400.00
03402               9.40     6400.00
03403              10.00     6400.00
03404              10.20     6400.00
03405              10.60     6400.00
03406               9.80     6400.00
03407              10.00     6400.00
03408              10.60     6400.00
03409              10.00     6600.00
03410              10.00     6400.00
03411              11.00     6400.00
03412              11.40     6400.00
03413              10.60     6600.00
03414              10.60     6400.00
03415              11.80     6400.00
03416              11.60     6400.00
03417              10.60     6400.00
03418              11.40     6400.00
03419              12.20     6400.00
03420              11.00     6400.00
03421              10.20     6400.00
03422              11.60     6400.00
03423              11.80     6400.00
03424              10.40     6400.00
03425              10.20     6400.00
03426              11.60     6400.00
03427              11.00     6400.00
03428               9.20     6400.00
03429              10.00     6400.00
03430              10.80     6400.00
03431               9.40     6400.00
03432               9.00     6400.00
03433              10.00     6400.00
03434               9.40     6400.00
03435               8.20     6400.00
03436               9.20     6400.00
03437               9.20     6200.00
03438               7.40     6400.00
03439               8.60     6400.00
03440               9.40     6200.00
03441               7.80     6400.00
03442               7.80     6400.00
03443               8.40     6200.00
03444               7.60     6400.00
03445               6.60     6400.00
03446               7.40     6200.00
03447               7.40     6400.00
03448               7.20     6400.00
03449               7.00     6200.00
03450               7.60     6200.00
03451               7.40     6200.00
03452               6.20     6200.00
03453               6.60     6200.00
03454               6.80     6400.00
03455               6.20     6000.00
03456               6.20     6200.00
03457               6.20     6200.00
03458               6.20     6200.00
03459               5.80     6000.00
03460               5.80     6200.00
03461               6.00     6000.00
03462               6.00     6000.00
03463               6.00     6000.00
03464               5.40     6000.00
03465               5.40     6000.00
03466               5.40     6000.00
03467               5.00     5800.00
03468               5.00     6000.00
03469               5.20     5800.00
03470               5.00     5600.00
03471               5.20     5600.00
03472               5.00     5800.00
03473               4.40     5800.00
03474               4.60     5600.00
03475               4.60     5600.00
03476               4.20     5600.00
03477               4.20     5600.00
03478               4.40     5400.00
03479               4.20     5600.00
03480               4.00     5400.00
03481               4.20     5600.00
03482               3.80     5400.00
03483               4.20     5400.00
03484               4.20     5400.00
03485               3.80     5400.00
03486               3.80     5600.00
03487               3.60     5400.00
03488               3.60     5400.00
03489               3.40     5200.00
03490               3.40     5200.00
03491               3.80     5200.00
03492               3.00     5400.00
03493               3.40     5200.00
03494               3.60     5200.00
03495               3.40     5200.00
03496               3.20     5000.00
03497               2.80     5000.00
03498               3.40     5000.00
03499               3.60     5000.00
03500               2.60     4800.00
03501               2.80     4800.00
03502               3.40     4800.00
03503               2.60     4800.00
03504               2.00     4800.00
03505               3.20     4800.00
03506               3.60     4600.00
03507               2.40     4600.00
03508               2.80     4600.00
03509               3.00     4600.00
03510               2.60     4600.00
03511               2.00     4600.00
03512               2.20     4400.00
03513               3.40     4600.00
03514               2.60     4400.00
03515               1.80     4400.00
03516               2.80     4200.00
03517               2.80     4200.00
03518               1.40     4200.00
03519               2.00     4200.00
03520               3.00     4000.00
03521               2.20     4200.00
03522               1.80     4000.00
03523               2.20     4000.00
03524               2.20     4000.00
03525               1.60     3800.00
03526               1.60     3800.00
03527               2.00     3800.00
03528               2.20     3800.00
03529               2.00     3800.00
03530               1.80     3800.00
03531               1.80     3600.00
03532               1.40     3600.00
03533               1.20     3600.00
03534               1.00     3600.00
03535               1.80     3600.00
03536               2.00     3200.00
03537               1.40     3400.00
03538               1.20     3200.00
03539               1.00     3200.00
03540               1.20     3200.00
03541               2.00     3200.00
03542               0.40     3200.00
03543               0.60     3200.00
03544               3.60     3200.00
03545               0.40     3000.00
03546              -0.60     3000.00
03547               2.20     3000.00
03548               1.00     3000.00
03549              -0.40     2800.00
03550               0.60     2800.00
03551               3.00     2800.00
03552               0.40     2600.00
03553              -0.60     2400.00
03554               3.20     2600.00
03555               1.20     2400.00
03556              -1.40     2400.00
03557               1.20     2400.00
03558               3.60     2400.00
03559               0.20     2200.00
03560              -2.20     2400.00
03561               3.00     2200.00
03562               2.00     2200.00
03563              -1.80     2000.00
03564               1.00     2200.00
03565               2.80     2000.00
03566              -0.20     2000.00
03567              -1.80     1800.00
03568               2.00     2000.00
03569               2.60     2000.00
03570              -1.80     1800.00
03571               0.40     1800.00
03572               3.00     1600.00
03573              -0.20     1800.00
03574              -1.40     1600.00
03575               2.00     1600.00
03576               1.40     1600.00
03577              -0.60     1400.00
03578               0.60     1400.00
03579               1.80     1200.00
03580              -0.60     1000.00
03581              -0.40     1200.00
03582               1.40     1200.00
03583               0.20     1200.00
03584              -0.60     1000.00
03585               1.20     1000.00
03586               0.60      800.00
03587              -0.60      800.00
03588               0.20      800.00
03589               0.40      800.00
03590               0.20      800.00
03591              -0.20      600.00
03592               0.40      600.00
03593              -0.20      400.00
03594              -0.60      400.00
03595               0.20      400.00
03596               0.40      400.00
03597              -0.60      400.00
03598              -0.60      400.00
03599               0.40        0.00
03600              -0.40        0.00
03601              -1.00        0.00
03602               0.20        0.00
03603               0.20        0.00
03604              -0.60        0.00
03605              -0.20     -200.00
03606               0.40     -200.00
03607               0.00     -400.00
03608              -1.20     -200.00
03609              -0.20     -400.00
03610               0.40     -400.00
03611              -1.00     -400.00
03612               2.00     -400.00
03613              20.40     -600.00
03614              -1.20     -800.00
03615             -25.00     -800.00
03616             -14.80     -400.00
03617              25.00     -800.00
03618              21.20     -800.00
03619             -25.00    -1000.00
03620              -1.20     -400.00
03621              25.00    -1000.00
03622              -9.40    -1400.00
03623             -25.00     -800.00
03624              25.00    -1200.00
03625              25.00    -1400.00
03626             -25.00    -1200.00
03627             -25.00    -1000.00
03628              25.00    -1200.00
03629              25.00    -1800.00
03630             -25.00    -1000.00
03631              25.00    -1800.00
03632              25.00    -1600.00
03633             -25.00    -1600.00
03634             -25.00    -1600.00
03635              25.00    -2000.00
03636              25.00    -1600.00
03637             -25.00    -1800.00
03638              25.00    -2000.00
03639              25.00    -2000.00
03640             -25.00    -1800.00
03641              -4.00    -2400.00
03642              25.00    -2000.00
03643             -25.00    -2000.00
03644             -25.00    -2400.00
03645              25.00    -2400.00
03646              25.00    -2400.00
03647             -25.00    -2200.00
03648               4.40    -2600.00
03649              25.00    -2400.00
03650             -25.00    -2600.00
03651             -25.00    -2600.00
03652              25.00    -2800.00
03653               3.40    -2600.00
03654             -25.00    -2800.00
03655              25.00    -2800.00
03656              25.00    -2800.00
03657             -25.00    -2800.00
03658               1.80    -3000.00
03659              25.00    -3000.00
03660             -25.00    -3200.00
03661             -25.00    -3000.00
03662              25.00    -3200.00
03663               1.40    -3200.00
03664             -25.00    -3200.00
03665              14.20    -3200.00
03666              20.40    -3200.00
03667             -25.00    -3400.00
03668              -6.00    -3400.00
03669              22.00    -3400.00
03670             -11.00    -3400.00
03671             -17.60    -3600.00
03672              13.80    -3600.00
03673               2.60    -3600.00
03674             -18.40    -3600.00
03675               1.40    -3800.00
03676              10.20    -3800.00
03677             -13.40    -3600.00
03678              -7.40    -3800.00
03679              11.00    -4000.00
03680              -4.60    -4000.00
03681             -13.80    -4000.00
03682               5.80    -4000.00
03683               2.80    -4000.00
03684             -13.40    -4000.00
03685              -2.20    -4200.00
03686               6.80    -4000.00
03687              -7.80    -4200.00
03688              -7.80    -4400.00
03689               4.40    -4200.00
03690              -3.40    -4200.00
03691              -9.20    -4400.00
03692              -0.20    -4400.00
03693               1.40    -4400.00
03694              -6.80    -4400.00
03695              -4.40    -4400.00
03696               0.40    -4600.00
03697              -3.60    -4600.00
03698              -6.00    -4800.00
03699              -1.20    -4600.00
03700              -2.20    -4800.00
03701              -5.40    -4600.00
03702              -2.80    -4800.00
03703              -2.80    -4800.00
03704              -4.60    -5000.00
03705              -3.00    -5000.00
03706              -3.40    -4800.00
03707              -5.20    -4800.00
03708              -2.60    -5000.00
03709              -1.20    -5000.00
03710              -6.00    -5000.00
03711              -5.00    -5000.00
03712              -1.20    -5200.00
03713              -5.20    -5200.00
03714              -6.20    -5200.00
03715              -2.20    -5200.00
03716              -3.00    -5200.00
03717              -6.40    -5400.00
03718              -3.80    -5200.00
03719              -3.00    -5400.00
03720              -5.80    -5400.00
03721              -5.00    -5400.00
03722              -3.00    -5400.00
03723              -4.60    -5600.00
03724              -5.40    -5600.00
03725              -4.20    -5600.00
03726              -5.00    -5600.00
03727              -5.80    -5600.00
03728              -4.60    -5800.00
03729              -4.60    -5800.00
03730              -5.80    -5600.00
03731              -6.00    -5800.00
03732              -4.60    -5600.00
03733              -6.00    -5800.00
03734              -6.80    -5800.00
03735              -4.40    -5800.00
03736              -5.80    -5800.00
03737              -7.00    -5800.00
03738              -5.00    -5800.00
03739              -5.40    -6000.00
03740              -7.60    -6000.00
03741              -6.20    -6000.00
03742              -5.40    -6000.00
03743              -6.20    -6000.00
03744              -7.00    -6000.00
03745              -6.80    -6000.00
03746              -6.20    -6000.00
03747              -7.20    -6000.00
03748              -7.40    -6200.00
03749              -6.20    -6000.00
03750              -7.00    -6200.00
03751              -8.40    -6200.00
03752              -6.80    -6200.00
03753              -7.00    -6200.00
03754              -8.00    -6200.00
03755              -8.20    -6400.00
03756              -7.20    -6200.00
03757              -7.80    -6400.00
03758              -9.00    -6200.00
03759              -7.00    -6400.00
03760              -7.40    -6200.00
03761             -10.20    -6400.00
03762              -8.00    -6400.00
03763              -8.40    -6400.00
03764              -9.40    -6400.00
03765              -8.60    -6400.00
03766              -8.40    -6400.00
03767              -9.60    -6400.00
03768              -9.00    -6400.00
03769              -9.40    -6400.00
03770             -10.20    -6600.00
03771              -9.40    -6400.00
03772             -10.00    -6400.00
03773             -10.00    -6400.00
03774              -9.80    -6400.00
03775             -10.00    -6400.00
03776             -10.80    -6600.00
03777             -10.00    -6400.00
03778             -10.20    -6600.00
03779             -11.00    -6400.00
03780             -11.00    -6400.00
03781             -10.80    -6400.00
03782             -11.40    -6400.00
03783             -11.40    -6400.00
03784             -11.40    -6400.00
03785             -11.40    -6400.00
03786             -11.60    -6600.00
03787             -11.60    -6400.00
03788             -11.40    -6600.00
03789             -11.60    -6400.00
03790             -11.80    -6400.00
03791             -11.80    -6600.00
03792             -11.80    -6400.00
03793             -12.00    -6600.00
03794             -11.80    -6400.00
03795             -11.80    -6400.00
03796             -11.60    -6400.00
03797             -11.40    -6600.00
03798             -11.40    -6400.00
03799             -10.80    -6600.00
03800             -10.80    -6400.00
03801             -10.80    -6400.00
03802             -10.20    -6400.00
03803             -10.00    -6400.00
03804             -10.20    -6400.00
03805             -10.20    -6600.00
03806              -9.20    -6400.00
03807              -9.20    -6400.00
03808             -10.00    -6400.00
03809              -9.20    -6400.00
03810              -8.60    -6400.00
03811              -9.20    -6400.00
03812              -9.20    -6400.00
03813              -8.20    -6400.00
03814              -8.60    -6400.00
03815              -8.60    -6400.00
03816              -8.00    -6400.00
03817              -7.60    -6400.00
03818              -8.20    -6400.00
03819              -7.60    -6200.00
03820              -7.40    -6200.00
03821              -7.60    -6200.00
03822              -7.20    -6200.00
03823              -7.60    -6200.00
03824              -7.20    -6200.00
03825              -7.00    -6200.00
03826              -7.40    -6000.00
03827              -6.60    -6000.00
03828              -6.40    -6000.00
03829              -6.80    -6000.00
03830              -6.80    -6000.00
03831              -5.80    -6000.00
03832              -6.20    -6000.00
03833              -7.00    -6000.00
03834              -5.80    -6000.00
03835              -5.20    -6000.00
03836              -6.80    -6000.00
03837              -6.00    -5800.00
03838              -4.40    -5800.00
03839              -6.20    -5800.00
03840              -6.20    -5800.00
03841              -4.60    -5800.00
03842              -5.40    -5800.00
03843              -5.80    -5800.00
03844              -5.80    -5800.00
03845              -4.40    -5800.00
03846              -5.40    -5600.00
03847              -5.80    -5800.00
03848              -3.80    -5600.00
03849              -5.00    -5600.00
03850              -5.80    -5600.00
03851              -3.80    -5600.00
03852              -4.80    -5600.00
03853              -5.20    -5600.00
03854              -4.40    -5600.00
03855              -3.80    -5600.00
03856              -4.40    -5600.00
03857              -5.00    -5200.00
03858              -4.40    -5400.00
03859              -4.00    -5400.00
03860              -5.20    -5400.00
03861              -4.40    -5200.00
03862              -3.40    -5200.00
03863              -4.60    -5200.00
03864              -4.40    -5200.00
03865              -3.20    -5200.00
03866              -4.00    -5000.00
03867              -4.60    -5200.00
03868              -3.40    -5000.00
03869              -3.40    -5000.00
03870              -4.20    -5000.00
03871              -3.80    -5000.00
03872              -3.40    -5000.00
03873              -3.40    -4800.00
03874              -4.60    -5000.00
03875              -3.40    -4600.00
03876              -2.40    -4800.00
03877              -4.40    -4600.00
03878              -3.40    -4800.00
03879              -2.40    -4600.00
03880              -4.20    -4600.00
03881              -3.40    -4600.00
03882              -2.60    -4400.00
03883              -3.60    -4400.00
03884              -3.40    -4400.00
03885              -2.20    -4400.00
03886              -3.40    -4400.00
03887              -2.80    -4400.00
03888              -2.60    -4200.00
03889              -3.80    -4200.00
03890              -2.40    -4200.00
03891              -1.80    -4200.00
03892              -3.80    -4200.00
03893              -2.80    -4000.00
03894              -1.20    -4000.00
03895              -3.60    -4000.00
03896              -3.00    -4000.00
03897              -0.80    -4000.00
03898              -2.60    -4000.00
03899              -3.40    -3800.00
03900              -1.40    -3800.00
03901              -2.00    -3800.00
03902              -3.00    -3800.00
03903              -2.00    -3600.00
03904              -2.00    -3600.00
03905              -2.60    -3600.00
03906              -2.20    -3600.00
03907              -2.00    -3600.00
03908              -1.80    -3400.00
03909              -2.20    -3200.00
03910              -1.60    -3400.00
03911              -1.80    -3400.00
03912              -2.20    -3200.00
03913              -1.80    -3200.00
03914              -2.00    -3200.00
03915              -2.00    -3200.00
03916              -1.80    -3200.00
03917              -1.80    -3200.00
03918              -1.80    -2800.00
03919              -2.00    -3000.00
03920              -1.80    -2800.00
03921              -1.80    -2800.00
03922              -2.00    -2800.00
03923              -1.80    -2800.00
03924              -1.40    -2800.00
03925              -1.80    -2600.00
03926              -1.40    -2600.00
03927              -1.20    -2800.00
03928              -1.40    -2400.00
03929              -1.40    -2400.00
03930              -1.00    -2200.00
03931              -1.80    -2400.00
03932              -1.80    -2200.00
03933              -1.40    -2400.00
03934              -1.20    -2200.00
03935              -1.40    -2000.00
03936              -1.40    -2000.00
03937              -1.00    -2000.00
03938              -1.20    -2000.00
03939              -1.40    -2000.00
03940              -1.20    -1800.00
03941              -1.20    -1800.00
03942              -1.40    -1800.00
03943              -1.00    -1800.00
03944              -1.00    -1600.00
03945              -1.40    -1600.00
03946              -1.00    -1600.00
03947              -0.60    -1400.00
03948              -1.20    -1600.00
03949              -0.60    -1600.00
03950              -0.60    -1400.00
03951              -1.40    -1400.00
03952              -0.60    -1200.00
03953              -0.60    -1200.00
03954              -1.20    -1000.00
03955              -0.60    -1000.00
03956              -0.60    -1000.00
03957              -1.20    -1000.00
03958              -0.60     -800.00
03959              -0.40     -800.00
03960              -0.60     -800.00
03961              -0.60     -800.00
03962              -0.40     -600.00
03963              -0.60     -800.00
03964              -0.80     -600.00
03965              -0.60     -600.00
03966              -0.40     -400.00
03967              -0.60     -400.00
03968              -0.60     -400.00
03969              -0.60     -400.00
03970              -0.60     -200.00
03971              -0.20     -200.00
03972              -0.40     -200.00
03973              -0.40     -200.00
03974              -0.40     -200.00
03975               0.00        0.00
03976               0.20        0.00
03977              -0.20        0.00
03978               0.20        0.00
03979               0.60      200.00
03980              -0.20      200.00
03981              -0.60      400.00
03982               0.40      400.00
03983               0.40      400.00
03984               1.40      600.00
03985              10.60      600.00
03986               5.80      800.00
03987             -25.00      600.00
03988             -25.00      400.00
03989              25.00      600.00
03990              25.00     1000.00
03991             -25.00      800.00
03992             -25.00      600.00
03993              25.00     1200.00
03994              25.00      800.00
03995             -25.00     1400.00
03996              16.00      600.00
03997              25.00     2000.00
03998             -25.00      600.00
03999             -25.00     1800.00
04000              25.00      800.00
04001              25.00     1600.00
04002             -25.00     1400.00
04003              25.00     1600.00
04004              25.00     1600.00
04005             -25.00     1600.00
04006             -25.00     1800.00
04007              25.00     1600.00
04008              11.00     1800.00
04009             -25.00     1800.00
04010              25.00     2000.00
04011              25.00     1800.00
04012             -25.00     2200.00
04013             -19.80     2000.00
04014              25.00     2000.00
04015             -22.00     2200.00
04016             -25.00     2400.00
04017              25.00     2000.00
04018              25.00     2600.00
04019             -25.00     2200.00
04020               3.40     2400.00
04021              25.00     2400.00
04022             -25.00     2800.00
04023             -25.00     2400.00
04024              25.00     2800.00
04025               8.20     2400.00
04026             -25.00     2800.00
04027              25.00     2800.00
04028              25.00     2800.00
04029             -25.00     2800.00
04030              -3.40     3000.00
04031              25.00     3000.00
04032             -21.40     3000.00
04033             -23.40     3000.00
04034              25.00     3000.00
04035               8.60     3200.00
04036             -25.00     3000.00
04037              15.60     3400.00
04038              22.20     3200.00
04039             -21.00     3400.00
04040              -6.00     3200.00
04041              25.00     3600.00
04042              -6.80     3600.00
04043             -14.60     3600.00
04044              16.60     3600.00
04045               8.40     3600.00
04046             -15.40     3600.00
04047               5.40     3800.00
04048              14.20     3800.00
04049              -8.20     3800.00
04050              -4.40     3800.00
04051              13.80     3800.00
04052               1.20     3800.00
04053              -8.60     4000.00
04054               8.60     4000.00
04055               7.40     4000.00
04056              -6.20     4000.00
04057               0.60     4000.00
04058              10.40     4200.00
04059              -2.00     4200.00
04060              -2.20     4400.00
04061               6.80     4000.00
04062               4.00     4400.00
04063              -3.80     4400.00
04064               4.20     4400.00
04065               5.80     4400.00
04066              -0.40     4600.00
04067               0.40     4600.00
04068               6.60     4600.00
04069               2.20     4600.00
04070              -0.40     4800.00
04071               4.00     4600.00
04072               4.60     4600.00
04073               0.40     4800.00
04074               2.60     4800.00
04075               5.00     4800.00
04076               1.80     4800.00
04077               1.80     5000.00
04078               4.20     5200.00
04079               3.60     5200.00
04080               1.80     4800.00
04081               4.20     5200.00
04082               3.80     5200.00
04083               2.80     5200.00
04084               2.80     5200.00
04085               4.60     5200.00
04086               3.00     5200.00
04087               3.00     5400.00
04088               4.20     5200.00
04089               4.20     5400.00
04090               2.60     5400.00
04091               4.40     5400.00
04092               4.20     5400.00
04093               3.60     5400.00
04094               4.20     5400.00
04095               5.00     5600.00
04096               3.80     5600.00
04097               4.40     5600.00
04098               4.20     5600.00
04099               4.60     5600.00
04100               4.80     5600.00
04101               4.60     5800.00
04102               5.00     5600.00
04103               4.80     5600.00
04104               5.00     5800.00
04105               5.00     5800.00
04106               5.20     6000.00
04107               5.20     5800.00
04108               5.40     6000.00
04109               5.60     6000.00
04110               5.60     6000.00
04111               5.40     6000.00
04112               6.00     6000.00
04113               5.80     6000.00
04114               6.00     6000.00
04115               6.00     6000.00
04116               6.20     6000.00
04117               5.80     6000.00
04118               6.40     6200.00
04119               6.20     6000.00
04120               6.00     6200.00
04121               6.60     6200.00
04122               6.80     6200.00
04123               6.40     6200.00
04124               6.60     6200.00
04125               7.40     6200.00
04126               6.80     6200.00
04127               6.80     6200.00
04128               7.40     6200.00
04129               7.40     6400.00
04130               7.00     6400.00
04131               8.20     6200.00
04132               8.20     6400.00
04133               8.00     6400.00
04134               8.00     6400.00
04135               8.20     6200.00
04136               8.20     6400.00
04137               9.00     6200.00
04138               8.20     6400.00
04139               8.40     6400.00
04140               9.00     6400.00
04141               9.00     6400.00
04142               9.00     6400.00
04143               9.40     6400.00
04144               9.40     6400.00
04145               9.40     6400.00
04146               9.80     6400.00
04147              10.20     6400.00
04148              10.00     6400.00
04149               9.80     6400.00
04150              10.60     6400.00
04151              10.00     6600.00
04152              10.60     6400.00
04153              10.60     6400.00
04154              10.80     6400.00
04155              10.80     6400.00
04156              11.40     6400.00
04157              11.40     6400.00
04158              11.60     6400.00
04159              11.60     6400.00
04160              11.40     6400.00
04161              11.00     6400.00
04162              11.60     6400.00
04163              11.60     6400.00
04164              11.60     6400.00
04165              11.00     6400.00
04166              11.60     6400.00
04167              11.20     6400.00
04168              10.80     6400.00
04169              10.60     6400.00
04170              10.60     6400.00
04171              10.20     6400.00
04172               9.40     6400.00
04173              10.00     6400.00
04174              10.00     6400.00
04175               9.40     6400.00
04176              10.00     6400.00
04177              10.40     6400.00
04178               9.00     6400.00
04179               8.40     6400.00
04180               9.00     6400.00
04181               7.80     6400.00
04182               6.00     6400.00
04183               8.00     6200.00
04184               8.60     6200.00
04185               6.60     6200.00
04186              10.00     6400.00
04187               9.60     6400.00
04188               6.80     6400.00
04189               7.80     6400.00
04190               5.80     6200.00
04191               5.40     6200.00
04192               6.60     6200.00
04193               6.00     6400.00
04194               7.60     6200.00
04195               8.20     6200.00
04196               7.00     6200.00
04197               6.80     6200.00
04198               6.00     6200.00
04199               5.20     6200.00
04200               5.00     6000.00
04201               5.20     6200.00
04202               6.00     6000.00
04203               6.40     6000.00
04204               6.80     6000.00
04205               6.20     6200.00
04206               5.40     6000.00
04207               5.20     6000.00
04208               4.40     6000.00
04209               4.80     6000.00
04210               5.20     6000.00
04211               5.20     6000.00
04212               5.20     5800.00
04213               5.40     5800.00
04214               5.00     5800.00
04215               4.80     5800.00
04216               4.20     5600.00
04217               4.60     5600.00
04218               4.20     5800.00
04219               3.80     5600.00
04220               4.60     5600.00
04221               5.20     5600.00
04222               4.20     5600.00
04223               4.60     5600.00
04224               4.60     5400.00
04225               3.80     5600.00
04226               3.80     5600.00
04227               4.20     5400.00
04228               3.80     5400.00
04229               3.60     5400.00
04230               4.00     5400.00
04231               4.20     5400.00
04232               3.60     5400.00
04233               3.60     5400.00
04234               4.20     5400.00
04235               3.40     5200.00
04236               3.60     5200.00
04237               3.60     5200.00
04238               3.40     5200.00
04239               3.40     5200.00
04240               3.40     4800.00
04241               3.00     5000.00
04242               3.00     4800.00
04243               3.40     4800.00
04244               3.20     4800.00
04245               2.80     4800.00
04246               3.00     4800.00
04247               2.80     4800.00
04248               2.60     4800.00
04249               2.60     4600.00
04250               2.60     4600.00
04251               2.60     4600.00
04252               2.60     4600.00
04253               2.40     4400.00
04254               2.60     4600.00
04255               2.20     4400.00
04256               2.00     4400.00
04257               2.40     4400.00
04258               2.60     4400.00
04259               2.00     4400.00
04260               2.20     4400.00
04261               2.20     4400.00
04262               1.80     4200.00
04263               2.00     4200.00
04264               1.80     4000.00
04265               2.00     4000.00
04266               2.00     4000.00
04267               2.00     4000.00
04268               2.20     4000.00
04269               1.80     3800.00
04270               1.80     3800.00
04271               1.80     3800.00
04272               1.80     3800.00
04273               2.00     3800.00
04274               2.20     3600.00
04275               1.00     3800.00
04276               1.40     3600.00
04277               2.00     3600.00
04278               1.00     3400.00
04279               2.00     3600.00
04280               2.00     3400.00
04281               0.40     3200.00
04282               1.80     3200.00
04283               2.20     3400.00
04284               0.80     3200.00
04285               1.20     3200.00
04286               2.20     3200.00
04287               1.00     3000.00
04288               1.20     3200.00
04289               2.00     3000.00
04290               1.20     3000.00
04291               0.80     3000.00
04292               1.40     3000.00
04293               1.00     2800.00
04294               0.60     2800.00
04295               1.00     2800.00
04296               1.20     2600.00
04297               0.80     2800.00
04298               1.00     2600.00
04299               1.40     2400.00
04300               0.60     2400.00
04301               1.20     2400.00
04302               1.00     2200.00
04303               0.40     2400.00
04304               1.00     2200.00
04305               1.00     2200.00
04306               0.40     2000.00
04307               0.60     2000.00
04308               1.20     2000.00
04309               0.60     2000.00
04310               0.20     2000.00
04311               0.60     2000.00
04312               0.60     1800.00
04313               0.20     1800.00
04314               0.40     1600.00
04315               0.60     1800.00
04316               0.20     1800.00
04317               0.20     1600.00
04318               0.40     1400.00
04319               0.20     1400.00
04320               0.00     1600.00
04321               0.40     1400.00
04322               0.20     1200.00
04323              -0.20     1400.00
04324               0.00     1200.00
04325               0.60     1200.00
04326              -0.40     1200.00
04327              -0.60      800.00
04328               0.40      800.00
04329               0.40      800.00
04330              -1.00      800.00
04331              -0.20      800.00
04332               1.40      800.00
04333              -0.60      600.00
04334              -1.20      600.00
04335               1.20      600.00
04336               0.20      600.00
04337              -1.80      400.00
04338               0.40      400.00
04339               1.00      400.00
04340              -0.80      200.00
04341              -1.00      400.00
04342               0.40      400.00
04343               0.40      200.00
04344              -1.20      200.00
04345              -0.80        0.00
04346               1.00        0.00
04347              -0.40        0.00
04348              -1.20        0.00
04349               1.20     -200.00
04350               1.20     -200.00
04351              -1.20     -200.00
04352              -0.60     -200.00
04353               0.20     -400.00
04354              -0.80     -400.00
04355               1.20     -400.00
04356              18.80     -600.00
04357               3.60     -800.00
04358             -25.00     -800.00
04359             -24.60     -400.00
04360              25.00     -800.00
04361              25.00     -800.00
04362             -25.00    -1000.00
04363             -21.00     -400.00
04364              25.00    -1000.00
04365              11.80    -1200.00
04366             -25.00     -800.00
04367              25.00    -1000.00
04368              25.00    -1200.00
04369             -25.00    -1200.00
04370             -25.00    -1000.00
04371              25.00    -1200.00
04372              25.00    -1600.00
04373             -25.00    -1000.00
04374               5.80    -1800.00
04375              25.00    -1600.00
04376             -25.00    -1600.00
04377             -25.00    -1400.00
04378              25.00    -2000.00
04379              25.00    -1600.00
04380             -25.00    -1800.00
04381              25.00    -2000.00
04382              25.00    -2000.00
04383             -25.00    -1800.00
04384             -25.00    -2000.00
04385              25.00    -2200.00
04386             -22.20    -2000.00
04387             -25.00    -2000.00
04388              25.00    -2400.00
04389              25.00    -2200.00
04390             -25.00    -2400.00
04391              -8.60    -2600.00
04392              25.00    -2400.00
04393             -25.00    -2600.00
04394             -25.00    -2600.00
04395              25.00    -2600.00
04396              16.60    -2600.00
04397             -25.00    -2800.00
04398              25.00    -2800.00
04399              25.00    -2800.00
04400             -25.00    -2800.00
04401              -6.60    -3200.00
04402              25.00    -3000.00
04403             -25.00    -3200.00
04404             -25.00    -3000.00
04405              25.00    -3200.00
04406               6.80    -3200.00
04407             -25.00    -3400.00
04408              10.40    -3200.00
04409              23.00    -3200.00
04410             -25.00    -3200.00
04411              -9.20    -3400.00
04412              22.20    -3400.00
04413              -8.60    -3400.00
04414             -19.20    -3600.00
04415              12.60    -3600.00
04416               5.00    -3600.00
04417             -18.20    -3600.00
04418              -0.60    -3800.00
04419              11.80    -3600.00
04420             -12.20    -3800.00
04421              -9.20    -3800.00
04422              10.80    -3800.00
04423              -2.60    -4000.00
04424             -14.20    -4000.00
04425               4.60    -4000.00
04426               4.20    -4000.00
04427             -13.00    -4200.00
04428              -3.40    -4200.00
04429               7.00    -4200.00
04430              -7.00    -4200.00
04431              -9.20    -4400.00
04432               4.40    -4400.00
04433              -1.20    -4200.00
04434             -10.00    -4400.00
04435              -1.00    -4400.00
04436               2.80    -4400.00
04437              -7.20    -4400.00
04438              -5.40    -4400.00
04439               1.20    -4600.00
04440              -2.80    -4600.00
04441              -7.60    -4800.00
04442              -1.80    -4600.00
04443              -1.00    -4800.00
04444              -5.40    -4800.00
04445              -4.60    -4800.00
04446              -1.20    -4800.00
04447              -3.80    -4800.00
04448              -5.80    -5000.00
04449              -2.80    -4800.00
04450              -2.40    -5000.00
04451              -4.40    -5000.00
04452              -4.60    -5000.00
04453              -3.60    -5200.00
04454              -3.80    -5200.00
04455              -4.40    -5200.00
04456              -4.40    -5200.00
04457              -3.80    -5200.00
04458              -3.80    -5200.00
04459              -4.60    -5200.00
04460              -4.80    -5400.00
04461              -3.00    -5400.00
04462              -5.20    -5600.00
04463              -5.40    -5400.00
04464              -3.40    -5600.00
04465              -4.20    -5400.00
04466              -6.00    -5600.00
04467              -3.80    -5600.00
04468              -4.40    -5600.00
04469              -6.00    -5600.00
04470              -4.40    -5600.00
04471              -4.40    -5800.00
04472              -5.40    -5600.00
04473              -5.20    -5800.00
04474              -4.60    -5600.00
04475              -5.40    -5600.00
04476              -6.00    -5600.00
04477              -5.20    -6000.00
04478              -5.40    -5800.00
04479              -6.00    -5800.00
04480              -5.20    -5800.00
04481              -5.80    -6000.00
04482              -5.80    -6000.00
04483              -6.00    -6000.00
04484              -6.20    -6000.00
04485              -6.20    -6000.00
04486              -6.20    -6000.00
04487              -6.60    -6000.00
04488              -6.20    -6000.00
04489              -6.20    -6000.00
04490              -6.60    -6200.00
04491              -7.40    -6000.00
04492              -6.60    -6000.00
04493              -6.80    -6000.00
04494              -7.80    -6000.00
04495              -7.00    -6200.00
04496              -6.80    -6200.00
04497              -7.60    -6200.00
04498              -7.60    -6200.00
04499              -7.00    -6000.00
04500              -8.20    -6200.00
04501              -8.60    -6400.00
04502              -7.40    -6200.00
04503              -7.60    -6400.00
04504              -9.20    -6400.00
04505              -8.20    -6400.00
04506              -8.40    -6400.00
04507              -9.20    -6400.00
04508              -9.00    -6400.00
04509              -8.80    -6400.00
04510              -9.20    -6400.00
04511              -9.40    -6600.00
04512              -9.80    -6400.00
04513              -9.60    -6400.00
04514              -9.80    -6400.00
04515             -10.40    -6600.00
04516              -9.40    -6400.00
04517              -9.80    -6600.00
04518             -10.80    -6400.00
04519             -10.20    -6400.00
04520             -10.20    -6400.00
04521             -11.60    -6400.00
04522             -11.00    -6400.00
04523             -10.20    -6400.00
04524             -11.80    -6400.00
04525             -11.80    -6400.00
04526             -10.20    -6400.00
04527             -11.80    -6600.00
04528             -12.20    -6400.00
04529             -11.00    -6400.00
04530             -11.60    -6400.00
04531             -12.20    -6400.00
04532             -11.60    -6600.00
04533             -11.60    -6400.00
04534             -11.80    -6600.00
04535             -12.40    -6400.00
04536             -11.60    -6400.00
04537             -11.40    -6600.00
04538             -12.00    -6400.00
04539             -11.60    -6400.00
04540             -11.00    -6600.00
04541             -11.40    -6400.00
04542             -11.60    -6600.00
04543             -10.60    -6400.00
04544             -10.20    -6400.00
04545             -10.60    -6400.00
04546             -10.00    -6400.00
04547              -9.40    -6400.00
04548             -10.00    -6400.00
04549              -9.80    -6400.00
04550              -9.20    -6400.00
04551              -9.20    -6400.00
04552              -9.40    -6400.00
04553              -9.20    -6400.00
04554              -8.40    -6400.00
04555              -8.60    -6400.00
04556              -8.60    -6400.00
04557              -8.00    -6400.00
04558              -8.20    -6400.00
04559              -8.20    -6400.00
04560              -7.60    -6400.00
04561              -7.80    -6200.00
04562              -7.60    -6400.00
04563              -7.20    -6400.00
04564              -7.60    -6200.00
04565              -7.40    -6000.00
04566              -7.00    -6200.00
04567              -7.60    -6200.00
04568              -7.00    -6000.00
04569              -6.60    -6000.00
04570              -7.40    -6000.00
04571              -6.80    -6000.00
04572              -6.20    -6200.00
04573              -6.80    -6000.00
04574              -6.60    -6000.00
04575              -6.20    -6000.00
04576              -6.40    -6000.00
04577              -6.00    -6000.00
04578              -6.20    -6000.00
04579              -6.00    -6000.00
04580              -6.00    -6000.00
04581              -5.80    -5800.00
04582              -5.80    -6000.00
04583              -6.00    -5800.00
04584              -5.20    -5800.00
04585              -5.80    -5800.00
04586              -6.20    -5800.00
04587              -5.20    -5800.00
04588              -5.20    -5800.00
04589              -5.40    -5800.00
04590              -5.00    -5600.00
04591              -5.00    -5800.00
04592              -5.00    -5600.00
04593              -5.20    -5600.00
04594              -4.80    -5600.00
04595              -5.00    -5600.00
04596              -5.00    -5600.00
04597              -4.40    -5600.00
04598              -4.00    -5400.00
04599              -4.40    -5600.00
04600              -4.60    -5400.00
04601              -4.20    -5400.00
04602              -4.40    -5200.00
04603              -4.60    -5200.00
04604              -3.60    -5200.00
04605              -3.80    -5200.00
04606              -4.20    -5200.00
04607              -4.00    -5200.00
04608              -3.80    -5200.00
04609              -4.20    -5200.00
04610              -3.80    -5000.00
04611              -3.60    -5000.00
04612              -3.60    -4800.00
04613              -3.60    -5000.00
04614              -3.60    -5000.00
04615              -3.80    -4800.00
04616              -3.80    -5000.00
04617              -3.40    -5000.00
04618              -3.00    -4800.00
04619              -3.40    -4800.00
04620              -3.00    -4600.00
04621              -3.00    -4600.00
04622              -3.40    -4600.00
04623              -3.00    -4400.00
04624              -3.00    -4600.00
04625              -2.80    -4400.00
04626              -2.80    -4400.00
04627              -2.80    -4400.00
04628              -2.80    -4400.00
04629              -3.40    -4400.00
04630              -2.20    -4200.00
04631              -2.60    -4200.00
04632              -3.40    -4200.00
04633              -2.20    -4200.00
04634              -3.00    -4200.00
04635              -2.60    -4000.00
04636              -2.00    -4200.00
04637              -3.00    -4000.00
04638              -2.00    -4000.00
04639              -2.40    -4000.00
04640              -3.40    -4000.00
04641              -1.60    -3800.00
04642              -1.80    -3800.00
04643              -3.80    -3600.00
04644              -2.60    -3600.00
04645              -1.00    -3800.00
04646              -2.80    -3600.00
04647              -2.80    -3600.00
04648              -2.00    -3600.00
04649              -2.20    -3400.00
04650              -2.20    -3600.00
04651              -2.20    -3400.00
04652              -1.80    -3400.00
04653              -1.80    -3400.00
04654              -2.20    -3200.00
04655              -2.00    -3200.00
04656              -1.80    -3400.00
04657              -2.20    -3200.00
04658              -2.20    -3200.00
04659              -1.60    -3200.00
04660              -1.80    -3200.00
04661              -2.20    -3000.00
04662              -1.60    -3000.00
04663              -1.80    -2800.00
04664              -2.20    -2800.00
04665              -1.20    -2800.00
04666              -1.20    -2800.00
04667              -2.20    -2800.00
04668              -1.20    -2400.00
04669              -1.20    -2600.00
04670              -1.80    -2600.00
04671              -1.80    -2400.00
04672              -0.80    -2400.00
04673              -1.40    -2400.00
04674              -1.80    -2400.00
04675              -1.20    -2400.00
04676              -1.20    -2400.00
04677              -1.80    -2200.00
04678              -1.40    -2200.00
04679              -0.80    -2200.00
04680              -1.00    -2000.00
04681              -1.60    -2000.00
04682              -1.00    -2000.00
04683              -0.80    -2000.00
04684              -1.20    -2000.00
04685              -1.00    -1800.00
04686              -0.60    -1800.00
04687              -1.00    -1600.00
04688              -1.20    -1600.00
04689              -0.80    -1600.00
04690              -0.60    -1600.00
04691              -1.40    -1600.00
04692              -1.00    -1600.00
04693              -0.60    -1400.00
04694              -0.80    -1200.00
04695              -1.20    -1200.00
04696              -0.40    -1200.00
04697              -0.40    -1000.00
04698              -1.20    -1000.00
04699              -0.40    -1000.00
04700              -0.40    -1000.00
04701              -1.00    -1000.00
04702              -0.60    -1000.00
04703              -0.80     -800.00
04704              -0.80     -800.00
04705              -0.60     -800.00
04706              -0.60     -400.00
04707              -0.60     -600.00
04708              -0.40     -400.00
04709              -0.80     -400.00
04710              -0.40     -400.00
04711              -0.20     -400.00
04712              -1.00     -400.00
04713              -0.60     -200.00
04714              -0.20     -200.00
04715              -0.40     -200.00
04716              -0.60        0.00
04717              -0.60        0.00
04718               0.20        0.00
04719               0.20        0.00
04720              -0.40        0.00
04721               0.00        0.00
04722               0.60      200.00
04723              -0.60        0.00
04724              -0.60      400.00
04725              -0.20      400.00
04726              -0.40      400.00
04727               1.80      400.00
04728               9.20      600.00
04729               7.00      800.00
04730             -24.20      600.00
04731             -25.00      600.00
04732              25.00      600.00
04733              25.00     1000.00
04734             -25.00      800.00
04735             -25.00      800.00
04736              25.00     1200.00
04737              25.00      800.00
04738             -25.00     1200.00
04739              -1.20      600.00
04740              25.00     1600.00
04741             -19.40      600.00
04742             -25.00     1800.00
04743              25.00     1000.00
04744              25.00     1600.00
04745             -25.00     1200.00
04746              14.80     1600.00
04747              25.00     1800.00
04748             -25.00     1600.00
04749             -25.00     2000.00
04750              25.00     1600.00
04751              25.00     2000.00
04752             -25.00     2000.00
04753              25.00     2000.00
04754              25.00     1800.00
04755             -25.00     2200.00
04756             -25.00     2000.00
04757              25.00     2000.00
04758              -7.60     2200.00
04759             -25.00     2200.00
04760              25.00     2000.00
04761              25.00     2400.00
04762             -25.00     2400.00
04763              -7.40     2400.00
04764              25.00     2400.00
04765             -25.00     2800.00
04766             -25.00     2400.00
04767              25.00     2600.00
04768              18.80     2600.00
04769             -25.00     2600.00
04770              25.00     2800.00
04771              25.00     2800.00
04772             -25.00     2800.00
04773             -10.80     2800.00
04774              25.00     3000.00
04775             -16.20     3200.00
04776             -25.00     3200.00
04777              25.00     3000.00
04778              13.40     3200.00
04779             -25.00     3200.00
04780              11.40     3200.00
04781              24.80     3200.00
04782             -18.60     3600.00
04783             -10.00     3200.00
04784              25.00     3600.00
04785              -2.80     3400.00
04786             -16.60     3600.00
04787              14.20     3600.00
04788              11.00     3600.00
04789             -15.00     3800.00
04790               2.20     3600.00
04791              15.80     3600.00
04792              -6.80     3800.00
04793              -5.80     3800.00
04794              13.80     3800.00
04795               3.00     4000.00
04796             -10.00     4000.00
04797               8.40     4000.00
04798               8.40     4000.00
04799              -6.60     4200.00
04800               0.60     4200.00
04801              11.60     4200.00
04802              -3.00     4400.00
04803              -2.80     4200.00
04804               8.60     4400.00
04805               3.60     4200.00
04806              -4.40     4400.00
04807               5.80     4400.00
04808               6.80     4400.00
04809              -1.80     4400.00
04810               1.20     4400.00
04811               7.60     4800.00
04812               1.40     4400.00
04813              -1.00     4600.00
04814               5.20     4600.00
04815               4.40     4800.00
04816               0.40     4800.00
04817               3.60     4800.00
04818               4.60     4800.00
04819               1.20     4800.00
04820               3.00     5000.00
04821               4.40     4800.00
04822               2.80     5000.00
04823               2.20     5200.00
04824               5.20     5200.00
04825               3.40     5200.00
04826               2.60     5200.00
04827               3.60     5200.00
04828               4.20     5400.00
04829               2.60     5400.00
04830               4.00     5200.00
04831               4.40     5200.00
04832               3.40     5400.00
04833               3.00     5400.00
04834               4.40     5400.00
04835               3.40     5400.00
04836               4.20     5400.00
04837               4.60     5600.00
04838               3.60     5600.00
04839               4.20     5600.00
04840               5.00     5600.00
04841               3.60     5400.00
04842               3.60     5600.00
04843               5.80     5600.00
04844               5.00     5600.00
04845               3.60     5600.00
04846               5.00     5800.00
04847               5.20     5600.00
04848               3.80     5800.00
04849               5.20     6000.00
04850               5.80     5800.00
04851               5.20     6000.00
04852               4.60     6000.00
04853               5.80     6000.00
04854               5.60     6000.00
04855               5.20     6000.00
04856               5.60     6000.00
04857               6.40     6000.00
04858               5.80     6000.00
04859               5.40     6000.00
04860               6.40     6200.00
04861               6.80     6000.00
04862               6.00     6000.00
04863               6.60     6000.00
04864               7.00     6000.00
04865               6.60     6200.00
04866               6.00     6200.00
04867               6.80     6200.00
04868               7.60     6200.00
04869               6.80     6200.00
04870               7.00     6200.00
04871               7.80     6400.00
04872               7.00     6200.00
04873               7.00     6400.00
04874               9.00     6200.00
04875               8.20     6200.00
04876               7.40     6400.00
04877               8.40     6400.00
04878               8.60     6200.00
04879               7.00     6600.00
04880               8.60     6400.00
04881               9.00     6400.00
04882               9.00     6400.00
04883               8.40     6400.00
04884               9.80     6400.00
04885               9.80     6400.00
04886               9.00     6400.00
04887               9.40     6400.00
04888              10.60     6400.00
04889               9.40     6400.00
04890               9.80     6400.00
04891              10.80     6400.00
04892              10.00     6400.00
04893              10.00     6400.00
04894              10.80     6400.00
04895              10.60     6600.00
04896              10.00     6400.00
04897              11.20     6400.00
04898              11.00     6400.00
04899              10.60     6400.00
04900              11.00     6400.00
04901              11.40     6400.00
04902              11.00     6400.00
04903              10.80     6400.00
04904              11.60     6400.00
04905              11.80     6400.00
04906              10.80     6400.00
04907              11.60     6600.00
04908              11.40     6400.00
04909              10.60     6400.00
04910              11.40     6400.00
04911              11.20     6400.00
04912              10.00     6400.00
04913              10.00     6400.00
04914              10.60     6400.00
04915              10.00     6200.00
04916               9.40     6400.00
04917              10.00     6400.00
04918              10.00     6400.00
04919               9.00     6400.00
04920               9.00     6400.00
04921               9.00     6400.00
04922               8.40     6400.00
04923               8.20     6400.00
04924               8.60     6400.00
04925               8.20     6200.00
04926               7.80     6400.00
04927               8.20     6200.00
04928               8.00     6200.00
04929               7.40     6200.00
04930               7.60     6400.00
04931               7.40     6200.00
04932               7.60     6200.00
04933               7.40     6400.00
04934               7.40     6200.00
04935               6.80     6200.00
04936               6.80     6400.00
04937               6.60     6400.00
04938               6.60     6000.00
04939               6.80     6200.00
04940               6.40     6200.00
04941               6.60     6200.00
04942               6.60     6200.00
04943               6.00     6000.00
04944               6.00     6200.00
04945               6.00     6000.00
04946               5.80     6200.00
04947               5.80     6000.00
04948               6.20     6000.00
04949               5.80     6000.00
04950               5.20     6000.00
04951               5.60     6000.00
04952               5.80     6000.00
04953               5.20     6000.00
04954               5.00     6000.00
04955               5.20     6000.00
04956               5.20     5600.00
04957               5.00     6000.00
04958               4.40     5800.00
04959               5.00     5600.00
04960               5.40     5800.00
04961               4.40     5600.00
04962               4.20     5600.00
04963               4.60     5600.00
04964               4.20     5600.00
04965               4.20     5600.00
04966               4.40     5600.00
04967               4.20     5600.00
04968               3.80     5600.00
04969               4.20     5400.00
04970               3.80     5600.00
04971               3.40     5400.00
04972               3.80     5400.00
04973               3.80     5400.00
04974               3.80     5400.00
04975               3.20     5200.00
04976               3.00     5400.00
04977               3.60     5200.00
04978               4.20     5200.00
04979               3.60     5200.00
04980               3.00     5000.00
04981               3.00     5200.00
04982               3.00     5000.00
04983               3.40     4800.00
04984               3.00     4800.00
04985               3.40     4800.00
04986               3.40     4800.00
04987               2.80     4800.00
04988               2.20     4800.00
04989               2.80     4800.00
04990               2.80     4800.00
04991               2.20     4800.00
04992               3.60     4600.00
04993               4.60     4600.00
04994               1.40     4600.00
04995               1.40     4600.00
04996               3.60     4600.00
04997               2.20     4600.00
04998               2.00     4400.00
04999               3.60     4400.00
05000               3.00     4400.00
