Unit:(mV)
                     CH1         CH2
Frequency              ? 208.426 kHz
00001              -1.20   -12200.00
00002              -1.40   -12200.00
00003              -1.80   -12000.00
00004              -0.60   -12000.00
00005              -1.60   -12000.00
00006              -2.00   -12000.00
00007              -1.00   -12000.00
00008              -1.40   -11800.00
00009              -2.20   -11600.00
00010              -1.20   -11800.00
00011              -1.60   -11600.00
00012              -1.20   -11400.00
00013              -1.20   -11400.00
00014              -1.60   -11400.00
00015              -2.00   -11000.00
00016              -1.20   -11000.00
00017              -1.40   -11000.00
00018              -1.20   -11000.00
00019              -1.60   -10800.00
00020              -1.80   -10800.00
00021              -1.20   -10600.00
00022              -1.20   -10400.00
00023              -2.00   -10400.00
00024              -1.40   -10400.00
00025              -0.60   -10400.00
00026              -1.80   -10200.00
00027              -1.40   -10000.00
00028              -1.20   -10000.00
00029              -1.40   -10000.00
00030              -1.20    -9800.00
00031              -1.00    -9600.00
00032              -1.40    -9600.00
00033              -1.80    -9400.00
00034              -1.20    -9200.00
00035              -1.40    -9200.00
00036              -1.40    -9000.00
00037              -1.00    -9000.00
00038              -1.00    -8800.00
00039              -1.20    -8400.00
00040              -1.20    -8600.00
00041              -1.00    -8400.00
00042              -1.20    -8200.00
00043              -1.40    -8200.00
00044              -1.00    -8000.00
00045              -1.00    -7800.00
00046              -1.20    -7800.00
00047              -0.60    -7600.00
00048              -1.20    -7400.00
00049              -1.00    -7400.00
00050              -0.60    -7200.00
00051              -1.20    -7200.00
00052              -0.80    -7000.00
00053              -0.60    -6800.00
00054              -1.00    -6600.00
00055              -0.80    -6400.00
00056              -0.40    -6400.00
00057              -1.00    -6200.00
00058              -0.80    -6000.00
00059              -0.40    -6000.00
00060              -1.20    -5800.00
00061              -1.00    -5600.00
00062              -0.20    -5600.00
00063              -0.60    -5200.00
00064              -1.00    -5000.00
00065              -0.60    -5000.00
00066              -0.60    -4600.00
00067              -0.80    -4600.00
00068              -0.60    -4400.00
00069              -0.60    -4400.00
00070              -0.60    -4200.00
00071              -1.00    -4000.00
00072              -0.40    -4000.00
00073              -0.60    -3600.00
00074              -1.20    -3600.00
00075              -0.60    -3400.00
00076              -0.20    -3200.00
00077              -1.20    -3200.00
00078              -0.60    -2800.00
00079              -0.40    -2600.00
00080              -1.00    -2600.00
00081              -1.00    -2400.00
00082               0.00    -2000.00
00083              -0.60    -2000.00
00084              -1.00    -2000.00
00085              -0.20    -1800.00
00086              -0.40    -1600.00
00087              -1.20    -1400.00
00088              -0.20    -1200.00
00089              -0.40    -1000.00
00090              -1.00     -800.00
00091              -0.20     -800.00
00092               0.20     -600.00
00093              -1.00     -400.00
00094              -0.60     -200.00
00095               0.20     -200.00
00096              -0.60        0.00
00097               0.00      200.00
00098               2.00      400.00
00099               0.60      600.00
00100              -1.60      600.00
00101               0.40      800.00
00102               1.00     1200.00
00103              -0.60     1200.00
00104               1.00     1400.00
00105               7.40     1800.00
00106              20.20     2000.00
00107             -12.60     2000.00
00108             -25.00     2200.00
00109               3.60     2200.00
00110               3.60     2200.00
00111              21.20     2800.00
00112              19.40     2800.00
00113             -25.00     3000.00
00114              25.00     3200.00
00115              25.00     3000.00
00116             -25.00     3200.00
00117              14.20     3600.00
00118              25.00     3600.00
00119             -25.00     3800.00
00120               8.60     4000.00
00121              22.80     4200.00
00122             -14.80     4400.00
00123               5.20     4400.00
00124             -13.40     4600.00
00125              18.20     4800.00
00126               2.00     5000.00
00127             -25.00     5400.00
00128              25.00     5400.00
00129              17.80     5600.00
00130             -25.00     5600.00
00131              -4.40     5800.00
00132              25.00     6000.00
00133             -12.40     6200.00
00134             -25.00     6400.00
00135              25.00     6400.00
00136               3.80     6800.00
00137             -23.00     6800.00
00138              13.40     6800.00
00139              10.60     7000.00
00140             -18.80     7200.00
00141               2.20     7200.00
00142              18.00     7600.00
00143             -12.40     7800.00
00144              -4.20     7600.00
00145              14.00     7800.00
00146              -4.60     8200.00
00147              -6.40     8000.00
00148               6.40     8400.00
00149               2.00     8400.00
00150              -2.60     8600.00
00151               1.80     8600.00
00152               2.00     8800.00
00153               0.20     8800.00
00154              -1.20     9200.00
00155               2.00     9200.00
00156               2.00     9200.00
00157              -3.00     9600.00
00158               1.40     9400.00
00159               4.20     9600.00
00160              -2.00     9600.00
00161              -1.20    10000.00
00162               4.40    10000.00
00163              -0.60    10200.00
00164              -2.80    10200.00
00165               4.00    10200.00
00166               2.40    10400.00
00167              -2.20    10400.00
00168               1.80    10800.00
00169               2.80    10600.00
00170              -1.80    10800.00
00171               0.60    10800.00
00172               2.00    11000.00
00173              -0.20    11000.00
00174               1.20    11200.00
00175               1.40    11200.00
00176               0.40    11200.00
00177               0.40    11400.00
00178               0.20    11600.00
00179               1.80    11600.00
00180               2.00    11600.00
00181               0.60    11800.00
00182               1.00    11800.00
00183               1.00    11800.00
00184               1.00    12000.00
00185               1.00    12000.00
00186               1.20    12000.00
00187               1.20    12200.00
00188               1.00    12400.00
00189               1.40    12200.00
00190               1.00    12400.00
00191               0.40    12400.00
00192               1.40    12400.00
00193               1.40    12400.00
00194               1.00    12400.00
00195               1.00    12400.00
00196               1.80    12600.00
00197               1.40    12600.00
00198               0.60    12600.00
00199               1.80    12600.00
00200               0.60    12800.00
00201               0.20    12800.00
00202               2.00    12800.00
00203               2.20    12800.00
00204               0.20    12800.00
00205               0.40    12800.00
00206               2.00    12800.00
00207               1.20    12800.00
00208               0.40    13000.00
00209               1.40    12800.00
00210               1.20    13000.00
00211               0.60    12800.00
00212               1.80    12800.00
00213               1.40    13000.00
00214               0.40    13000.00
00215               1.00    13000.00
00216               1.40    13200.00
00217               1.40    12800.00
00218               0.40    13000.00
00219               0.40    12800.00
00220               1.40    12800.00
00221               1.40    12800.00
00222               0.60    12800.00
00223               1.00    12800.00
00224               0.80    12800.00
00225               1.40    12800.00
00226               1.20    12800.00
00227               0.60    12800.00
00228               1.00    12800.00
00229               1.00    12800.00
00230               1.20    12600.00
00231               0.60    12600.00
00232               1.00    12600.00
00233               1.00    12600.00
00234               1.00    12600.00
00235               1.20    12600.00
00236               1.40    12400.00
00237               1.20    12400.00
00238               1.00    12400.00
00239               1.60    12400.00
00240               0.60    12400.00
00241               0.40    12400.00
00242               1.20    12000.00
00243               1.00    12000.00
00244               1.00    12000.00
00245               1.40    12000.00
00246               1.20    11800.00
00247               0.40    11800.00
00248               0.80    11800.00
00249               1.40    11800.00
00250               0.80    11600.00
00251               0.40    11600.00
00252               1.40    11400.00
00253               1.20    11400.00
00254               1.00    11200.00
00255               0.40    11200.00
00256               0.60    11200.00
00257               1.00    11000.00
00258               1.20    10800.00
00259               1.20    11000.00
00260               0.60    10800.00
00261               0.60    10800.00
00262               1.00    10600.00
00263               0.40    10400.00
00264               1.00    10600.00
00265               1.00    10200.00
00266               0.60    10200.00
00267               0.60    10000.00
00268               0.60     9600.00
00269               0.40    10000.00
00270               0.40     9600.00
00271               0.60     9600.00
00272               0.60     9400.00
00273               0.40     9200.00
00274               0.80     9200.00
00275               0.60     9200.00
00276               0.20     9000.00
00277               0.40     9000.00
00278               0.40     8800.00
00279               0.20     8600.00
00280               0.40     8600.00
00281               0.40     8400.00
00282               0.40     8200.00
00283               0.40     8200.00
00284               0.40     8000.00
00285               0.40     7800.00
00286               0.40     7800.00
00287               0.20     7600.00
00288               0.20     7600.00
00289               0.40     7200.00
00290               0.40     7200.00
00291               0.40     7000.00
00292               0.20     7000.00
00293              -0.20     6800.00
00294               0.40     6600.00
00295               0.40     6400.00
00296               0.20     6400.00
00297               0.40     6000.00
00298               0.40     6200.00
00299               0.20     6000.00
00300               0.40     5800.00
00301               0.40     5600.00
00302               0.20     5600.00
00303               0.20     5200.00
00304               0.20     5200.00
00305               0.20     4800.00
00306              -0.40     4800.00
00307               1.00     4600.00
00308               0.40     4400.00
00309              -0.60     4200.00
00310               0.60     4000.00
00311               0.40     4000.00
00312              -0.60     3800.00
00313               0.20     3600.00
00314               0.40     3600.00
00315              -0.60     3200.00
00316               0.20     3200.00
00317               0.80     3200.00
00318              -0.60     2800.00
00319              -0.40     2800.00
00320               1.00     2800.00
00321              -0.40     2400.00
00322              -0.60     2200.00
00323               0.40     2000.00
00324              -0.20     1800.00
00325              -0.60     1800.00
00326               0.40     1600.00
00327              -0.40     1400.00
00328              -0.40     1200.00
00329              -0.40     1200.00
00330              -0.20      800.00
00331              -0.40      800.00
00332              -0.40      600.00
00333              -0.20      400.00
00334              -0.20      200.00
00335              -0.40        0.00
00336              -0.40     -200.00
00337               0.20     -400.00
00338               1.40     -400.00
00339               0.20     -800.00
00340              -2.00     -800.00
00341               0.20     -800.00
00342               0.60    -1000.00
00343              -1.00    -1200.00
00344               1.80    -1400.00
00345              25.00    -1600.00
00346               1.00    -1800.00
00347             -25.00    -2000.00
00348              -5.80    -2400.00
00349               5.00    -2400.00
00350              25.00    -2400.00
00351              13.00    -2800.00
00352             -25.00    -2600.00
00353              25.00    -2800.00
00354              25.00    -3200.00
00355             -25.00    -3200.00
00356              18.20    -3600.00
00357              25.00    -3600.00
00358             -25.00    -3600.00
00359              25.00    -4000.00
00360              25.00    -4000.00
00361             -25.00    -4200.00
00362              13.80    -4600.00
00363             -25.00    -4400.00
00364              25.00    -4800.00
00365               8.40    -4800.00
00366             -25.00    -5000.00
00367              25.00    -5200.00
00368              12.40    -5400.00
00369             -25.00    -5800.00
00370               6.00    -5800.00
00371              25.00    -5800.00
00372             -15.80    -6000.00
00373             -25.00    -6200.00
00374              25.00    -6400.00
00375              -5.20    -6400.00
00376             -25.00    -6600.00
00377              25.00    -6800.00
00378              -0.20    -6800.00
00379             -14.60    -7000.00
00380              -5.40    -7200.00
00381              19.60    -7200.00
00382             -10.60    -7400.00
00383             -10.60    -7600.00
00384              19.60    -7800.00
00385             -11.60    -8000.00
00386              -7.60    -8000.00
00387               6.60    -8200.00
00388               1.40    -8200.00
00389              -7.00    -8400.00
00390               1.00    -8600.00
00391               3.00    -8800.00
00392              -3.00    -8800.00
00393              -4.60    -9000.00
00394               2.20    -9200.00
00395               2.00    -9200.00
00396              -8.60    -9200.00
00397               4.60    -9400.00
00398               1.60    -9400.00
00399              -6.60    -9600.00
00400              -2.00    -9800.00
00401               3.80    -9800.00
00402              -3.00   -10000.00
00403              -6.80   -10000.00
00404               5.40   -10200.00
00405              -0.20   -10200.00
00406              -6.80   -10400.00
00407               0.60   -10400.00
00408               2.00   -10600.00
00409              -6.00   -10800.00
00410              -1.40   -10800.00
00411               2.00   -10800.00
00412              -2.20   -11000.00
00413              -3.80   -11000.00
00414               0.40   -11200.00
00415               0.40   -11200.00
00416              -4.60   -11400.00
00417              -1.20   -11400.00
00418               0.20   -11600.00
00419              -2.00   -11600.00
00420              -2.00   -11600.00
00421              -1.20   -11600.00
00422              -1.20   -11800.00
00423              -2.40   -12000.00
00424              -0.80   -12000.00
00425              -0.60   -12000.00
00426              -2.80   -12000.00
00427              -1.20   -12000.00
00428              -0.40   -12200.00
00429              -2.00   -12400.00
00430              -2.20   -12200.00
00431              -0.80   -12400.00
00432              -1.00   -12600.00
00433              -1.80   -12400.00
00434              -1.80   -12400.00
00435              -1.80   -12400.00
00436              -1.80   -12600.00
00437              -0.80   -12600.00
00438              -2.00   -12800.00
00439              -2.00   -12800.00
00440              -0.60   -12800.00
00441              -1.20   -12800.00
00442              -1.40   -12800.00
00443              -1.40   -12800.00
00444              -1.40   -13000.00
00445              -1.80   -13000.00
00446              -1.80   -12800.00
00447              -1.00   -12800.00
00448              -1.80   -13000.00
00449              -2.00   -13000.00
00450              -1.20   -13000.00
00451              -1.00   -13000.00
00452              -1.80   -13000.00
00453              -2.20   -13000.00
00454              -1.20   -13000.00
00455               0.20   -13000.00
00456              -2.80   -12800.00
00457              -1.20   -13000.00
00458              -0.60   -13000.00
00459              -2.60   -13000.00
00460              -2.00   -13000.00
00461              -0.40   -13000.00
00462              -2.20   -13000.00
00463              -2.20   -12800.00
00464              -0.60   -13000.00
00465              -1.40   -12800.00
00466              -2.80   -12800.00
00467              -1.40   -13000.00
00468              -1.20   -12800.00
00469              -2.00   -12800.00
00470              -1.80   -12800.00
00471              -1.00   -12800.00
00472              -2.00   -12800.00
00473              -2.20   -12800.00
00474              -0.60   -12600.00
00475              -2.00   -12400.00
00476              -2.20   -12400.00
00477              -1.20   -12400.00
00478              -1.20   -12400.00
00479              -2.20   -12400.00
00480              -1.80   -12400.00
00481              -1.20   -12200.00
00482              -2.20   -12000.00
00483              -1.80   -12200.00
00484               0.20   -12000.00
00485              -2.60   -12000.00
00486              -2.80   -12000.00
00487              -0.40   -11800.00
00488              -1.00   -12000.00
00489              -3.00   -11600.00
00490              -1.20   -11600.00
00491              -0.60   -11600.00
00492              -1.40   -11400.00
00493              -2.20   -11400.00
00494              -0.60   -11200.00
00495              -1.80   -11000.00
00496              -1.40   -11000.00
00497              -1.20   -10800.00
00498              -2.00   -11000.00
00499              -1.40   -10800.00
00500              -0.40   -10600.00
00501              -2.00   -10600.00
00502              -1.40   -10600.00
00503              -0.60   -10400.00
00504              -1.80   -10400.00
00505              -1.80   -10200.00
00506              -0.40   -10200.00
00507              -1.80   -10000.00
00508              -1.80    -9800.00
00509              -0.60    -9800.00
00510              -1.00    -9600.00
00511              -1.80    -9600.00
00512              -0.60    -9600.00
00513              -0.60    -9400.00
00514              -1.80    -9200.00
00515              -1.00    -9000.00
00516              -0.60    -9000.00
00517              -1.40    -9000.00
00518              -1.40    -8800.00
00519              -0.60    -8600.00
00520              -1.20    -8600.00
00521              -1.40    -8400.00
00522              -0.80    -8200.00
00523              -1.00    -8200.00
00524              -1.20    -8000.00
00525              -0.60    -8000.00
00526              -1.20    -7600.00
00527              -1.20    -7600.00
00528              -0.80    -7600.00
00529              -1.00    -7200.00
00530              -1.20    -7200.00
00531              -1.00    -7000.00
00532              -0.60    -6800.00
00533              -1.20    -6800.00
00534              -1.00    -6600.00
00535              -0.60    -6400.00
00536              -1.40    -6400.00
00537              -1.00    -6000.00
00538              -0.60    -6000.00
00539              -1.00    -6000.00
00540              -1.60    -5800.00
00541              -0.60    -5600.00
00542              -0.60    -5400.00
00543              -1.20    -5400.00
00544              -0.80    -5000.00
00545              -0.60    -5000.00
00546              -1.00    -4800.00
00547              -1.00    -4600.00
00548              -0.60    -4400.00
00549              -0.60    -4200.00
00550              -0.80    -4200.00
00551              -0.80    -4000.00
00552              -0.60    -3800.00
00553              -1.20    -3600.00
00554              -0.60    -3600.00
00555              -0.60    -3400.00
00556              -1.00    -3200.00
00557              -0.20    -2800.00
00558              -0.40    -2800.00
00559              -1.20    -2800.00
00560              -0.40    -2400.00
00561               0.00    -2400.00
00562              -1.20    -2200.00
00563              -0.60    -2000.00
00564               0.20    -1800.00
00565              -0.60    -1800.00
00566              -0.60    -1600.00
00567               0.00    -1600.00
00568              -0.40    -1200.00
00569              -1.00    -1000.00
00570               0.00    -1000.00
00571              -0.20     -600.00
00572              -0.60     -400.00
00573              -0.20     -400.00
00574               0.20     -200.00
00575              -0.20        0.00
00576              -0.40      200.00
00577               0.40      200.00
00578               2.60      400.00
00579              -0.40      600.00
00580              -1.20      600.00
00581               1.40     1000.00
00582               1.00     1200.00
00583              -1.20     1400.00
00584               1.80     1400.00
00585              10.60     1800.00
00586              18.40     2000.00
00587             -23.00     2000.00
00588             -25.00     2200.00
00589               8.40     2000.00
00590               0.20     2200.00
00591              25.00     2800.00
00592              -2.00     2800.00
00593             -25.00     3000.00
00594              25.00     3200.00
00595              25.00     3000.00
00596             -25.00     3400.00
00597              25.00     3600.00
00598              25.00     3600.00
00599             -25.00     4000.00
00600              25.00     4000.00
00601               9.80     4200.00
00602              -9.80     4400.00
00603               1.20     4400.00
00604             -10.00     4600.00
00605              23.80     4800.00
00606             -13.00     5200.00
00607             -22.60     5200.00
00608              25.00     5400.00
00609               5.00     5600.00
00610             -25.00     5600.00
00611               8.20     5800.00
00612              25.00     6000.00
00613             -24.60     6200.00
00614             -14.20     6400.00
00615              25.00     6400.00
00616              -8.00     6800.00
00617             -18.20     6800.00
00618              19.00     6800.00
00619               3.60     7000.00
00620             -20.20     7200.00
00621              10.40     7200.00
00622              13.40     7600.00
00623             -16.20     7800.00
00624               2.60     7800.00
00625              12.20     8200.00
00626              -7.00     8000.00
00627              -3.60     8200.00
00628               6.20     8400.00
00629               1.00     8600.00
00630              -1.80     8600.00
00631               1.00     8800.00
00632               2.40     8800.00
00633               1.00     8800.00
00634              -2.80     9200.00
00635               2.60     9200.00
00636               3.00     9400.00
00637              -3.00     9400.00
00638               2.00     9600.00
00639               4.20     9600.00
00640              -2.80     9600.00
00641              -0.40    10000.00
00642               5.80    10000.00
00643              -1.60    10200.00
00644              -2.60    10200.00
00645               5.20    10400.00
00646               1.40    10400.00
00647              -2.60    10400.00
00648               2.60    10600.00
00649               2.00    10800.00
00650              -1.40    10800.00
00651               1.20    10800.00
00652               2.60    11000.00
00653               0.20    11200.00
00654              -0.40    11200.00
00655               2.00    11200.00
00656               2.00    11200.00
00657              -0.20    11600.00
00658               0.20    11400.00
00659               2.40    11600.00
00660               1.40    11600.00
00661              -0.20    11600.00
00662               0.60    11800.00
00663               1.40    11800.00
00664               0.40    11800.00
00665               0.80    12000.00
00666               1.40    12000.00
00667               0.80    12200.00
00668               1.20    12200.00
00669               1.20    12200.00
00670               0.60    12400.00
00671               1.00    12400.00
00672               0.60    12400.00
00673               1.20    12400.00
00674               1.40    12400.00
00675               0.60    12400.00
00676               0.40    12600.00
00677               1.40    12600.00
00678               1.00    12600.00
00679               0.60    12800.00
00680               1.20    12800.00
00681               1.40    12800.00
00682               1.00    12800.00
00683               1.00    12800.00
00684               1.20    12800.00
00685               0.40    12800.00
00686               0.80    12800.00
00687               1.80    12800.00
00688               1.20    12800.00
00689               0.80    13000.00
00690               1.40    13000.00
00691               1.20    13000.00
00692               1.20    13000.00
00693               1.00    13000.00
00694               0.40    12800.00
00695               1.00    13000.00
00696               1.40    13000.00
00697               0.80    13000.00
00698               1.00    13000.00
00699               1.40    12800.00
00700               1.00    13000.00
00701               1.20    13000.00
00702               1.40    12800.00
00703               1.40    13000.00
00704               1.00    12800.00
00705               1.20    12800.00
00706               1.20    12800.00
00707               1.40    12800.00
00708               0.60    12800.00
00709               1.40    12800.00
00710               1.40    12600.00
00711               0.60    12600.00
00712               1.00    12600.00
00713               1.40    12600.00
00714               0.80    12600.00
00715               1.20    12600.00
00716               1.40    12400.00
00717               1.00    12600.00
00718               1.00    12400.00
00719               1.20    12200.00
00720               1.00    12400.00
00721               0.40    12200.00
00722               1.20    12200.00
00723               1.00    12000.00
00724               1.00    12000.00
00725               1.00    11800.00
00726               1.00    12000.00
00727               1.00    11800.00
00728               0.60    11800.00
00729               1.00    11600.00
00730               0.40    11600.00
00731               0.40    11600.00
00732               1.00    11400.00
00733               1.00    11200.00
00734               0.40    11200.00
00735               1.00    11200.00
00736               1.00    11200.00
00737               1.00    11000.00
00738               0.60    10800.00
00739               0.60    10800.00
00740               0.60    10800.00
00741               0.60    10600.00
00742               0.40    10400.00
00743               0.60    10400.00
00744               0.40    10200.00
00745               0.40    10400.00
00746               1.00    10000.00
00747               0.80    10000.00
00748               0.40     9800.00
00749               0.80    10000.00
00750               0.60     9600.00
00751               0.40     9600.00
00752               0.60     9400.00
00753               0.60     9400.00
00754               0.20     9200.00
00755               0.60     9200.00
00756               0.40     9000.00
00757               0.40     9000.00
00758               0.40     8800.00
00759               1.00     8600.00
00760               0.40     8400.00
00761               0.40     8400.00
00762               0.60     8400.00
00763               0.40     8200.00
00764               0.40     8000.00
00765               0.60     7800.00
00766               0.60     7800.00
00767               0.40     7600.00
00768               0.60     7600.00
00769               0.60     7200.00
00770               0.40     7200.00
00771               0.20     7000.00
00772               0.40     6800.00
00773               0.40     6800.00
00774               0.40     6600.00
00775               0.40     6400.00
00776               0.20     6200.00
00777               0.40     6000.00
00778               0.40     6000.00
00779               0.40     6000.00
00780               0.20     5600.00
00781               0.40     5600.00
00782               0.20     5200.00
00783               0.40     5200.00
00784               0.40     5200.00
00785              -0.20     4800.00
00786               0.20     4800.00
00787               0.20     4600.00
00788              -0.20     4400.00
00789              -0.20     4200.00
00790               0.20     4000.00
00791              -0.20     3800.00
00792              -0.20     3600.00
00793               0.20     3600.00
00794              -0.20     3400.00
00795               0.00     3200.00
00796              -0.20     3200.00
00797              -0.20     2800.00
00798              -0.20     2800.00
00799              -0.20     2800.00
00800              -0.20     2400.00
00801               0.00     2400.00
00802              -0.40     2200.00
00803              -0.40     2200.00
00804              -0.20     2000.00
00805              -0.40     1600.00
00806              -0.40     1600.00
00807              -0.20     1400.00
00808              -0.60     1200.00
00809              -0.40     1000.00
00810              -0.40      800.00
00811              -0.40      600.00
00812              -0.40      400.00
00813              -0.40      400.00
00814              -0.40        0.00
00815              -0.40        0.00
00816              -0.60     -200.00
00817               0.40     -400.00
00818               1.80     -400.00
00819              -0.20     -800.00
00820              -1.80     -800.00
00821               0.20    -1000.00
00822               0.40    -1200.00
00823              -1.20    -1200.00
00824               4.20    -1400.00
00825              25.00    -1800.00
00826             -14.60    -2000.00
00827             -25.00    -2200.00
00828               3.00    -2400.00
00829               7.00    -2400.00
00830              25.00    -2600.00
00831             -22.00    -2800.00
00832             -25.00    -2400.00
00833              25.00    -3000.00
00834              25.00    -3400.00
00835             -25.00    -3000.00
00836              25.00    -3600.00
00837              25.00    -3600.00
00838             -25.00    -3600.00
00839              25.00    -4200.00
00840              10.00    -4000.00
00841             -12.20    -4400.00
00842               1.20    -4400.00
00843             -25.00    -4400.00
00844              25.00    -4800.00
00845             -25.00    -4600.00
00846             -25.00    -5000.00
00847              25.00    -5200.00
00848             -16.60    -5200.00
00849             -25.00    -5800.00
00850              16.60    -5800.00
00851              25.00    -5800.00
00852             -25.00    -6000.00
00853             -22.60    -6200.00
00854              25.00    -6600.00
00855             -25.00    -6400.00
00856             -18.60    -6600.00
00857              25.00    -6800.00
00858              -7.00    -6800.00
00859             -14.00    -7200.00
00860              -0.20    -7200.00
00861              18.60    -7200.00
00862             -19.40    -7600.00
00863              -1.20    -7600.00
00864              15.80    -7800.00
00865             -15.40    -8000.00
00866              -3.00    -8200.00
00867               5.80    -8400.00
00868              -1.20    -8200.00
00869              -6.60    -8400.00
00870               2.80    -8800.00
00871               1.00    -8800.00
00872              -3.60    -8800.00
00873              -3.80    -9000.00
00874               4.00    -9200.00
00875              -2.00    -9200.00
00876              -7.80    -9200.00
00877               6.00    -9600.00
00878              -1.60    -9600.00
00879              -5.00    -9600.00
00880              -0.80    -9800.00
00881               2.60    -9800.00
00882              -4.20   -10000.00
00883              -4.60   -10000.00
00884               4.60   -10200.00
00885              -1.40   -10200.00
00886              -5.80   -10400.00
00887               1.40   -10600.00
00888               0.80   -10800.00
00889              -5.80   -10800.00
00890              -0.20   -10800.00
00891               1.80   -10800.00
00892              -2.80   -11000.00
00893              -3.80   -11000.00
00894               1.40   -11200.00
00895              -0.60   -11400.00
00896              -4.80   -11400.00
00897               0.20   -11600.00
00898               0.20   -11400.00
00899              -2.20   -11600.00
00900              -2.00   -11800.00
00901              -0.60   -12000.00
00902              -0.60   -11800.00
00903              -3.00   -11800.00
00904              -0.40   -12000.00
00905              -0.40   -12000.00
00906              -3.00   -12000.00
00907              -1.20   -12200.00
00908              -0.20   -12200.00
00909              -2.20   -12200.00
00910              -2.20   -12200.00
00911              -0.40   -12400.00
00912              -1.20   -12400.00
00913              -2.00   -12400.00
00914              -1.20   -12400.00
00915              -1.20   -12400.00
00916              -1.80   -12400.00
00917              -1.00   -12600.00
00918              -2.00   -12800.00
00919              -1.40   -12800.00
00920              -1.20   -12800.00
00921              -2.00   -12800.00
00922              -1.40   -12800.00
00923              -1.20   -13000.00
00924              -1.80   -12800.00
00925              -1.80   -13000.00
00926              -1.20   -12800.00
00927              -1.40   -13000.00
00928              -2.20   -13000.00
00929              -1.80   -13000.00
00930              -1.20   -13000.00
00931              -1.40   -13200.00
00932              -2.00   -13000.00
00933              -2.00   -13000.00
00934              -1.20   -13000.00
00935              -1.80   -13200.00
00936              -2.00   -13000.00
00937              -1.40   -13000.00
00938              -2.00   -13000.00
00939              -2.20   -13000.00
00940              -1.40   -13000.00
00941              -1.20   -13000.00
00942              -2.00   -13000.00
00943              -2.20   -13000.00
00944              -0.60   -13000.00
00945              -1.80   -12800.00
00946              -2.20   -12800.00
00947              -1.40   -12800.00
00948              -1.20   -12800.00
00949              -1.80   -12800.00
00950              -1.80   -12800.00
00951              -1.20   -12800.00
00952              -1.40   -12800.00
00953              -2.00   -12800.00
00954              -1.20   -12400.00
00955              -1.80   -12600.00
00956              -2.00   -12400.00
00957              -1.20   -12400.00
00958              -1.00   -12400.00
00959              -1.40   -12200.00
00960              -1.80   -12200.00
00961              -1.80   -12200.00
00962              -1.20   -12200.00
00963              -0.60   -12000.00
00964              -1.80   -12000.00
00965              -2.00   -12000.00
00966              -0.60   -12000.00
00967              -2.00   -12000.00
00968              -1.40   -11600.00
00969              -1.20   -11600.00
00970              -1.20   -11600.00
00971              -1.80   -11600.00
00972              -1.00   -11400.00
00973              -1.40   -11400.00
00974              -1.20   -11200.00
00975              -2.40   -11200.00
00976              -0.60   -11000.00
00977              -0.60   -11000.00
00978              -2.20   -11000.00
00979              -0.60   -10800.00
00980              -0.20   -10600.00
00981              -2.80   -10600.00
00982              -1.60   -10400.00
00983              -1.00   -10400.00
00984              -1.20   -10400.00
00985              -1.80   -10200.00
00986              -2.00   -10000.00
00987              -1.00   -10000.00
00988              -0.20    -9800.00
00989              -2.20   -10000.00
00990              -1.20    -9600.00
00991              -0.20    -9600.00
00992              -2.80    -9600.00
00993              -2.60    -9400.00
00994               0.20    -9200.00
00995              -1.00    -9200.00
00996              -2.00    -9000.00
00997              -0.60    -9000.00
00998              -0.60    -8800.00
00999              -2.20    -8400.00
01000              -1.40    -8400.00
01001              -1.20    -8400.00
01002              -1.00    -8200.00
01003              -0.60    -8200.00
01004              -1.20    -8000.00
01005              -1.40    -8000.00
01006              -1.20    -7800.00
01007              -1.40    -7600.00
01008              -0.60    -7400.00
01009              -1.20    -7200.00
01010              -1.00    -7200.00
01011              -0.60    -7000.00
01012              -1.00    -6800.00
01013              -1.40    -6800.00
01014              -1.00    -6600.00
01015              -1.20    -6400.00
01016              -0.60    -6400.00
01017              -0.60    -6200.00
01018              -1.00    -6000.00
01019              -1.00    -6000.00
01020              -1.20    -5800.00
01021              -1.00    -5600.00
01022              -0.40    -5400.00
01023              -0.60    -5200.00
01024              -0.60    -5000.00
01025              -0.60    -5000.00
01026              -0.60    -4600.00
01027              -1.20    -4600.00
01028              -0.60    -4400.00
01029              -0.60    -4400.00
01030              -1.00    -4200.00
01031              -0.60    -4000.00
01032              -0.20    -4000.00
01033              -1.60    -3600.00
01034              -1.20    -3400.00
01035               0.40    -3400.00
01036              -0.40    -3200.00
01037              -1.20    -3000.00
01038              -0.40    -2800.00
01039              -0.40    -2800.00
01040              -0.80    -2600.00
01041              -0.40    -2200.00
01042              -0.20    -2200.00
01043              -0.80    -2000.00
01044              -0.60    -2000.00
01045              -0.20    -1800.00
01046              -0.40    -1600.00
01047              -1.00    -1200.00
01048              -0.40    -1200.00
01049              -0.40    -1000.00
01050              -0.60     -800.00
01051              -0.40     -800.00
01052              -0.20     -400.00
01053              -0.60     -400.00
01054              -0.20     -200.00
01055              -0.60        0.00
01056              -0.60        0.00
01057               0.60      400.00
01058               2.00      600.00
01059              -0.60      600.00
01060              -0.40      800.00
01061               1.20      800.00
01062              -0.20     1200.00
01063              -0.20     1400.00
01064               1.80     1600.00
01065              12.40     1800.00
01066              14.80     2000.00
01067             -25.00     2200.00
01068             -21.40     2200.00
01069              11.00     2200.00
01070              -0.40     2400.00
01071              25.00     2800.00
01072             -25.00     2800.00
01073             -25.00     3000.00
01074              25.00     3200.00
01075               0.20     3000.00
01076             -25.00     3600.00
01077              25.00     3600.00
01078               8.60     3600.00
01079             -25.00     4000.00
01080              25.00     4200.00
01081              -3.00     4000.00
01082              -2.80     4400.00
01083              -4.40     4400.00
01084              -3.40     4800.00
01085              25.00     4800.00
01086             -25.00     5200.00
01087              -9.20     5400.00
01088              25.00     5600.00
01089              -8.00     5600.00
01090             -25.00     5800.00
01091              19.60     6000.00
01092              22.80     6200.00
01093             -25.00     6400.00
01094              -0.20     6400.00
01095              25.00     6400.00
01096             -17.20     6800.00
01097              -9.80     6800.00
01098              21.00     6800.00
01099              -3.80     7200.00
01100             -16.40     7200.00
01101              15.60     7600.00
01102               6.80     7400.00
01103             -15.80     7800.00
01104               7.80     7800.00
01105               8.60     8000.00
01106              -8.80     8200.00
01107              -0.80     8200.00
01108               6.80     8400.00
01109              -1.00     8400.00
01110              -1.40     8600.00
01111               3.20     8800.00
01112               1.80     8800.00
01113              -1.00     8800.00
01114              -1.00     9000.00
01115               3.60     9200.00
01116               0.20     9200.00
01117              -1.80     9400.00
01118               3.60     9600.00
01119               1.40     9600.00
01120              -2.80     9800.00
01121               2.00     9800.00
01122               3.60    10000.00
01123              -2.40    10000.00
01124              -0.40    10200.00
01125               4.40    10200.00
01126              -0.60    10400.00
01127              -1.20    10600.00
01128               3.40    10600.00
01129              -0.20    10800.00
01130              -1.00    10800.00
01131               3.00    11000.00
01132               1.40    11000.00
01133              -1.00    11000.00
01134               1.20    11200.00
01135               2.00    11200.00
01136              -0.60    11200.00
01137               0.20    11200.00
01138               1.80    11600.00
01139               1.00    11600.00
01140               0.40    11600.00
01141               0.60    11800.00
01142               1.00    11800.00
01143               0.60    11800.00
01144               1.00    12000.00
01145               1.80    12000.00
01146               0.80    12200.00
01147               0.60    12000.00
01148               1.40    12200.00
01149               1.20    12200.00
01150               0.20    12400.00
01151               1.00    12400.00
01152               1.40    12400.00
01153               1.20    12600.00
01154               1.20    12400.00
01155               1.00    12600.00
01156               0.60    12600.00
01157               1.60    12600.00
01158               1.20    12600.00
01159               0.40    12800.00
01160               1.40    12800.00
01161               1.80    12800.00
01162               1.00    12800.00
01163               1.20    13000.00
01164               1.00    12800.00
01165               1.00    13000.00
01166               0.60    12800.00
01167               1.80    12800.00
01168               1.40    13000.00
01169               1.20    12800.00
01170               0.60    12800.00
01171               1.40    12800.00
01172               1.20    12800.00
01173               0.40    13200.00
01174               1.20    12800.00
01175               1.60    12800.00
01176               1.20    13000.00
01177               1.20    12800.00
01178               1.20    13000.00
01179               1.00    12800.00
01180               1.00    12800.00
01181               1.20    13000.00
01182               1.00    12800.00
01183               1.00    12800.00
01184               1.00    12800.00
01185               1.00    12800.00
01186               1.20    12800.00
01187               1.00    12800.00
01188               0.40    12800.00
01189               1.40    12800.00
01190               1.20    12600.00
01191               0.80    12600.00
01192               0.60    12600.00
01193               1.20    12400.00
01194               0.60    12400.00
01195               1.00    12600.00
01196               1.00    12400.00
01197               0.60    12400.00
01198               1.00    12400.00
01199               1.20    12400.00
01200               0.60    12400.00
01201               0.40    12200.00
01202               1.00    12200.00
01203               0.60    12000.00
01204               0.60    12200.00
01205               1.00    12000.00
01206               1.00    12000.00
01207               1.00    11800.00
01208               1.00    11600.00
01209               1.00    11800.00
01210               0.80    11600.00
01211               0.60    11600.00
01212               1.00    11400.00
01213               1.20    11200.00
01214               0.60    11200.00
01215               0.40    11200.00
01216               0.60    11000.00
01217               0.60    11200.00
01218               0.60    11000.00
01219               1.00    10800.00
01220               1.00    10800.00
01221               0.60    10800.00
01222               1.00    10400.00
01223               1.00    10400.00
01224               0.40    10400.00
01225               0.80    10200.00
01226               1.00    10200.00
01227               1.00    10000.00
01228               0.60    10000.00
01229               0.40     9600.00
01230               0.40     9600.00
01231               0.80     9400.00
01232               1.00     9400.00
01233               0.40     9200.00
01234               0.80     9200.00
01235               1.00     8800.00
01236               1.00     9000.00
01237               0.60     8800.00
01238               0.40     8600.00
01239               0.80     8600.00
01240               0.60     8600.00
01241               0.40     8400.00
01242               0.80     8400.00
01243               0.60     8000.00
01244               0.20     8000.00
01245               0.60     7800.00
01246               1.00     7600.00
01247               0.20     7600.00
01248               0.20     7400.00
01249               0.60     7200.00
01250               0.60     7000.00
01251              -0.60     7000.00
01252               0.40     6800.00
01253               1.00     6800.00
01254               0.40     6400.00
01255               0.20     6400.00
01256               0.60     6400.00
01257               0.20     6000.00
01258              -0.60     6000.00
01259               0.00     5800.00
01260               0.40     5600.00
01261               0.40     5600.00
01262               0.20     5400.00
01263               0.20     5200.00
01264               0.20     4800.00
01265              -0.20     4800.00
01266              -0.60     4600.00
01267              -0.20     4400.00
01268               0.40     4400.00
01269               0.20     4200.00
01270               0.40     4000.00
01271               0.40     3800.00
01272               0.20     3800.00
01273              -0.40     3600.00
01274              -0.60     3400.00
01275              -0.40     3200.00
01276               0.20     3200.00
01277               0.20     3000.00
01278               0.20     2800.00
01279               0.40     2600.00
01280              -0.20     2400.00
01281              -1.00     2200.00
01282              -0.20     2200.00
01283               0.20     2000.00
01284              -0.20     2000.00
01285               0.00     1600.00
01286               0.40     1400.00
01287              -0.20     1400.00
01288              -0.60     1000.00
01289              -0.40     1000.00
01290               0.20      800.00
01291              -0.20      600.00
01292              -0.40      400.00
01293               0.20      400.00
01294               0.20      200.00
01295              -0.40        0.00
01296              -1.20     -200.00
01297               1.00     -400.00
01298               2.20     -600.00
01299              -1.00     -800.00
01300              -1.00     -800.00
01301               1.00    -1000.00
01302              -0.20    -1200.00
01303              -1.20    -1400.00
01304               8.40    -1600.00
01305              25.00    -1800.00
01306             -25.00    -2000.00
01307             -25.00    -2200.00
01308               7.60    -2400.00
01309              14.20    -2200.00
01310              25.00    -2800.00
01311             -25.00    -2800.00
01312             -25.00    -2600.00
01313              25.00    -3200.00
01314              -0.60    -3200.00
01315             -25.00    -3200.00
01316              25.00    -3600.00
01317              25.00    -3600.00
01318             -25.00    -3600.00
01319              25.00    -4000.00
01320             -13.80    -4000.00
01321               2.60    -4400.00
01322             -16.20    -4400.00
01323             -17.40    -4600.00
01324              25.00    -5000.00
01325             -25.00    -4600.00
01326             -13.80    -5200.00
01327              25.00    -5200.00
01328             -25.00    -5200.00
01329             -25.00    -5800.00
01330              24.40    -5600.00
01331              25.00    -6000.00
01332             -25.00    -6000.00
01333               0.20    -6200.00
01334              25.00    -6600.00
01335             -25.00    -6400.00
01336              -2.00    -6600.00
01337              23.40    -6800.00
01338             -10.80    -7000.00
01339             -14.00    -7200.00
01340               6.80    -7400.00
01341              14.20    -7200.00
01342             -23.40    -7600.00
01343               8.40    -7800.00
01344               9.00    -8000.00
01345             -15.80    -8000.00
01346               1.00    -8400.00
01347               5.40    -8200.00
01348              -3.60    -8400.00
01349              -4.60    -8400.00
01350               4.60    -8600.00
01351              -0.80    -8800.00
01352              -4.20    -9000.00
01353              -3.40    -9200.00
01354               4.60    -9200.00
01355              -4.60    -9200.00
01356              -3.80    -9200.00
01357               7.00    -9400.00
01358              -5.40    -9600.00
01359              -4.40    -9800.00
01360               2.80    -9800.00
01361               1.60    -9800.00
01362              -7.60   -10000.00
01363              -1.00   -10000.00
01364               5.00   -10200.00
01365              -3.80   -10400.00
01366              -3.80   -10400.00
01367               2.60   -10600.00
01368              -1.60   -10600.00
01369              -5.20   -10600.00
01370               1.60   -10800.00
01371               0.20   -10800.00
01372              -3.00   -10800.00
01373              -2.60   -11200.00
01374               1.80   -11200.00
01375              -2.20   -11000.00
01376              -3.40   -11400.00
01377               1.00   -11400.00
01378              -2.20   -11600.00
01379              -2.00   -11800.00
01380              -1.80   -11600.00
01381              -1.80   -11800.00
01382              -2.00   -12000.00
01383              -1.20   -12000.00
01384               0.20   -12000.00
01385              -2.60   -12000.00
01386              -2.60   -12200.00
01387              -0.60   -12200.00
01388              -1.80   -12200.00
01389              -2.80   -12200.00
01390              -1.40   -12400.00
01391              -0.20   -12400.00
01392              -1.40   -12400.00
01393              -2.00   -12400.00
01394              -1.00   -12600.00
01395              -2.40   -12600.00
01396              -2.20   -12600.00
01397              -1.20   -12800.00
01398              -1.80   -12800.00
01399              -1.00   -12800.00
01400              -1.20   -12800.00
01401              -2.20   -12800.00
01402              -1.40   -12800.00
01403              -1.20   -12800.00
01404              -2.20   -13000.00
01405              -2.20   -12800.00
01406              -1.00   -12800.00
01407              -1.00   -13000.00
01408              -2.20   -12800.00
01409              -1.40   -13000.00
01410              -1.00   -13200.00
01411              -1.60   -13000.00
01412              -2.40   -13000.00
01413              -1.40   -13000.00
01414              -1.40   -12800.00
01415              -1.80   -13000.00
01416              -1.20   -13000.00
01417              -1.00   -13000.00
01418              -2.00   -13000.00
01419              -2.00   -13000.00
01420              -1.20   -12800.00
01421              -1.20   -13000.00
01422              -1.80   -13000.00
01423              -1.40   -12800.00
01424              -0.60   -13000.00
01425              -2.00   -12800.00
01426              -2.00   -12800.00
01427              -1.40   -12800.00
01428              -1.20   -12800.00
01429              -1.40   -12800.00
01430              -1.80   -12800.00
01431              -1.20   -12600.00
01432              -2.00   -12800.00
01433              -1.40   -12600.00
01434              -0.60   -12600.00
01435              -2.00   -12400.00
01436              -1.40   -12400.00
01437              -0.60   -12400.00
01438              -1.20   -12400.00
01439              -2.20   -12400.00
01440              -1.40   -12200.00
01441              -1.40   -12200.00
01442              -2.20   -12200.00
01443              -1.20   -12000.00
01444              -0.40   -12000.00
01445              -2.20   -12000.00
01446              -2.00   -12000.00
01447              -1.20   -12000.00
01448              -0.80   -11800.00
01449              -2.60   -11600.00
01450              -2.00   -11600.00
01451              -0.20   -11400.00
01452              -1.40   -11400.00
01453              -2.60   -11000.00
01454              -0.40   -11400.00
01455              -1.20   -11000.00
01456              -3.00   -11000.00
01457              -0.60   -11000.00
01458              -0.80   -10800.00
01459              -2.60   -10800.00
01460              -1.20   -10800.00
01461              -0.40   -10600.00
01462              -1.80   -10800.00
01463              -2.20   -10400.00
01464              -1.00   -10400.00
01465              -1.20   -10200.00
01466              -2.00   -10200.00
01467              -1.20   -10000.00
01468              -0.60    -9800.00
01469              -0.60    -9800.00
01470              -1.00    -9600.00
01471              -1.20    -9600.00
01472              -2.00    -9400.00
01473              -1.40    -9400.00
01474              -1.00    -9200.00
01475              -1.00    -9000.00
01476              -1.00    -9000.00
01477              -1.20    -8800.00
01478              -1.00    -8800.00
01479              -1.00    -8400.00
01480              -1.40    -8600.00
01481              -1.20    -8400.00
01482              -1.00    -8200.00
01483              -0.60    -8200.00
01484              -0.80    -8000.00
01485              -1.20    -8000.00
01486              -0.60    -7600.00
01487              -0.60    -7600.00
01488              -1.40    -7400.00
01489              -1.00    -7200.00
01490              -0.60    -7200.00
01491              -1.20    -7000.00
01492              -1.20    -6800.00
01493              -0.60    -6600.00
01494              -0.60    -6400.00
01495              -1.20    -6600.00
01496              -1.00    -6400.00
01497              -0.60    -6000.00
01498              -1.00    -6000.00
01499              -0.80    -5800.00
01500              -1.00    -5600.00
01501              -0.60    -5600.00
01502              -0.40    -5600.00
01503              -1.00    -5200.00
01504              -1.20    -5000.00
01505              -1.00    -5000.00
01506              -1.20    -4800.00
01507              -0.60    -4400.00
01508              -0.40    -4400.00
01509              -1.20    -4400.00
01510              -1.00    -4000.00
01511              -0.60    -4000.00
01512              -1.20    -3800.00
01513              -0.80    -3600.00
01514              -0.20    -3600.00
01515              -0.60    -3400.00
01516              -1.00    -3200.00
01517              -0.60    -2800.00
01518              -1.00    -2800.00
01519              -1.20    -2600.00
01520              -0.60    -2600.00
01521              -0.60    -2400.00
01522              -1.00    -2000.00
01523              -0.60    -2000.00
01524              -0.40    -2000.00
01525              -0.80    -1800.00
01526              -0.60    -1600.00
01527              -0.40    -1400.00
01528              -0.60    -1200.00
01529              -0.40     -800.00
01530              -0.20     -800.00
01531              -0.60     -600.00
01532              -0.60     -600.00
01533              -0.40     -200.00
01534              -0.20        0.00
01535              -0.60        0.00
01536              -0.20      200.00
01537               1.40      400.00
01538               1.80      400.00
01539              -1.20      600.00
01540              -0.40      800.00
01541               1.00     1000.00
01542              -0.20     1200.00
01543              -0.20     1400.00
01544               3.60     1400.00
01545              17.20     2000.00
01546               5.80     2000.00
01547             -25.00     2200.00
01548             -10.40     2200.00
01549               9.80     2200.00
01550               2.60     2600.00
01551              25.00     2800.00
01552             -25.00     2800.00
01553             -18.80     3000.00
01554              25.00     3200.00
01555             -25.00     3200.00
01556             -25.00     3600.00
01557              25.00     3600.00
01558             -24.20     3600.00
01559             -25.00     4000.00
01560              25.00     4000.00
01561             -11.40     4400.00
01562               2.60     4600.00
01563             -10.60     4600.00
01564               5.20     4800.00
01565              21.20     4800.00
01566             -25.00     5200.00
01567               5.80     5400.00
01568              25.00     5600.00
01569             -19.20     5600.00
01570             -24.40     5600.00
01571              25.00     6000.00
01572              11.80     6000.00
01573             -25.00     6200.00
01574              13.40     6400.00
01575              23.60     6400.00
01576             -23.80     6800.00
01577              -0.80     6800.00
01578              20.20     7000.00
01579             -11.00     7000.00
01580             -11.40     7200.00
01581              19.00     7200.00
01582              -0.80     7600.00
01583             -14.00     7600.00
01584              12.20     8000.00
01585               3.60     7800.00
01586              -9.60     8200.00
01587               2.80     8400.00
01588               5.80     8400.00
01589              -3.00     8400.00
01590              -0.40     8600.00
01591               2.80     8600.00
01592               0.60     8800.00
01593              -0.80     8800.00
01594              -0.20     9000.00
01595               3.00     9400.00
01596              -0.60     9200.00
01597              -1.00     9400.00
01598               3.80     9600.00
01599               0.40     9600.00
01600              -2.80     9800.00
01601               2.60    10000.00
01602               3.20    10000.00
01603              -2.80    10200.00
01604               1.20    10200.00
01605               4.40    10400.00
01606              -1.40    10400.00
01607              -1.20    10400.00
01608               3.60    10600.00
01609               0.20    10800.00
01610              -1.20    10800.00
01611               3.40    11000.00
01612               1.60    11000.00
01613              -0.80    11200.00
01614               1.00    11200.00
01615               2.00    11200.00
01616               0.40    11400.00
01617              -0.40    11400.00
01618               2.40    11600.00
01619               2.20    11600.00
01620              -0.60    11800.00
01621               1.20    11800.00
01622               1.80    11800.00
01623               0.20    12000.00
01624               1.60    12000.00
01625               1.20    12000.00
01626               0.00    12000.00
01627               2.20    12400.00
01628               1.80    12200.00
01629              -0.20    12400.00
01630               1.00    12400.00
01631               1.20    12400.00
01632               0.40    12400.00
01633               2.00    12600.00
01634               1.80    12600.00
01635               0.40    12600.00
01636               1.00    12600.00
01637               2.00    12600.00
01638               0.60    12800.00
01639              -0.20    12800.00
01640               2.40    12800.00
01641               1.20    12800.00
01642              -0.60    12800.00
01643               1.80    12800.00
01644               1.80    12800.00
01645              -0.60    12800.00
01646               1.00    12800.00
01647               2.60    13000.00
01648               0.20    12800.00
01649              -0.20    13000.00
01650               2.20    12800.00
01651               2.00    13000.00
01652               0.20    12800.00
01653               1.00    13000.00
01654               2.00    13200.00
01655               1.00    12800.00
01656               0.40    13000.00
01657               1.20    13000.00
01658               1.20    13000.00
01659               0.40    12800.00
01660               1.00    13200.00
01661               1.00    12800.00
01662               0.60    12800.00
01663               0.60    12800.00
01664               1.20    12800.00
01665               1.00    13000.00
01666               1.20    12800.00
01667               1.00    12800.00
01668               1.00    12800.00
01669               1.80    12800.00
01670               1.00    12800.00
01671               1.00    12800.00
01672               1.00    12600.00
01673               0.40    12600.00
01674               1.80    12400.00
01675               1.40    12400.00
01676               0.60    12400.00
01677               0.80    12400.00
01678               1.80    12200.00
01679               1.00    12400.00
01680              -0.20    12400.00
01681               1.20    12200.00
01682               1.40    12000.00
01683               0.40    12200.00
01684               1.20    12000.00
01685               0.60    12000.00
01686               1.00    11800.00
01687               1.40    11800.00
01688               0.60    11600.00
01689               0.60    11800.00
01690               1.00    11600.00
01691               1.20    11400.00
01692               0.60    11200.00
01693               0.60    11400.00
01694               1.40    11200.00
01695               1.00    11200.00
01696               0.40    11000.00
01697               1.00    11000.00
01698               1.40    10800.00
01699              -0.40    10800.00
01700               1.00    10800.00
01701               1.80    10600.00
01702               0.40    10400.00
01703               0.20    10200.00
01704               1.00    10200.00
01705               0.40    10200.00
01706               0.20    10000.00
01707               1.40    10000.00
01708               0.20     9800.00
01709              -0.20     9600.00
01710               1.40     9600.00
01711               0.80     9400.00
01712              -0.60     9200.00
01713               1.00     9200.00
01714               1.40     9200.00
01715              -0.40     8800.00
01716               0.40     9000.00
01717               1.00     8800.00
01718              -0.20     8600.00
01719               0.20     8600.00
01720               1.20     8600.00
01721               0.40     8400.00
01722               0.00     8200.00
01723               0.20     8000.00
01724               0.60     8000.00
01725               0.20     7800.00
01726               0.20     7800.00
01727               0.80     7600.00
01728               0.60     7400.00
01729              -0.40     7200.00
01730               0.40     7000.00
01731               0.60     6800.00
01732              -0.20     6800.00
01733               0.40     6600.00
01734               0.80     6600.00
01735              -0.20     6400.00
01736               0.20     6200.00
01737               0.20     6000.00
01738               0.40     6000.00
01739               0.40     6000.00
01740               2.00     5600.00
01741              -2.00     5400.00
01742              -2.00     5400.00
01743               6.00     5200.00
01744              -8.60     5200.00
01745               4.40     4800.00
01746              -0.60     4600.00
01747               6.00     4400.00
01748               0.40     4400.00
01749              -3.80     4200.00
01750               1.40     4000.00
01751              -1.40     4000.00
01752               0.00     3600.00
01753              -3.60     3600.00
01754               2.00     3400.00
01755               3.80     3200.00
01756               0.40     3200.00
01757              -0.80     2800.00
01758               1.00     2800.00
01759              -1.20     2600.00
01760              -1.40     2400.00
01761              -1.00     2400.00
01762              -2.20     2200.00
01763               3.60     2000.00
01764               0.60     2000.00
01765              -1.40     1600.00
01766               2.20     1400.00
01767              -1.80     1200.00
01768              -1.40     1000.00
01769              -0.20      800.00
01770              -1.80      800.00
01771               1.40      600.00
01772              -2.20      400.00
01773               0.20      400.00
01774               1.20        0.00
01775              -0.40        0.00
01776              -1.00     -200.00
01777               1.20     -400.00
01778               1.80     -600.00
01779              -2.80     -800.00
01780              -0.60     -800.00
01781               0.40    -1000.00
01782              -1.00    -1200.00
01783              -0.40    -1200.00
01784              14.80    -1600.00
01785              23.40    -2000.00
01786             -25.00    -2000.00
01787             -25.00    -2400.00
01788               8.00    -2400.00
01789              25.00    -2400.00
01790              25.00    -2800.00
01791             -25.00    -2600.00
01792              -2.20    -2600.00
01793              25.00    -3200.00
01794             -25.00    -3200.00
01795             -25.00    -3400.00
01796              25.00    -3800.00
01797             -25.00    -3600.00
01798             -25.00    -3800.00
01799              25.00    -4200.00
01800             -25.00    -4000.00
01801              13.80    -4600.00
01802             -25.00    -4400.00
01803               9.00    -4600.00
01804              25.00    -5000.00
01805             -25.00    -4600.00
01806              22.00    -5200.00
01807              25.00    -5000.00
01808             -25.00    -5200.00
01809             -13.80    -5800.00
01810              25.00    -5600.00
01811              13.20    -6000.00
01812             -25.00    -6000.00
01813              23.80    -6000.00
01814              25.00    -6400.00
01815             -25.00    -6400.00
01816              13.80    -6800.00
01817              14.60    -6800.00
01818             -12.80    -7200.00
01819             -11.80    -7400.00
01820              13.20    -7200.00
01821               6.00    -7400.00
01822             -22.00    -7600.00
01823              15.80    -7600.00
01824               0.20    -8000.00
01825             -13.00    -8000.00
01826               4.20    -8200.00
01827               3.00    -8200.00
01828              -5.40    -8400.00
01829              -2.60    -8400.00
01830               4.40    -8800.00
01831              -2.00    -8800.00
01832              -4.20    -9000.00
01833              -1.80    -9000.00
01834               4.40    -9000.00
01835              -7.40    -9200.00
01836              -1.00    -9400.00
01837               5.40    -9200.00
01838              -6.00    -9600.00
01839              -3.80    -9800.00
01840               2.60   -10000.00
01841               0.60   -10000.00
01842              -7.80   -10000.00
01843               0.60   -10200.00
01844               3.80   -10000.00
01845              -6.00   -10400.00
01846              -2.80   -10600.00
01847               3.40   -10600.00
01848              -3.80   -10800.00
01849              -4.20   -10800.00
01850               2.20   -10800.00
01851              -1.20   -11000.00
01852              -3.80   -11200.00
01853              -1.40   -11000.00
01854               1.40   -11200.00
01855              -3.60   -11200.00
01856              -2.80   -11400.00
01857               0.60   -11600.00
01858              -1.80   -11600.00
01859              -1.60   -11600.00
01860              -1.80   -11600.00
01861              -1.00   -11600.00
01862              -1.40   -12000.00
01863              -2.60   -12000.00
01864               0.20   -12200.00
01865              -1.20   -12200.00
01866              -3.00   -12200.00
01867              -0.60   -12400.00
01868              -0.60   -12400.00
01869              -2.20   -12200.00
01870              -2.00   -12400.00
01871              -0.60   -12400.00
01872              -1.20   -12400.00
01873              -2.20   -12400.00
01874              -1.20   -12400.00
01875              -1.80   -12400.00
01876              -1.20   -12600.00
01877              -1.40   -12800.00
01878              -2.00   -12800.00
01879              -1.20   -12800.00
01880              -1.20   -12800.00
01881              -1.80   -12800.00
01882              -1.60   -12800.00
01883              -1.20   -12800.00
01884              -2.20   -12800.00
01885              -1.80   -12800.00
01886              -0.60   -12800.00
01887              -1.80   -13000.00
01888              -2.20   -13000.00
01889              -1.00   -13000.00
01890              -1.20   -13000.00
01891              -2.00   -13000.00
01892              -2.00   -13000.00
01893              -1.20   -13000.00
01894              -1.40   -12800.00
01895              -2.00   -13000.00
01896              -1.00   -12800.00
01897              -1.80   -13000.00
01898              -2.20   -13000.00
01899              -1.40   -13000.00
01900              -1.40   -13000.00
01901              -2.40   -13000.00
01902              -2.20   -13000.00
01903              -1.20   -13000.00
01904              -1.00   -13000.00
01905              -1.80   -13000.00
01906              -2.20   -12800.00
01907              -1.80   -12800.00
01908              -1.80   -12800.00
01909              -1.80   -12800.00
01910              -1.40   -12800.00
01911              -1.80   -12800.00
01912              -1.80   -12600.00
01913              -1.80   -12400.00
01914              -1.20   -12600.00
01915              -1.40   -12400.00
01916              -2.20   -12400.00
01917              -1.80   -12400.00
01918              -1.20   -12400.00
01919              -1.80   -12400.00
01920              -2.00   -12200.00
01921              -1.20   -12200.00
01922              -1.80   -12200.00
01923              -1.40   -12000.00
01924              -1.20   -12000.00
01925              -2.20   -12000.00
01926              -1.60   -12000.00
01927              -1.20   -12000.00
01928              -1.60   -11600.00
01929              -1.40   -11600.00
01930              -1.80   -11400.00
01931              -0.60   -11400.00
01932              -1.00   -11400.00
01933              -2.00   -11400.00
01934              -1.20   -11000.00
01935              -0.80   -11200.00
01936              -2.20   -11000.00
01937              -1.00   -10800.00
01938              -0.60   -10800.00
01939              -2.00   -10800.00
01940              -1.20   -10800.00
01941              -0.60   -10600.00
01942              -1.40   -10400.00
01943              -1.60   -10400.00
01944              -1.00   -10200.00
01945              -1.20   -10200.00
01946              -1.20   -10000.00
01947              -1.20   -10000.00
01948              -1.20   -10000.00
01949              -1.00    -9800.00
01950              -1.20    -9600.00
01951              -1.40    -9600.00
01952              -1.00    -9600.00
01953              -1.20    -9200.00
01954              -1.20    -9000.00
01955              -0.40    -9000.00
01956              -1.00    -8800.00
01957              -1.80    -8800.00
01958              -0.60    -8800.00
01959              -1.00    -8600.00
01960              -1.80    -8400.00
01961              -1.00    -8400.00
01962              -0.60    -8200.00
01963              -1.20    -8000.00
01964              -1.00    -8000.00
01965              -1.00    -7800.00
01966              -1.40    -7600.00
01967              -1.20    -7600.00
01968              -1.00    -7400.00
01969              -1.00    -7200.00
01970              -1.00    -7200.00
01971              -1.20    -6800.00
01972              -1.00    -6800.00
01973              -1.00    -6600.00
01974              -1.00    -6600.00
01975              -1.20    -6400.00
01976              -0.60    -6400.00
01977              -0.60    -6200.00
01978              -0.60    -6000.00
01979              -1.20    -5800.00
01980              -1.20    -5800.00
01981              -1.00    -5600.00
01982              -0.80    -5400.00
01983              -0.60    -5200.00
01984              -1.20    -5000.00
01985              -0.40    -4800.00
01986              -0.60    -4600.00
01987              -1.80    -4400.00
01988              -0.20    -4200.00
01989              -1.20    -4400.00
01990              -1.00    -4000.00
01991               0.20    -4000.00
01992              -1.00    -3600.00
01993              -1.00    -3600.00
01994               0.00    -3400.00
01995              -0.60    -3200.00
01996              -1.20    -3200.00
01997              -0.40    -2800.00
01998              -0.80    -2800.00
01999              -1.00    -2400.00
02000              -0.20    -2400.00
02001              -0.40    -2200.00
02002              -0.40    -2200.00
02003              -0.20    -2000.00
02004              -0.40    -1800.00
02005              -0.60    -1600.00
02006              -0.20    -1400.00
02007              -0.40    -1200.00
02008              -0.60    -1000.00
02009              -0.20    -1000.00
02010              -0.40     -800.00
02011              -0.40     -800.00
02012              -0.20     -400.00
02013              -0.40     -200.00
02014               0.20        0.00
02015              -0.60        0.00
02016              -0.20      200.00
02017               1.80      400.00
02018               1.00      600.00
02019              -1.20      800.00
02020               0.40      800.00
02021               1.20     1200.00
02022               0.20     1200.00
02023               0.60     1400.00
02024               5.00     1600.00
02025              19.60     1800.00
02026              -4.40     2000.00
02027             -25.00     2000.00
02028              -1.80     2200.00
02029               7.00     2400.00
02030              11.60     2600.00
02031              25.00     2800.00
02032             -25.00     2800.00
02033              20.60     3200.00
02034              25.00     3200.00
02035             -25.00     3400.00
02036             -13.80     3600.00
02037              25.00     3600.00
02038             -25.00     3800.00
02039              -6.80     4000.00
02040              25.00     4000.00
02041             -15.60     4400.00
02042               5.40     4400.00
02043             -13.60     4600.00
02044              13.20     4800.00
02045              11.60     4800.00
02046             -25.00     5200.00
02047              19.60     5200.00
02048              25.00     5600.00
02049             -25.00     5600.00
02050             -13.40     5600.00
02051              25.00     6000.00
02052              -2.20     6200.00
02053             -25.00     6400.00
02054              24.20     6400.00
02055              12.40     6600.00
02056             -24.60     6800.00
02057               8.20     6800.00
02058              15.00     6800.00
02059             -16.40     7200.00
02060              -3.80     7200.00
02061              19.00     7400.00
02062              -7.80     7600.00
02063              -8.40     7800.00
02064              14.00     8000.00
02065              -1.00     8000.00
02066              -8.20     8200.00
02067               5.20     8400.00
02068               4.20     8400.00
02069              -2.80     8600.00
02070               0.40     8600.00
02071               2.60     8800.00
02072               1.20     8800.00
02073              -1.80     9200.00
02074               0.60     9200.00
02075               3.80     9200.00
02076              -2.80     9400.00
02077               0.00     9400.00
02078               5.40     9600.00
02079              -1.20     9600.00
02080              -2.80     9800.00
02081               4.20    10000.00
02082               1.60    10200.00
02083              -3.20    10200.00
02084               3.00    10400.00
02085               3.40    10400.00
02086              -2.60    10400.00
02087               0.60    10400.00
02088               3.40    10800.00
02089              -1.20    11000.00
02090               0.40    10800.00
02091               2.80    11000.00
02092               0.60    11000.00
02093              -0.20    11200.00
02094               1.20    11200.00
02095               1.40    11200.00
02096              -0.40    11400.00
02097               0.40    11400.00
02098               2.00    11600.00
02099               1.00    11800.00
02100               0.20    11800.00
02101               1.40    11800.00
02102               1.40    12000.00
02103               0.20    11800.00
02104               0.40    12000.00
02105               1.40    12000.00
02106               0.40    12400.00
02107               0.20    12200.00
02108               1.80    12400.00
02109               1.40    12400.00
02110               0.20    12400.00
02111               0.40    12400.00
02112               1.80    12400.00
02113               1.00    12600.00
02114               1.00    12600.00
02115               1.00    12600.00
02116               0.60    12600.00
02117               1.20    12800.00
02118               1.00    12600.00
02119               0.40    12800.00
02120               1.00    12800.00
02121               2.00    12800.00
02122               1.00    12800.00
02123               0.60    13000.00
02124               1.20    12800.00
02125               1.00    13000.00
02126               1.20    12800.00
02127               1.40    13000.00
02128               1.00    13000.00
02129               1.20    12800.00
02130               1.00    13000.00
02131               1.20    13000.00
02132               1.20    13000.00
02133               0.60    13000.00
02134               1.40    13000.00
02135               2.20    13200.00
02136               1.00    12800.00
02137               0.40    12800.00
02138               1.20    13000.00
02139               1.40    12800.00
02140               1.00    13000.00
02141               1.00    13000.00
02142               1.40    12800.00
02143               1.00    12800.00
02144               1.00    12800.00
02145               1.40    12800.00
02146               1.20    12800.00
02147               1.00    12800.00
02148               1.20    12800.00
02149               1.80    12600.00
02150               0.80    12800.00
02151               0.40    12600.00
02152               1.20    12600.00
02153               1.00    12600.00
02154               1.20    12600.00
02155               1.40    12400.00
02156               1.00    12400.00
02157               1.00    12400.00
02158               1.20    12400.00
02159               1.00    12400.00
02160               0.60    12200.00
02161               1.00    12200.00
02162               1.00    12000.00
02163               1.00    12000.00
02164               0.60    12000.00
02165               1.00    11800.00
02166               0.60    11800.00
02167               0.60    11800.00
02168               1.00    11800.00
02169               0.60    11800.00
02170               0.60    11600.00
02171               1.00    11600.00
02172               1.00    11400.00
02173               1.00    11200.00
02174               0.40    11200.00
02175               0.40    11000.00
02176               1.00    11000.00
02177               1.00    11000.00
02178               0.40    11000.00
02179               0.40    10800.00
02180               0.60    10800.00
02181               0.60    10600.00
02182               0.60    10400.00
02183               0.60    10400.00
02184               0.20    10200.00
02185               0.60    10200.00
02186               0.60    10000.00
02187               0.60    10000.00
02188               0.20     9600.00
02189               0.80     9600.00
02190               1.00     9600.00
02191               0.60     9400.00
02192               0.40     9400.00
02193               0.60     9400.00
02194               0.60     9200.00
02195               0.60     9200.00
02196               0.60     8800.00
02197               0.40     8800.00
02198               0.40     8600.00
02199               0.60     8600.00
02200               0.40     8400.00
02201               0.40     8400.00
02202               0.60     8000.00
02203               0.40     8200.00
02204               0.80     8000.00
02205               0.40     7800.00
02206               0.00     7800.00
02207               1.20     7600.00
02208              -0.20     7200.00
02209               0.20     7200.00
02210               1.80     7200.00
02211               0.00     7000.00
02212              -0.60     6800.00
02213               1.40     6800.00
02214               0.40     6400.00
02215              -0.60     6400.00
02216               1.00     6200.00
02217               1.00     6000.00
02218              -0.60     6000.00
02219               0.60     5800.00
02220               0.80     5600.00
02221              -0.40     5400.00
02222               0.20     5400.00
02223               0.80     5200.00
02224              -0.40     5000.00
02225              -0.40     4800.00
02226               0.60     4600.00
02227              -0.20     4400.00
02228              -0.40     4400.00
02229               0.00     4000.00
02230              -0.20     4000.00
02231              -0.20     3800.00
02232               0.20     3600.00
02233              -0.20     3600.00
02234              -0.20     3400.00
02235               0.20     3200.00
02236              -0.20     3000.00
02237              -0.20     2800.00
02238               0.20     2800.00
02239              -0.40     2400.00
02240              -0.20     2400.00
02241              -0.20     2200.00
02242              -0.60     2000.00
02243              -0.20     1800.00
02244              -0.20     1800.00
02245              -0.40     1600.00
02246              -0.20     1200.00
02247              -0.20     1200.00
02248              -0.40     1200.00
02249              -0.20     1000.00
02250              -0.20      600.00
02251              -0.20      600.00
02252              -0.60      400.00
02253              -0.20      200.00
02254              -0.20        0.00
02255              -0.40        0.00
02256              -0.60     -400.00
02257               1.20     -400.00
02258               1.00     -600.00
02259              -1.80     -800.00
02260              -0.60     -800.00
02261               1.00    -1000.00
02262              -0.60    -1200.00
02263               0.40    -1400.00
02264              21.40    -1600.00
02265              11.60    -2000.00
02266             -25.00    -2000.00
02267             -14.60    -2400.00
02268               7.00    -2000.00
02269              25.00    -2200.00
02270              25.00    -2800.00
02271             -25.00    -2600.00
02272              25.00    -2800.00
02273              25.00    -3400.00
02274             -25.00    -3200.00
02275             -25.00    -3400.00
02276              25.00    -3800.00
02277             -25.00    -3600.00
02278              -4.20    -4000.00
02279              25.00    -4000.00
02280             -25.00    -4000.00
02281              17.80    -4400.00
02282             -25.00    -4400.00
02283              25.00    -4800.00
02284              25.00    -4800.00
02285             -25.00    -4800.00
02286              25.00    -5200.00
02287              25.00    -5200.00
02288             -25.00    -5600.00
02289              -2.20    -5800.00
02290              25.00    -5800.00
02291              -3.00    -6000.00
02292             -25.00    -6200.00
02293              25.00    -6400.00
02294              11.80    -6400.00
02295             -25.00    -6600.00
02296              24.20    -6800.00
02297               6.00    -6800.00
02298             -13.80    -7200.00
02299              -9.40    -7200.00
02300              17.40    -7200.00
02301              -4.20    -7400.00
02302             -16.60    -7600.00
02303              19.40    -7600.00
02304              -7.20    -8000.00
02305              -9.80    -8000.00
02306               5.20    -8200.00
02307               1.80    -8400.00
02308              -6.40    -8400.00
02309              -1.00    -8600.00
02310               3.60    -8800.00
02311              -2.20    -8800.00
02312              -4.60    -9000.00
02313               0.20    -9200.00
02314               3.40    -9200.00
02315              -8.60    -9200.00
02316               2.40    -9400.00
02317               3.40    -9600.00
02318              -6.20    -9600.00
02319              -2.60    -9600.00
02320               3.00    -9800.00
02321              -1.20   -10000.00
02322              -7.00   -10000.00
02323               3.60   -10200.00
02324               1.60   -10200.00
02325              -6.20   -10400.00
02326              -0.60   -10400.00
02327               2.80   -10600.00
02328              -5.00   -10600.00
02329              -2.20   -10800.00
02330               2.20   -10800.00
02331              -1.80   -11000.00
02332              -3.60   -11200.00
02333              -0.40   -11000.00
02334               1.20   -11200.00
02335              -4.40   -11200.00
02336              -1.40   -11400.00
02337               1.00   -11400.00
02338              -2.80   -11600.00
02339              -1.40   -11600.00
02340              -0.60   -11600.00
02341              -1.80   -11600.00
02342              -2.20   -12000.00
02343              -0.60   -12000.00
02344              -0.40   -12000.00
02345              -2.80   -12000.00
02346              -1.80   -12200.00
02347               0.00   -12200.00
02348              -2.00   -12200.00
02349              -2.20   -12400.00
02350              -1.00   -12400.00
02351              -1.00   -12400.00
02352              -2.20   -12400.00
02353              -1.20   -12400.00
02354              -1.20   -12400.00
02355              -2.20   -12600.00
02356              -1.20   -12600.00
02357              -1.40   -12800.00
02358              -2.20   -12800.00
02359              -1.20   -12800.00
02360              -1.40   -12800.00
02361              -1.80   -12800.00
02362              -1.20   -12800.00
02363              -2.00   -12800.00
02364              -2.00   -13000.00
02365              -1.20   -12800.00
02366              -1.80   -13000.00
02367              -2.20   -13000.00
02368              -2.00   -13000.00
02369              -1.80   -13000.00
02370              -1.20   -13000.00
02371              -1.40   -12800.00
02372              -2.40   -13000.00
02373              -1.00   -13000.00
02374              -1.20   -13000.00
02375              -2.60   -13000.00
02376              -1.20   -13200.00
02377              -1.00   -13000.00
02378              -2.60   -13000.00
02379              -2.00   -13000.00
02380              -0.60   -12800.00
02381              -2.00   -13000.00
02382              -2.20   -13000.00
02383              -0.60   -13000.00
02384              -1.00   -13000.00
02385              -2.60   -13000.00
02386              -2.20   -12800.00
02387              -1.20   -12800.00
02388              -1.40   -12800.00
02389              -2.00   -12600.00
02390              -1.00   -12800.00
02391              -1.00   -12600.00
02392              -2.00   -12400.00
02393              -1.40   -12400.00
02394              -1.20   -12800.00
02395              -1.80   -12400.00
02396              -2.00   -12400.00
02397              -1.00   -12400.00
02398              -1.60   -12400.00
02399              -2.00   -12200.00
02400              -1.20   -12200.00
02401              -1.00   -12200.00
02402              -1.40   -12200.00
02403              -1.00   -12000.00
02404              -1.40   -12000.00
02405              -1.80   -12000.00
02406              -1.40   -12000.00
02407              -1.20   -11600.00
02408              -1.80   -11600.00
02409              -1.20   -11600.00
02410              -1.40   -11600.00
02411              -1.20   -11400.00
02412              -1.20   -11200.00
02413              -1.80   -11200.00
02414              -1.80   -11200.00
02415              -1.20   -11000.00
02416              -1.40   -11000.00
02417              -1.40   -10800.00
02418              -1.00   -10800.00
02419              -1.40   -10800.00
02420              -1.40   -10800.00
02421              -1.20   -10600.00
02422              -1.80   -10400.00
02423              -1.80   -10400.00
02424              -1.20   -10200.00
02425              -1.40   -10200.00
02426              -1.80   -10000.00
02427              -1.20   -10000.00
02428              -1.00    -9800.00
02429              -1.60    -9800.00
02430              -1.20    -9600.00
02431              -1.00    -9600.00
02432              -1.60    -9200.00
02433              -2.00    -9400.00
02434              -0.60    -9200.00
02435              -1.00    -9000.00
02436              -2.00    -9000.00
02437              -1.00    -8800.00
02438              -0.80    -8800.00
02439              -1.20    -8400.00
02440              -1.20    -8400.00
02441              -1.40    -8200.00
02442              -1.20    -8000.00
02443              -1.20    -8000.00
02444              -1.00    -8000.00
02445              -1.20    -7800.00
02446              -1.20    -7600.00
02447              -1.00    -7400.00
02448              -0.60    -7400.00
02449              -1.00    -7200.00
02450              -0.80    -7200.00
02451              -1.00    -7000.00
02452              -1.00    -6800.00
02453              -1.00    -6600.00
02454              -1.20    -6600.00
02455              -1.00    -6400.00
02456              -0.80    -6200.00
02457              -1.00    -6000.00
02458              -1.00    -5800.00
02459              -0.80    -5800.00
02460              -1.00    -5600.00
02461              -0.60    -5600.00
02462              -0.60    -5200.00
02463              -0.40    -5000.00
02464              -1.00    -5000.00
02465              -0.60    -4600.00
02466              -0.40    -4400.00
02467              -1.00    -4400.00
02468              -0.60    -4200.00
02469              -0.60    -4200.00
02470              -0.60    -4000.00
02471              -0.60    -3800.00
02472              -0.60    -3600.00
02473              -0.60    -3600.00
02474              -0.60    -3400.00
02475              -0.60    -3200.00
02476              -0.60    -3000.00
02477              -0.60    -2800.00
02478              -0.60    -2800.00
02479              -0.60    -2400.00
02480              -0.40    -2400.00
02481              -0.60    -2200.00
02482              -0.40    -2000.00
02483              -0.60    -2000.00
02484              -0.20    -1800.00
02485              -0.40    -1600.00
02486              -0.60    -1600.00
02487              -0.60    -1200.00
02488              -0.40    -1000.00
02489              -0.40    -1000.00
02490              -0.60     -800.00
02491              -0.40     -600.00
02492              -0.40     -400.00
02493              -0.60     -200.00
02494              -0.20     -200.00
02495              -0.20        0.00
02496               0.20      400.00
02497               1.80      400.00
02498               0.40      600.00
02499              -1.40      600.00
02500               0.00      800.00
02501               1.40     1200.00
02502              -0.60     1200.00
02503               0.20     1400.00
02504               7.80     1800.00
02505              20.40     2000.00
02506             -16.20     2200.00
02507             -25.00     2200.00
02508               5.40     2200.00
02509               2.80     2400.00
02510              24.60     2800.00
02511              14.20     2800.00
02512             -25.00     2800.00
02513              25.00     3200.00
02514              25.00     3200.00
02515             -25.00     3400.00
02516              23.80     3600.00
02517              25.00     3600.00
02518             -25.00     4000.00
02519              13.40     4000.00
02520              18.80     4400.00
02521             -13.40     4400.00
02522               4.20     4600.00
02523             -13.00     4600.00
02524              20.60     4800.00
02525              -2.20     5000.00
02526             -25.00     5200.00
02527              25.00     5400.00
02528              14.00     5600.00
02529             -25.00     5600.00
02530              -0.60     6000.00
02531              25.00     6000.00
02532             -16.00     6200.00
02533             -22.20     6400.00
02534              25.00     6400.00
02535               0.40     6600.00
02536             -21.60     6800.00
02537              15.00     6800.00
02538               8.80     7000.00
02539             -18.80     7200.00
02540               4.00     7400.00
02541              17.20     7600.00
02542             -12.60     7600.00
02543              -2.80     7800.00
02544              13.80     7800.00
02545              -4.60     8200.00
02546              -6.00     8200.00
02547               6.20     8400.00
02548               2.00     8400.00
02549              -2.80     8400.00
02550               1.20     8600.00
02551               2.00     8800.00
02552               0.20     9000.00
02553              -1.80     9000.00
02554               2.00     9200.00
02555               2.60     9200.00
02556              -2.60     9400.00
02557               1.80     9600.00
02558               3.80     9600.00
02559              -2.20     9800.00
02560              -0.80     9800.00
02561               4.00    10000.00
02562              -0.60    10000.00
02563              -2.20    10200.00
02564               4.20    10200.00
02565               1.40    10400.00
02566              -2.00    10400.00
02567               2.00    10600.00
02568               1.80    10800.00
02569              -1.40    10800.00
02570               1.00    11000.00
02571               2.20    11000.00
02572              -0.60    11000.00
02573               0.40    11200.00
02574               1.80    11200.00
02575               0.60    11200.00
02576               0.20    11400.00
02577               1.00    11600.00
02578               1.40    11600.00
02579               1.60    11800.00
02580               0.20    11800.00
02581               0.60    11800.00
02582               1.80    11800.00
02583              -0.20    12000.00
02584               1.00    12000.00
02585               2.00    12000.00
02586               0.40    12200.00
02587               0.40    12400.00
02588               2.20    12200.00
02589               0.60    12400.00
02590               0.40    12400.00
02591               2.00    12400.00
02592               1.40    12400.00
02593               0.40    12600.00
02594               1.20    12600.00
02595               1.00    12600.00
02596               0.20    12600.00
02597               1.80    12600.00
02598               1.80    12800.00
02599               0.20    12600.00
02600               1.80    12800.00
02601               2.00    12800.00
02602               0.60    12800.00
02603               0.60    12800.00
02604               1.80    13000.00
02605               0.40    12800.00
02606               1.00    12800.00
02607               2.60    13000.00
02608               0.40    13000.00
02609               0.40    12800.00
02610               2.00    12800.00
02611               0.80    13000.00
02612               0.40    12800.00
02613               1.20    13200.00
02614               1.20    12800.00
02615               1.40    12800.00
02616               0.20    13000.00
02617               1.40    13000.00
02618               2.00    13000.00
02619              -0.40    13000.00
02620               1.20    13000.00
02621               2.40    13000.00
02622               0.20    12800.00
02623              -0.20    12800.00
02624               2.60    12800.00
02625               1.00    12800.00
02626               0.00    12800.00
02627               1.40    12800.00
02628               1.20    12800.00
02629               0.60    12600.00
02630               1.20    12600.00
02631               0.60    12600.00
02632               1.00    12600.00
02633               0.80    12600.00
02634               1.20    12400.00
02635               0.60    12400.00
02636               1.00    12400.00
02637               1.20    12400.00
02638               1.20    12400.00
02639               1.00    12200.00
02640               0.60    12200.00
02641               1.00    12400.00
02642               1.00    12200.00
02643               0.40    12000.00
02644               1.40    11800.00
02645               1.40    12000.00
02646              -0.20    11800.00
02647               0.80    11800.00
02648               1.80    11600.00
02649               0.60    11600.00
02650               0.20    11400.00
02651               1.60    11600.00
02652               1.60    11400.00
02653               0.20    11200.00
02654               1.00    11200.00
02655               1.60    11200.00
02656               0.40    11000.00
02657               0.60    11000.00
02658               1.00    10800.00
02659               0.80    10800.00
02660               0.60    10800.00
02661               0.60    10800.00
02662               1.00    10400.00
02663               1.00    10200.00
02664               0.40    10400.00
02665               1.40    10200.00
02666               1.00    10000.00
02667               0.60    10000.00
02668               1.00     9800.00
02669               1.00     9600.00
02670               0.60     9600.00
02671               0.60     9400.00
02672               0.60     9200.00
02673               1.00     9200.00
02674               0.40     9200.00
02675               1.00     9000.00
02676               0.60     8800.00
02677               0.40     8800.00
02678               0.60     8600.00
02679               0.60     8400.00
02680               0.20     8400.00
02681               0.40     8400.00
02682               0.40     8200.00
02683               0.20     8000.00
02684               0.40     7800.00
02685               0.20     7800.00
02686               0.40     7600.00
02687               0.40     7600.00
02688               0.20     7200.00
02689               0.40     7200.00
02690               0.40     7000.00
02691              -0.20     7000.00
02692               0.20     6800.00
02693               0.60     6800.00
02694              -0.40     6400.00
02695               0.00     6400.00
02696               0.60     6200.00
02697               0.20     6000.00
02698              -0.20     6000.00
02699               0.40     5800.00
02700               0.20     5600.00
02701              -0.20     5400.00
02702               0.20     5200.00
02703               0.40     5200.00
02704              -0.40     4800.00
02705               0.20     4600.00
02706               0.40     4600.00
02707               0.20     4400.00
02708              -0.20     4200.00
02709               0.20     4200.00
02710               0.20     4000.00
02711              -0.20     3800.00
02712               0.00     3600.00
02713               0.20     3400.00
02714              -0.40     3200.00
02715               0.00     3200.00
02716               0.00     3000.00
02717               0.00     2800.00
02718               0.20     2800.00
02719              -0.20     2600.00
02720              -0.20     2200.00
02721               0.20     2200.00
02722              -0.40     2000.00
02723              -0.20     2000.00
02724               0.20     1800.00
02725              -0.60     1600.00
02726               0.20     1400.00
02727               0.20     1400.00
02728              -0.60     1200.00
02729              -0.20      800.00
02730               0.40      800.00
02731              -0.60      400.00
02732              -0.20      400.00
02733              -0.20      200.00
02734               0.00        0.00
02735              -0.60     -200.00
02736               0.20     -200.00
02737               1.80     -400.00
02738               0.20     -600.00
02739              -1.80    -1000.00
02740               0.40     -800.00
02741               0.40    -1200.00
02742              -0.80    -1200.00
02743               2.60    -1600.00
02744              25.00    -1800.00
02745              -4.40    -2000.00
02746             -25.00    -2200.00
02747              -3.40    -2400.00
02748               5.00    -2200.00
02749              25.00    -2400.00
02750               3.60    -2800.00
02751             -25.00    -2600.00
02752              25.00    -2800.00
02753              25.00    -3200.00
02754             -25.00    -3200.00
02755              25.00    -3400.00
02756              25.00    -3600.00
02757             -25.00    -3600.00
02758              25.00    -4000.00
02759              25.00    -4000.00
02760             -21.20    -4400.00
02761              10.80    -4400.00
02762             -25.00    -4400.00
02763              25.00    -4800.00
02764              -2.80    -4800.00
02765             -25.00    -5000.00
02766              25.00    -5400.00
02767               3.00    -5200.00
02768             -25.00    -5600.00
02769               9.00    -5800.00
02770              25.00    -5800.00
02771             -20.60    -6000.00
02772             -25.00    -6000.00
02773              25.00    -6400.00
02774             -12.80    -6400.00
02775             -25.00    -6600.00
02776              25.00    -6800.00
02777              -1.40    -6800.00
02778             -14.20    -7200.00
02779              -5.00    -7200.00
02780              20.60    -7400.00
02781             -13.80    -7400.00
02782              -9.00    -7600.00
02783              19.40    -8000.00
02784             -12.60    -8000.00
02785              -6.60    -8200.00
02786               6.60    -8200.00
02787               1.00    -8200.00
02788              -7.20    -8400.00
02789               1.40    -8600.00
02790               2.80    -8400.00
02791              -3.40    -8800.00
02792              -5.00    -9000.00
02793               3.40    -9200.00
02794               0.60    -9200.00
02795              -8.60    -9200.00
02796               5.80    -9600.00
02797               0.20    -9600.00
02798              -6.00    -9600.00
02799              -1.00    -9800.00
02800               3.40    -9800.00
02801              -3.40   -10000.00
02802              -5.80   -10000.00
02803               5.20   -10200.00
02804              -1.00   -10400.00
02805              -6.00   -10400.00
02806               1.00   -10400.00
02807               1.40   -10600.00
02808              -6.00   -10600.00
02809              -0.60   -10800.00
02810               2.00   -11200.00
02811              -2.80   -10800.00
02812              -3.60   -11200.00
02813               0.40   -11000.00
02814               0.20   -11400.00
02815              -4.60   -11400.00
02816              -0.60   -11400.00
02817               0.40   -11600.00
02818              -2.20   -11800.00
02819              -1.80   -11600.00
02820              -1.20   -11600.00
02821              -1.20   -12000.00
02822              -2.80   -11800.00
02823              -0.60   -12000.00
02824              -0.60   -12000.00
02825              -2.60   -12000.00
02826              -1.40   -12200.00
02827              -0.60   -12200.00
02828              -2.00   -12200.00
02829              -2.20   -12400.00
02830              -1.20   -12400.00
02831              -1.00   -12400.00
02832              -1.80   -12400.00
02833              -1.80   -12600.00
02834              -2.00   -12600.00
02835              -1.40   -12400.00
02836              -1.00   -12800.00
02837              -2.20   -12800.00
02838              -1.00   -12600.00
02839              -1.00   -12800.00
02840              -2.40   -12800.00
02841              -1.20   -12800.00
02842              -0.60   -13000.00
02843              -2.20   -12800.00
02844              -1.80   -13000.00
02845              -1.00   -12800.00
02846              -1.80   -13000.00
02847              -2.00   -13000.00
02848              -1.00   -13000.00
02849              -1.40   -13000.00
02850              -1.40   -13000.00
02851              -1.00   -13000.00
02852              -2.00   -13200.00
02853              -1.60   -13000.00
02854              -1.00   -13000.00
02855              -1.40   -13000.00
02856              -1.80   -13200.00
02857              -2.20   -13000.00
02858              -1.20   -13000.00
02859              -1.20   -13000.00
02860              -2.20   -13000.00
02861              -1.00   -13000.00
02862              -1.40   -13000.00
02863              -2.00   -12800.00
02864              -1.20   -12800.00
02865              -1.20   -13000.00
02866              -1.80   -12800.00
02867              -1.40   -12800.00
02868              -1.20   -12800.00
02869              -1.40   -12800.00
02870              -2.20   -12800.00
02871              -1.40   -12600.00
02872              -1.20   -12600.00
02873              -1.40   -12800.00
02874              -2.00   -12400.00
02875              -1.20   -12600.00
02876              -0.60   -12400.00
02877              -2.60   -12400.00
02878              -2.40   -12400.00
02879              -0.60   -12200.00
02880              -1.80   -12200.00
02881              -2.20   -12200.00
02882              -1.40   -12000.00
02883              -0.40   -12200.00
02884              -2.00   -12000.00
02885              -2.80   -12000.00
02886              -1.00   -12000.00
02887              -1.20   -12000.00
02888              -3.00   -11600.00
02889              -1.20   -11800.00
02890              -0.60   -11400.00
02891              -1.20   -11600.00
02892              -2.00   -11400.00
02893              -1.00   -11400.00
02894              -1.80   -11200.00
02895              -2.40   -11200.00
02896              -1.40   -11000.00
02897              -1.20   -10800.00
02898              -0.80   -10800.00
02899              -1.00   -10800.00
02900              -1.40   -10600.00
02901              -1.20   -10600.00
02902              -2.20   -10400.00
02903              -1.80   -10400.00
02904              -0.60   -10400.00
02905              -1.80   -10000.00
02906              -1.80   -10000.00
02907              -0.60   -10000.00
02908              -1.20    -9800.00
02909              -1.80    -9800.00
02910              -1.20    -9600.00
02911              -1.00    -9200.00
02912              -0.80    -9200.00
02913              -1.20    -9200.00
02914              -1.20    -9200.00
02915              -1.20    -9000.00
02916              -1.20    -8800.00
02917              -1.40    -8800.00
02918              -0.40    -8600.00
02919              -1.00    -8400.00
02920              -1.80    -8400.00
02921              -1.20    -8200.00
02922              -0.60    -8200.00
02923              -0.80    -8000.00
02924              -1.20    -8000.00
02925              -1.00    -7800.00
02926              -1.20    -7600.00
02927              -0.40    -7400.00
02928              -1.20    -7400.00
02929              -1.80    -7200.00
02930              -1.00    -7000.00
02931              -0.40    -6800.00
02932              -0.80    -6800.00
02933              -1.20    -6600.00
02934              -1.20    -6400.00
02935              -1.20    -6400.00
02936              -0.60    -6200.00
02937              -0.80    -6000.00
02938              -1.20    -5800.00
02939              -1.20    -5800.00
02940              -0.60    -5600.00
02941              -0.40    -5400.00
02942              -0.80    -5200.00
02943              -1.40    -5000.00
02944              -1.80    -4800.00
02945              -0.60    -4600.00
02946              -0.40    -4600.00
02947              -1.20    -4400.00
02948              -1.00    -4400.00
02949              -0.20    -4200.00
02950              -1.20    -4000.00
02951              -1.20    -4000.00
02952              -0.40    -3600.00
02953              -1.40    -3400.00
02954              -1.20    -3400.00
02955               0.20    -3200.00
02956              -0.40    -3000.00
02957              -1.00    -2800.00
02958              -0.60    -2600.00
02959              -0.40    -2600.00
02960              -1.20    -2400.00
02961              -1.00    -2200.00
02962              -0.20    -2000.00
02963              -0.40    -1800.00
02964              -1.20    -1600.00
02965              -0.20    -1600.00
02966              -0.60    -1600.00
02967              -1.00    -1200.00
02968              -0.40    -1000.00
02969              -0.20     -800.00
02970              -0.40     -600.00
02971               0.20     -400.00
02972              -0.40     -400.00
02973              -0.40     -200.00
02974              -0.20        0.00
02975              -0.60        0.00
02976               0.20      400.00
02977               2.40      400.00
02978              -0.20      600.00
02979              -1.20      800.00
02980               1.20     1000.00
02981               1.00     1200.00
02982              -1.00     1400.00
02983               1.20     1400.00
02984              11.60     1800.00
02985              18.00     2000.00
02986             -25.00     2200.00
02987             -25.00     2000.00
02988               9.80     2200.00
02989              -0.20     2400.00
02990              25.00     2800.00
02991              -9.00     2600.00
02992             -25.00     3000.00
02993              25.00     3200.00
02994              25.00     3200.00
02995             -25.00     3400.00
02996              25.00     3600.00
02997              25.00     3600.00
02998             -25.00     4000.00
02999              25.00     4000.00
03000               6.60     4000.00
03001              -7.60     4400.00
03002              -0.60     4400.00
03003              -7.60     4600.00
03004              24.80     4800.00
03005             -17.80     5000.00
03006             -18.00     5400.00
03007              25.00     5400.00
03008               0.00     5600.00
03009             -25.00     5600.00
03010              12.00     5800.00
03011              25.00     6000.00
03012             -25.00     6200.00
03013              -9.80     6200.00
03014              25.00     6400.00
03015             -10.80     6600.00
03016             -15.40     6800.00
03017              19.40     7000.00
03018               1.40     7200.00
03019             -18.60     7200.00
03020              11.40     7200.00
03021              11.60     7600.00
03022             -15.60     7600.00
03023               3.60     7800.00
03024              11.00     8000.00
03025              -7.80     8200.00
03026              -3.00     8400.00
03027               6.80     8400.00
03028              -0.40     8600.00
03029              -2.00     8600.00
03030               2.60     8800.00
03031               1.40     8800.00
03032              -0.20     8800.00
03033              -0.80     9000.00
03034               2.80     9200.00
03035               1.20     9200.00
03036              -2.20     9400.00
03037               3.00     9600.00
03038               2.20     9600.00
03039              -2.80     9600.00
03040               1.00     9800.00
03041               4.40    10000.00
03042              -1.80    10000.00
03043              -1.20    10200.00
03044               4.60    10400.00
03045               0.40    10400.00
03046              -1.60    10400.00
03047               2.60    10600.00
03048               1.40    10800.00
03049              -1.00    10800.00
03050               1.80    10800.00
03051               2.60    11000.00
03052              -0.40    11200.00
03053               0.20    11000.00
03054               2.60    11400.00
03055               0.80    11400.00
03056              -0.40    11600.00
03057               1.40    11400.00
03058               1.60    11600.00
03059               0.60    11600.00
03060               0.80    11800.00
03061               1.20    11800.00
03062               1.00    12000.00
03063               1.00    12000.00
03064               1.40    12000.00
03065               1.00    12000.00
03066               0.40    12000.00
03067               1.60    12200.00
03068               1.60    12200.00
03069               0.60    12400.00
03070               0.40    12400.00
03071               1.20    12400.00
03072               1.20    12400.00
03073               1.00    12600.00
03074               0.60    12600.00
03075               0.60    12600.00
03076               1.20    12600.00
03077               1.20    12600.00
03078               0.20    12800.00
03079               1.00    12800.00
03080               1.40    12800.00
03081               0.60    12800.00
03082               1.00    12800.00
03083               1.40    12800.00
03084               0.40    12800.00
03085               0.40    12800.00
03086               1.40    12800.00
03087               1.00    12800.00
03088               0.60    13000.00
03089               1.00    12800.00
03090               1.20    13000.00
03091               1.00    13200.00
03092               1.00    13000.00
03093               1.00    13000.00
03094               1.20    13000.00
03095               1.00    13000.00
03096               1.00    13000.00
03097               1.00    13000.00
03098               1.20    13000.00
03099               1.00    13000.00
03100               1.20    13000.00
03101               1.20    12800.00
03102               1.00    13000.00
03103               0.60    12800.00
03104               1.00    12800.00
03105               0.80    13000.00
03106               1.40    12800.00
03107               0.40    12800.00
03108               1.20    12800.00
03109               1.20    12800.00
03110               1.20    12800.00
03111               1.00    12600.00
03112               1.00    12600.00
03113               0.80    12600.00
03114               1.20    12400.00
03115               1.00    12400.00
03116               0.60    12400.00
03117               0.80    12400.00
03118               1.20    12400.00
03119               1.20    12400.00
03120               0.60    12200.00
03121               0.80    12200.00
03122               1.40    12000.00
03123               1.00    12000.00
03124               0.40    12000.00
03125               1.20    12000.00
03126               1.20    11800.00
03127               1.00    11800.00
03128               1.20    11800.00
03129               1.00    11600.00
03130               0.40    11400.00
03131               0.40    11600.00
03132               0.60    11400.00
03133               1.00    11200.00
03134               1.20    11200.00
03135               0.40    11200.00
03136               0.40    11000.00
03137               1.20    11000.00
03138               0.20    10800.00
03139              -0.40    10800.00
03140               1.40    10800.00
03141               1.00    10400.00
03142               0.40    10400.00
03143               0.80    10400.00
03144               1.00    10200.00
03145               0.40    10200.00
03146               0.40    10000.00
03147               0.40    10000.00
03148               0.60     9800.00
03149               0.40     9800.00
03150               1.00     9400.00
03151               1.00     9400.00
03152               0.40     9200.00
03153               0.20     9200.00
03154               0.20     9200.00
03155               0.40     9000.00
03156               1.00     9000.00
03157               0.60     8800.00
03158               0.20     8800.00
03159               1.40     8600.00
03160               0.40     8400.00
03161              -0.60     8400.00
03162               1.20     8200.00
03163               1.00     8000.00
03164              -0.40     7800.00
03165               1.20     7800.00
03166               0.60     7800.00
03167              -0.60     7400.00
03168               0.20     7200.00
03169               0.40     7200.00
03170               0.20     7000.00
03171               0.40     7000.00
03172               1.00     6800.00
03173               0.40     6600.00
03174               0.40     6400.00
03175              -0.20     6200.00
03176               0.00     6200.00
03177               1.20     6000.00
03178               0.00     6000.00
03179              -0.20     5800.00
03180               1.00     5600.00
03181               0.20     5400.00
03182               0.20     5400.00
03183               0.20     5000.00
03184               0.20     4800.00
03185               0.20     4600.00
03186               0.20     4400.00
03187               0.40     4400.00
03188               0.20     4200.00
03189               0.00     4200.00
03190               0.40     4000.00
03191               0.40     3800.00
03192               0.60     3600.00
03193              -0.40     3400.00
03194              -0.20     3200.00
03195               0.20     3200.00
03196              -0.20     3000.00
03197              -0.40     2800.00
03198               0.20     2800.00
03199               0.20     2400.00
03200              -0.40     2400.00
03201              -0.20     2200.00
03202              -0.40     2000.00
03203              -0.40     1800.00
03204               0.00     1600.00
03205              -0.20     1600.00
03206              -0.40     1400.00
03207              -0.40     1200.00
03208              -0.20      800.00
03209              -0.60      800.00
03210              -0.20      600.00
03211              -0.80      400.00
03212              -0.60      400.00
03213               0.20        0.00
03214               0.20        0.00
03215              -0.40     -200.00
03216               0.00     -400.00
03217               1.40     -600.00
03218              -0.80     -800.00
03219              -2.00     -800.00
03220               0.20     -800.00
03221               0.60    -1200.00
03222              -0.60    -1200.00
03223               5.00    -1400.00
03224              25.00    -1800.00
03225             -19.40    -2200.00
03226             -25.00    -2400.00
03227               4.60    -2400.00
03228               9.00    -2200.00
03229              25.00    -2400.00
03230             -25.00    -2800.00
03231             -25.00    -2600.00
03232              25.00    -3200.00
03233              25.00    -3200.00
03234             -25.00    -3000.00
03235              25.00    -3600.00
03236              25.00    -3600.00
03237             -25.00    -3600.00
03238              25.00    -4000.00
03239               1.20    -4000.00
03240              -6.00    -4400.00
03241              -4.20    -4400.00
03242             -25.00    -4400.00
03243              25.00    -5000.00
03244             -25.00    -4600.00
03245             -25.00    -5000.00
03246              25.00    -5200.00
03247             -23.00    -5200.00
03248             -25.00    -5800.00
03249              17.80    -5600.00
03250              25.00    -6000.00
03251             -25.00    -6200.00
03252             -17.40    -6000.00
03253              25.00    -6400.00
03254             -25.00    -6400.00
03255             -13.20    -6800.00
03256              25.00    -6800.00
03257              -7.80    -7000.00
03258             -13.60    -7200.00
03259               1.40    -7200.00
03260              17.60    -7200.00
03261             -20.00    -7400.00
03262               2.20    -7600.00
03263              13.60    -8000.00
03264             -15.40    -8000.00
03265              -2.00    -8200.00
03266               5.00    -8200.00
03267              -1.20    -8400.00
03268              -5.80    -8400.00
03269               3.00    -8600.00
03270               0.40    -8800.00
03271              -4.20    -8800.00
03272              -5.20    -9000.00
03273               4.80    -9200.00
03274              -1.80    -9200.00
03275              -6.80    -9200.00
03276               6.40    -9400.00
03277              -2.80    -9600.00
03278              -5.80    -9600.00
03279              -0.40    -9800.00
03280               3.00   -10000.00
03281              -5.40   -10000.00
03282              -3.60   -10000.00
03283               5.40   -10200.00
03284              -3.20   -10400.00
03285              -5.40   -10400.00
03286               2.00   -10600.00
03287              -1.20   -10600.00
03288              -5.80   -10800.00
03289               1.80   -10800.00
03290               0.40   -11000.00
03291              -3.80   -10800.00
03292              -2.60   -11200.00
03293               1.40   -11000.00
03294              -1.40   -11400.00
03295              -4.40   -11400.00
03296               0.60   -11400.00
03297              -0.20   -11600.00
03298              -2.60   -11800.00
03299              -1.80   -11600.00
03300              -0.40   -11800.00
03301              -1.80   -12000.00
03302              -3.00   -12000.00
03303               0.20   -12000.00
03304              -1.00   -12200.00
03305              -3.00   -12000.00
03306              -0.60   -12200.00
03307              -0.40   -12400.00
03308              -2.20   -12400.00
03309              -2.00   -12400.00
03310              -1.20   -12400.00
03311              -0.60   -12400.00
03312              -1.40   -12600.00
03313              -1.80   -12400.00
03314              -1.00   -12600.00
03315              -1.40   -12600.00
03316              -1.80   -12600.00
03317              -2.20   -12800.00
03318              -1.60   -12800.00
03319              -1.20   -12800.00
03320              -1.40   -12800.00
03321              -0.60   -12800.00
03322              -1.20   -12800.00
03323              -2.60   -13000.00
03324              -2.00   -12800.00
03325              -0.60   -13000.00
03326              -1.80   -13000.00
03327              -2.20   -13000.00
03328              -0.60   -13000.00
03329              -1.20   -13200.00
03330              -1.80   -12800.00
03331              -1.80   -13000.00
03332              -2.00   -13000.00
03333              -1.60   -13000.00
03334              -1.80   -13000.00
03335              -1.20   -13200.00
03336              -1.20   -13000.00
03337              -2.00   -13000.00
03338              -1.60   -13000.00
03339              -1.20   -13000.00
03340              -1.80   -13000.00
03341              -2.20   -13000.00
03342              -1.40   -13000.00
03343              -1.00   -13000.00
03344              -1.80   -12800.00
03345              -1.60   -12800.00
03346              -2.00   -13000.00
03347              -1.20   -12800.00
03348              -1.20   -12800.00
03349              -3.00   -12800.00
03350              -1.40   -12600.00
03351              -0.40   -12600.00
03352              -2.60   -12600.00
03353              -1.40   -12400.00
03354              -0.60   -12400.00
03355              -2.60   -12400.00
03356              -2.00   -12400.00
03357              -0.40   -12400.00
03358              -2.00   -12400.00
03359              -2.00   -12200.00
03360              -0.40   -12400.00
03361              -1.60   -12000.00
03362              -2.00   -12000.00
03363              -0.60   -12000.00
03364              -2.20   -12000.00
03365              -2.20   -12000.00
03366              -1.00   -11600.00
03367              -0.60   -11600.00
03368              -1.80   -11600.00
03369              -2.20   -11600.00
03370              -0.20   -11400.00
03371              -1.00   -11400.00
03372              -2.80   -11400.00
03373              -1.00   -11200.00
03374              -1.00   -11000.00
03375              -2.00   -11200.00
03376              -1.00   -10800.00
03377              -1.00   -10800.00
03378              -2.00   -10800.00
03379              -1.20   -10800.00
03380              -0.80   -10600.00
03381              -1.60   -10400.00
03382              -1.80   -10400.00
03383              -1.00   -10200.00
03384              -0.60   -10000.00
03385              -1.20   -10200.00
03386              -1.60   -10000.00
03387              -1.00    -9800.00
03388              -0.60    -9800.00
03389              -1.40    -9600.00
03390              -1.00    -9600.00
03391              -1.00    -9600.00
03392              -1.80    -9200.00
03393              -1.20    -9200.00
03394              -1.00    -9200.00
03395              -1.20    -9000.00
03396              -1.40    -8800.00
03397              -0.60    -8800.00
03398              -1.20    -8600.00
03399              -1.40    -8400.00
03400              -1.20    -8400.00
03401              -1.00    -8200.00
03402              -1.20    -8200.00
03403              -1.20    -8000.00
03404              -0.60    -8000.00
03405              -1.20    -7600.00
03406              -1.00    -7600.00
03407              -1.20    -7400.00
03408              -0.60    -7400.00
03409              -1.00    -7000.00
03410              -1.80    -7000.00
03411              -0.60    -6800.00
03412              -0.60    -6800.00
03413              -2.00    -6600.00
03414              -1.20    -6400.00
03415              -0.20    -6400.00
03416              -1.20    -6000.00
03417              -1.20    -6000.00
03418              -0.20    -5800.00
03419              -1.20    -5600.00
03420              -1.20    -5400.00
03421              -0.40    -5200.00
03422              -0.60    -5200.00
03423              -1.20    -5000.00
03424              -1.00    -4800.00
03425              -0.40    -4600.00
03426              -0.80    -4600.00
03427              -0.80    -4400.00
03428              -1.00    -4200.00
03429              -0.60    -4000.00
03430              -0.60    -3800.00
03431              -0.60    -3800.00
03432              -0.60    -3600.00
03433              -0.60    -3400.00
03434              -0.40    -3200.00
03435              -0.40    -3200.00
03436              -0.60    -3000.00
03437              -0.40    -2800.00
03438              -0.40    -2600.00
03439              -0.60    -2600.00
03440              -0.40    -2400.00
03441              -0.60    -2200.00
03442              -0.60    -2000.00
03443              -0.40    -1800.00
03444              -0.20    -1600.00
03445              -0.80    -1400.00
03446              -0.60    -1600.00
03447              -0.20    -1000.00
03448              -0.20    -1000.00
03449              -0.20     -800.00
03450              -0.60     -600.00
03451              -0.40     -600.00
03452              -0.20     -200.00
03453              -0.40        0.00
03454               0.00        0.00
03455              -0.40      200.00
03456               0.60      400.00
03457               2.20      400.00
03458              -1.00      400.00
03459              -1.00      800.00
03460               1.20     1200.00
03461               0.40     1200.00
03462              -0.60     1400.00
03463               2.40     1600.00
03464              15.00     1800.00
03465              11.60     2000.00
03466             -25.00     2200.00
03467             -17.20     2200.00
03468              10.40     2400.00
03469              -0.80     2600.00
03470              25.00     2800.00
03471             -25.00     2600.00
03472             -25.00     3000.00
03473              25.00     3200.00
03474             -14.80     3200.00
03475             -25.00     3600.00
03476              25.00     3600.00
03477              -2.40     3800.00
03478             -25.00     4000.00
03479              25.00     4000.00
03480              -6.20     4200.00
03481              -1.20     4600.00
03482              -6.80     4600.00
03483              -0.40     4600.00
03484              24.40     4800.00
03485             -25.00     5400.00
03486              -4.20     5400.00
03487              25.00     5600.00
03488             -12.60     5600.00
03489             -25.00     5600.00
03490              22.80     6000.00
03491              19.20     6200.00
03492             -25.00     6200.00
03493               4.60     6400.00
03494              25.00     6600.00
03495             -19.80     6600.00
03496              -6.80     6800.00
03497              21.00     7000.00
03498              -6.40     7200.00
03499             -15.20     7200.00
03500              17.20     7600.00
03501               4.60     7600.00
03502             -15.60     7600.00
03503               9.20     7800.00
03504               7.00     8000.00
03505              -9.40     8200.00
03506               0.60     8200.00
03507               6.80     8400.00
03508              -2.00     8600.00
03509              -1.20     8800.00
03510               3.00     8800.00
03511               1.40     8800.00
03512              -1.00     9000.00
03513              -0.60     9200.00
03514               4.20     9200.00
03515               0.00     9400.00
03516              -2.00     9400.00
03517               4.00     9600.00
03518               1.40     9600.00
03519              -3.60     9800.00
03520               2.40     9800.00
03521               4.40    10000.00
03522              -2.60    10200.00
03523               0.20    10200.00
03524               4.40    10400.00
03525              -0.60    10400.00
03526              -1.20    10600.00
03527               3.00    10600.00
03528               0.60    10800.00
03529              -0.60    10800.00
03530               2.20    10800.00
03531               1.80    11000.00
03532              -0.60    11200.00
03533               0.40    11200.00
03534               2.60    11200.00
03535               0.20    11200.00
03536              -0.80    11400.00
03537               2.00    11600.00
03538               2.00    11600.00
03539               0.40    11800.00
03540               0.60    11600.00
03541               1.40    12000.00
03542               0.40    12000.00
03543               1.00    12000.00
03544               1.80    12000.00
03545               0.20    12000.00
03546               0.80    12200.00
03547               1.80    12000.00
03548               0.60    12400.00
03549               0.20    12400.00
03550               1.00    12400.00
03551               1.20    12400.00
03552               0.60    12400.00
03553               1.80    12600.00
03554               1.00    12600.00
03555               0.60    12400.00
03556               1.60    12600.00
03557               0.80    12600.00
03558               1.00    12800.00
03559               1.40    12800.00
03560               0.80    12800.00
03561               1.20    12800.00
03562               1.40    12800.00
03563               1.40    12800.00
03564               0.60    12800.00
03565               0.60    12800.00
03566               2.60    12800.00
03567               1.00    13000.00
03568               0.20    12800.00
03569               1.20    12800.00
03570               1.40    13000.00
03571               1.60    13000.00
03572               0.60    13000.00
03573               1.00    13200.00
03574               2.00    12800.00
03575               1.40    12800.00
03576               0.40    13000.00
03577               1.20    12800.00
03578               1.00    12800.00
03579               0.40    13000.00
03580               1.80    13000.00
03581               2.00    12800.00
03582               0.40    13000.00
03583               0.40    12800.00
03584               1.60    13000.00
03585               1.00    12800.00
03586               1.20    12800.00
03587               1.60    12800.00
03588               1.00    12800.00
03589               0.80    12800.00
03590               1.40    12600.00
03591               0.40    12600.00
03592               0.80    12600.00
03593               1.60    12600.00
03594               1.20    12600.00
03595               0.20    12400.00
03596               1.00    12400.00
03597               1.40    12400.00
03598               0.40    12400.00
03599               0.40    12400.00
03600               1.80    12200.00
03601               0.60    12200.00
03602              -0.40    12000.00
03603               1.80    12000.00
03604               1.00    12000.00
03605              -0.40    12000.00
03606               1.80    11800.00
03607               1.00    11800.00
03608               0.40    11600.00
03609               0.60    11600.00
03610               0.40    11600.00
03611               1.40    11400.00
03612               0.40    11400.00
03613              -0.20    11200.00
03614               1.80    11200.00
03615               1.00    11000.00
03616              -1.20    11000.00
03617               1.20    10800.00
03618               2.00    10800.00
03619              -0.40    10800.00
03620               1.20    10800.00
03621               2.00    10600.00
03622              -0.60    10400.00
03623               0.40    10400.00
03624               1.40    10200.00
03625               0.00    10200.00
03626               0.40    10000.00
03627               1.20    10000.00
03628               0.40     9600.00
03629               0.40     9600.00
03630               1.00     9600.00
03631               0.60     9400.00
03632               0.60     9400.00
03633               1.00     9200.00
03634               0.40     9200.00
03635               0.80     8800.00
03636              -0.40     8800.00
03637              -0.20     8800.00
03638               1.40     8600.00
03639               0.40     8600.00
03640               0.20     8400.00
03641               1.20     8400.00
03642               1.20     8000.00
03643               0.40     8000.00
03644               0.40     7800.00
03645               0.60     7600.00
03646               0.20     7600.00
03647               0.20     7600.00
03648               0.60     7200.00
03649               0.40     7200.00
03650               0.20     7000.00
03651               0.60     6800.00
03652               0.40     6800.00
03653               0.60     6400.00
03654               0.60     6400.00
03655               0.40     6000.00
03656               0.20     6000.00
03657              -0.20     6000.00
03658               0.20     5800.00
03659               0.40     5600.00
03660              -0.20     5400.00
03661               0.40     5400.00
03662               0.20     5200.00
03663              -0.40     5000.00
03664               0.20     4800.00
03665               0.20     4600.00
03666              -0.20     4400.00
03667               0.20     4400.00
03668               0.00     4200.00
03669              -0.20     4000.00
03670              -0.20     3800.00
03671               0.00     3600.00
03672              -0.40     3600.00
03673              -0.40     3600.00
03674               0.20     3200.00
03675               0.20     3000.00
03676              -0.40     3000.00
03677               0.20     2800.00
03678              -0.20     2600.00
03679              -0.40     2400.00
03680               0.20     2200.00
03681              -0.20     2000.00
03682              -0.60     1800.00
03683               0.00     2000.00
03684               0.00     1600.00
03685              -0.40     1400.00
03686              -0.40     1400.00
03687              -0.20     1000.00
03688              -0.40      800.00
03689              -0.40      800.00
03690              -0.20      800.00
03691              -0.20      400.00
03692              -0.20      200.00
03693              -0.40        0.00
03694              -0.40        0.00
03695               0.20     -200.00
03696               0.60     -400.00
03697               1.40     -600.00
03698              -0.60     -800.00
03699              -1.20     -800.00
03700               0.40     -800.00
03701               0.20    -1200.00
03702              -0.40    -1400.00
03703               9.40    -1600.00
03704              25.00    -1800.00
03705             -25.00    -2000.00
03706             -25.00    -2200.00
03707               8.20    -2400.00
03708              18.00    -2000.00
03709              25.00    -2600.00
03710             -25.00    -2800.00
03711             -25.00    -2600.00
03712              25.00    -3400.00
03713             -19.40    -3200.00
03714             -25.00    -3200.00
03715              25.00    -3800.00
03716              12.40    -3600.00
03717             -25.00    -3600.00
03718              25.00    -4000.00
03719             -19.40    -4000.00
03720               7.00    -4400.00
03721             -22.80    -4400.00
03722              -8.40    -4600.00
03723              25.00    -4800.00
03724             -25.00    -4800.00
03725              -1.40    -5200.00
03726              25.00    -5200.00
03727             -25.00    -5200.00
03728             -22.60    -5800.00
03729              25.00    -5600.00
03730              21.80    -5800.00
03731             -25.00    -6000.00
03732               7.60    -6200.00
03733              25.00    -6600.00
03734             -25.00    -6400.00
03735               3.40    -6800.00
03736              19.80    -6800.00
03737             -11.00    -7200.00
03738             -13.60    -7200.00
03739               8.40    -7200.00
03740              12.20    -7400.00
03741             -23.60    -7600.00
03742              10.80    -7800.00
03743               6.80    -8000.00
03744             -15.00    -8000.00
03745               1.20    -8200.00
03746               4.60    -8200.00
03747              -3.80    -8400.00
03748              -4.80    -8400.00
03749               4.20    -8600.00
03750              -0.60    -8800.00
03751              -4.20    -9000.00
03752              -3.40    -9000.00
03753               5.20    -9200.00
03754              -5.40    -9200.00
03755              -3.60    -9200.00
03756               6.60    -9400.00
03757              -4.60    -9600.00
03758              -4.40    -9800.00
03759               1.80    -9800.00
03760               2.20    -9800.00
03761              -7.40   -10000.00
03762              -0.60   -10000.00
03763               4.60   -10200.00
03764              -5.20   -10400.00
03765              -3.40   -10400.00
03766               3.40   -10600.00
03767              -2.80   -10600.00
03768              -4.60   -10800.00
03769               2.00   -10800.00
03770               0.20   -10800.00
03771              -3.40   -11000.00
03772              -2.20   -11000.00
03773               1.80   -11400.00
03774              -2.60   -11000.00
03775              -3.80   -11400.00
03776               1.00   -11400.00
03777              -1.20   -11600.00
03778              -2.20   -11600.00
03779              -1.20   -11600.00
03780              -0.60   -11800.00
03781              -1.80   -11800.00
03782              -2.20   -12000.00
03783              -0.60   -12000.00
03784              -1.40   -12000.00
03785              -2.20   -12200.00
03786              -1.00   -12200.00
03787              -1.00   -12200.00
03788              -2.00   -12400.00
03789              -2.00   -12400.00
03790              -1.40   -12400.00
03791              -1.00   -12400.00
03792              -1.80   -12400.00
03793              -1.80   -12400.00
03794              -1.80   -12600.00
03795              -1.00   -12600.00
03796              -1.80   -12600.00
03797              -2.60   -12800.00
03798              -1.00   -12800.00
03799              -1.20   -12800.00
03800              -2.00   -12800.00
03801              -1.20   -12800.00
03802              -1.40   -12800.00
03803              -2.00   -13000.00
03804              -2.00   -13000.00
03805              -1.20   -13000.00
03806              -2.00   -13000.00
03807              -2.00   -13000.00
03808              -1.40   -13000.00
03809              -1.40   -13000.00
03810              -1.80   -13000.00
03811              -2.00   -13000.00
03812              -1.80   -13000.00
03813              -1.40   -13000.00
03814              -1.80   -13000.00
03815              -1.20   -13000.00
03816              -1.40   -13000.00
03817              -1.80   -13000.00
03818              -1.60   -13000.00
03819              -1.40   -13000.00
03820              -1.80   -13000.00
03821              -2.00   -13000.00
03822              -1.40   -12800.00
03823              -1.00   -13000.00
03824              -1.60   -13000.00
03825              -2.20   -12800.00
03826              -1.40   -13000.00
03827              -1.20   -12800.00
03828              -1.80   -12800.00
03829              -1.80   -12800.00
03830              -1.00   -12800.00
03831              -1.80   -12800.00
03832              -1.80   -12600.00
03833              -0.80   -12400.00
03834              -1.20   -12600.00
03835              -2.00   -12400.00
03836              -1.40   -12400.00
03837              -1.00   -12400.00
03838              -1.80   -12200.00
03839              -1.80   -12200.00
03840              -1.20   -12200.00
03841              -1.40   -12000.00
03842              -0.80   -12000.00
03843              -1.20   -12000.00
03844              -2.40   -12000.00
03845              -1.40   -12000.00
03846              -1.20   -12000.00
03847              -1.80   -11800.00
03848              -1.00   -11600.00
03849              -1.40   -11600.00
03850              -1.20   -11400.00
03851              -1.20   -11600.00
03852              -1.80   -11400.00
03853              -2.00   -11400.00
03854              -1.60   -11000.00
03855              -1.20   -11000.00
03856              -1.40   -11000.00
03857              -1.40   -11000.00
03858              -1.20   -10800.00
03859              -1.20   -10800.00
03860              -1.20   -10600.00
03861              -1.20   -10600.00
03862              -1.80   -10400.00
03863              -1.20   -10400.00
03864              -1.20   -10200.00
03865              -1.40   -10200.00
03866              -1.60   -10000.00
03867              -1.20    -9800.00
03868              -1.20    -9800.00
03869              -1.40    -9600.00
03870              -1.20    -9600.00
03871              -1.20    -9400.00
03872              -1.40    -9400.00
03873              -1.40    -9200.00
03874              -1.00    -9000.00
03875              -1.40    -9000.00
03876              -1.40    -8800.00
03877              -0.80    -8800.00
03878              -1.20    -8800.00
03879              -1.20    -8400.00
03880              -1.00    -8400.00
03881              -1.20    -8200.00
03882              -1.00    -8000.00
03883              -1.00    -8000.00
03884              -1.20    -8000.00
03885              -1.20    -7800.00
03886              -1.20    -7400.00
03887              -0.60    -7400.00
03888              -0.60    -7200.00
03889              -1.00    -7200.00
03890              -1.00    -7000.00
03891              -1.00    -6800.00
03892              -0.60    -6800.00
03893              -1.20    -6600.00
03894              -1.00    -6400.00
03895              -0.60    -6200.00
03896              -0.60    -6200.00
03897              -1.00    -6000.00
03898              -1.00    -5800.00
03899              -1.00    -5600.00
03900              -0.60    -5400.00
03901              -0.60    -5600.00
03902              -0.60    -5200.00
03903              -0.60    -5000.00
03904              -1.00    -4800.00
03905              -0.60    -4600.00
03906              -0.60    -4400.00
03907              -0.60    -4400.00
03908              -0.60    -4400.00
03909              -0.60    -4200.00
03910              -0.60    -4000.00
03911              -0.60    -3800.00
03912              -0.20    -3600.00
03913              -1.20    -3600.00
03914               0.00    -3400.00
03915              -0.20    -3200.00
03916              -1.60    -3000.00
03917              -0.20    -2800.00
03918              -0.40    -2600.00
03919              -1.80    -2400.00
03920              -0.20    -2400.00
03921              -0.20    -2000.00
03922              -1.20    -2000.00
03923              -0.60    -1800.00
03924               0.40    -1800.00
03925              -1.40    -1200.00
03926              -0.80    -1200.00
03927               0.60    -1000.00
03928              -1.20    -1000.00
03929              -1.00     -800.00
03930               0.40     -400.00
03931              -0.40     -400.00
03932              -0.60     -200.00
03933              -0.60     -200.00
03934               0.60        0.00
03935              -0.60      200.00
03936              -0.20      400.00
03937               2.40      600.00
03938              -0.60      600.00
03939              -1.20      800.00
03940               1.00     1000.00
03941               0.60     1200.00
03942              -0.40     1200.00
03943               3.60     1600.00
03944              19.00     1800.00
03945               2.20     2000.00
03946             -25.00     2000.00
03947              -7.00     2200.00
03948               9.00     2200.00
03949               4.60     2600.00
03950              25.00     2800.00
03951             -25.00     2800.00
03952              -4.80     3200.00
03953              25.00     3000.00
03954             -25.00     3200.00
03955             -25.00     3600.00
03956              25.00     3600.00
03957             -25.00     3600.00
03958             -21.60     4200.00
03959              25.00     4000.00
03960             -13.20     4400.00
03961               4.20     4600.00
03962             -12.60     4600.00
03963               8.20     4800.00
03964              19.00     4800.00
03965             -25.00     5200.00
03966              11.00     5400.00
03967              25.00     5600.00
03968             -23.00     5600.00
03969             -21.00     6000.00
03970              25.00     6000.00
03971               7.20     6200.00
03972             -25.00     6400.00
03973              18.20     6200.00
03974              19.80     6600.00
03975             -24.60     6800.00
03976               2.80     7000.00
03977              17.80     7000.00
03978             -13.40     7200.00
03979              -8.00     7200.00
03980              19.20     7600.00
03981              -3.60     7600.00
03982             -11.40     7800.00
03983              12.40     7800.00
03984               1.60     8200.00
03985              -8.60     8200.00
03986               3.00     8400.00
03987               4.60     8400.00
03988              -2.20     8400.00
03989               0.20     8600.00
03990               2.60     8600.00
03991               0.40     8800.00
03992              -1.40     8800.00
03993               0.00     9200.00
03994               2.80     9200.00
03995              -0.60     9400.00
03996              -0.60     9600.00
03997               4.40     9600.00
03998              -0.40     9600.00
03999              -3.00    10000.00
04000               3.80    10000.00
04001               1.80    10000.00
04002              -3.20    10200.00
04003               2.00    10200.00
04004               3.00    10400.00
04005              -1.40    10400.00
04006              -0.20    10600.00
04007               2.60    10600.00
04008               0.40    10800.00
04009               0.20    10800.00
04010               1.20    11000.00
04011               1.00    11200.00
04012               1.20    11000.00
04013               0.60    11200.00
04014               0.20    11200.00
04015               1.40    11200.00
04016               1.40    11200.00
04017               0.40    11600.00
04018               1.20    11600.00
04019               2.00    11600.00
04020               0.60    12000.00
04021               0.20    12000.00
04022               1.00    12000.00
04023               1.60    12000.00
04024               1.00    12000.00
04025               0.60    12000.00
04026               1.20    12200.00
04027               1.40    12200.00
04028               1.00    12400.00
04029               0.60    12400.00
04030               1.00    12400.00
04031               1.00    12600.00
04032               1.80    12400.00
04033               1.20    12600.00
04034               0.60    12600.00
04035               1.00    12600.00
04036               1.80    12600.00
04037               1.20    12800.00
04038               0.60    12800.00
04039               1.60    12800.00
04040               1.40    12600.00
04041               0.60    12800.00
04042               1.40    12800.00
04043               1.00    12800.00
04044               0.40    12800.00
04045               1.80    12800.00
04046               1.20    12800.00
04047               0.60    13000.00
04048               1.20    13000.00
04049               1.00    13000.00
04050               1.20    12800.00
04051               1.20    13000.00
04052               0.40    12800.00
04053               1.20    13000.00
04054               1.00    12800.00
04055               1.20    12800.00
04056               1.20    13000.00
04057               0.60    12800.00
04058               0.60    12800.00
04059               1.20    13000.00
04060               0.60    12800.00
04061               1.00    12800.00
04062               1.40    12800.00
04063               1.20    12800.00
04064               1.00    12800.00
04065               1.20    12800.00
04066               1.00    12800.00
04067               0.40    12800.00
04068               1.80    12800.00
04069               1.00    12800.00
04070               0.40    12600.00
04071               1.40    12600.00
04072               1.20    12600.00
04073               0.60    12400.00
04074               1.20    12600.00
04075               1.20    12400.00
04076               0.60    12400.00
04077               1.20    12200.00
04078               1.00    12400.00
04079               1.00    12200.00
04080               0.60    12200.00
04081               1.00    12400.00
04082               1.20    12200.00
04083               1.00    12000.00
04084               1.00    12000.00
04085               0.80    11800.00
04086               1.00    11800.00
04087               1.00    11800.00
04088               0.60    11600.00
04089               1.00    11600.00
04090               1.00    11600.00
04091               1.00    11400.00
04092               1.00    11200.00
04093               0.80    11200.00
04094               0.60    11200.00
04095               1.20    11000.00
04096               1.00    11000.00
04097               0.60    10800.00
04098               0.60    10800.00
04099               1.00    10800.00
04100               0.60    10600.00
04101               0.60    10600.00
04102               1.00    10200.00
04103               0.80    10400.00
04104               0.60    10200.00
04105               1.20    10200.00
04106               1.00    10000.00
04107               0.40    10000.00
04108               0.40     9800.00
04109               1.00     9600.00
04110               0.60     9400.00
04111               0.40     9400.00
04112               0.60     9200.00
04113               1.00     9200.00
04114               0.20     9000.00
04115               0.60     8800.00
04116               0.60     8800.00
04117               0.40     8800.00
04118               0.40     8600.00
04119               0.60     8400.00
04120               0.40     8200.00
04121               0.20     8200.00
04122               0.40     8000.00
04123               0.60     7800.00
04124               0.40     7800.00
04125               0.40     7800.00
04126               0.40     7600.00
04127               0.40     7400.00
04128               0.40     7200.00
04129               0.20     7200.00
04130               0.20     6800.00
04131               0.20     6800.00
04132               0.40     6600.00
04133               0.20     6400.00
04134               0.40     6400.00
04135              -0.20     6200.00
04136               0.20     6000.00
04137               0.40     6000.00
04138               0.00     5800.00
04139               0.20     5600.00
04140               0.40     5400.00
04141               0.20     5200.00
04142               0.40     5200.00
04143               0.20     5000.00
04144              -0.20     4800.00
04145               0.20     4600.00
04146              -0.20     4400.00
04147               0.20     4200.00
04148               0.20     4200.00
04149               0.40     4000.00
04150              -0.20     3800.00
04151              -0.20     3800.00
04152               0.20     3400.00
04153              -0.40     3600.00
04154              -0.40     3200.00
04155               0.60     3200.00
04156               0.20     2800.00
04157              -0.40     2800.00
04158              -0.20     2600.00
04159               0.20     2400.00
04160               0.20     2200.00
04161              -0.60     2200.00
04162              -0.20     2000.00
04163               0.20     1600.00
04164              -0.40     1600.00
04165              -0.60     1400.00
04166              -0.20     1400.00
04167               0.00     1000.00
04168              -0.60      800.00
04169              -0.20      600.00
04170               0.40      800.00
04171              -0.40      400.00
04172              -0.60        0.00
04173               0.20      200.00
04174              -0.20     -200.00
04175              -1.00     -200.00
04176               1.20     -400.00
04177               1.80     -600.00
04178              -2.00     -800.00
04179              -0.60    -1000.00
04180               1.00    -1200.00
04181              -1.00    -1200.00
04182              -0.40    -1400.00
04183              16.40    -1600.00
04184              20.00    -2000.00
04185             -25.00    -2000.00
04186             -22.40    -2200.00
04187               8.20    -2400.00
04188              25.00    -2200.00
04189              25.00    -2800.00
04190             -25.00    -2600.00
04191              15.40    -2600.00
04192              25.00    -3400.00
04193             -25.00    -3200.00
04194             -25.00    -3400.00
04195              25.00    -3600.00
04196             -25.00    -3400.00
04197             -25.00    -3800.00
04198              25.00    -4200.00
04199             -25.00    -4000.00
04200              16.60    -4400.00
04201             -25.00    -4400.00
04202              18.60    -4600.00
04203              25.00    -4800.00
04204             -25.00    -4800.00
04205              25.00    -5200.00
04206              25.00    -5200.00
04207             -25.00    -5600.00
04208              -9.80    -6000.00
04209              25.00    -5600.00
04210               8.20    -6000.00
04211             -25.00    -6000.00
04212              25.00    -6400.00
04213              25.00    -6400.00
04214             -25.00    -6400.00
04215              18.00    -6800.00
04216              12.20    -6800.00
04217             -13.40    -7000.00
04218             -11.40    -7200.00
04219              15.00    -7200.00
04220               2.40    -7400.00
04221             -20.40    -7600.00
04222              17.20    -8000.00
04223              -2.60    -7800.00
04224             -11.80    -8000.00
04225               4.60    -8200.00
04226               3.40    -8400.00
04227              -5.40    -8400.00
04228              -2.20    -8400.00
04229               4.20    -8800.00
04230              -2.00    -8800.00
04231              -4.40    -9000.00
04232              -1.00    -9200.00
04233               4.60    -9200.00
04234              -7.60    -9200.00
04235               0.40    -9200.00
04236               4.60    -9600.00
04237              -5.80    -9600.00
04238              -3.00    -9800.00
04239               2.60    -9800.00
04240               0.40   -10000.00
04241              -7.60   -10000.00
04242               1.80   -10400.00
04243               2.80   -10200.00
04244              -6.20   -10400.00
04245              -1.80   -10400.00
04246               3.40   -10600.00
04247              -4.60   -10800.00
04248              -3.60   -10800.00
04249               2.40   -10800.00
04250              -1.20   -10800.00
04251              -3.80   -11200.00
04252              -1.20   -11000.00
04253               1.80   -11200.00
04254              -4.20   -11200.00
04255              -2.60   -11400.00
04256               0.60   -11400.00
04257              -2.00   -11600.00
04258              -2.20   -11600.00
04259              -1.20   -12000.00
04260              -1.00   -12000.00
04261              -2.20   -12000.00
04262              -1.80   -12000.00
04263              -0.40   -12000.00
04264              -2.20   -12000.00
04265              -2.00   -12200.00
04266              -0.60   -12200.00
04267              -1.20   -12200.00
04268              -2.00   -12200.00
04269              -2.00   -12400.00
04270              -1.00   -12400.00
04271              -1.20   -12400.00
04272              -1.80   -12400.00
04273              -1.20   -12600.00
04274              -1.40   -12600.00
04275              -1.20   -12600.00
04276              -1.80   -12800.00
04277              -2.00   -12600.00
04278              -1.20   -12800.00
04279              -1.80   -12800.00
04280              -1.60   -12800.00
04281              -1.20   -12800.00
04282              -1.20   -12800.00
04283              -1.80   -12800.00
04284              -1.40   -13000.00
04285              -1.40   -13000.00
04286              -1.60   -13000.00
04287              -2.60   -12800.00
04288              -2.20   -13000.00
04289              -0.40   -13000.00
04290              -1.20   -13000.00
04291              -2.60   -13000.00
04292              -0.80   -13000.00
04293              -0.20   -12800.00
04294              -2.00   -13000.00
04295              -1.80   -13000.00
04296              -2.00   -13000.00
04297              -1.60   -13000.00
04298              -2.80   -13000.00
04299              -1.40   -13000.00
04300              -1.00   -13000.00
04301              -2.20   -13000.00
04302              -0.60   -12800.00
04303              -0.20   -12800.00
04304              -2.00   -12800.00
04305              -2.20   -12800.00
04306              -1.60   -13000.00
04307              -2.60   -12800.00
04308              -2.40   -12800.00
04309              -1.20   -12800.00
04310              -1.20   -12800.00
04311              -1.00   -12600.00
04312              -0.60   -12600.00
04313              -1.00   -12800.00
04314              -2.20   -12400.00
04315              -2.20   -12400.00
04316              -2.00   -12400.00
04317              -2.80   -12400.00
04318              -2.00   -12400.00
04319              -1.40   -12200.00
04320              -0.60   -12200.00
04321              -0.60   -12200.00
04322              -0.80   -12200.00
04323              -2.00   -12000.00
04324              -2.20   -12000.00
04325              -2.20   -11800.00
04326              -2.00   -11800.00
04327              -1.40   -11800.00
04328              -1.20   -11600.00
04329              -1.80   -11600.00
04330              -0.40   -11400.00
04331              -1.20   -11400.00
04332              -2.20   -11400.00
04333              -1.60   -11000.00
04334              -1.00   -11000.00
04335              -1.80   -11000.00
04336              -1.40   -10800.00
04337              -1.00   -10800.00
04338              -1.80   -10800.00
04339              -1.80   -10800.00
04340              -1.00   -10600.00
04341              -1.40   -10400.00
04342              -1.40   -10400.00
04343              -0.80   -10200.00
04344              -1.20   -10200.00
04345              -1.80   -10000.00
04346              -1.60   -10000.00
04347              -1.20    -9800.00
04348              -1.40    -9800.00
04349              -1.40    -9600.00
04350              -0.60    -9600.00
04351              -0.60    -9200.00
04352              -1.40    -9200.00
04353              -1.20    -9200.00
04354              -1.00    -9000.00
04355              -1.80    -9000.00
04356              -1.20    -8800.00
04357              -1.00    -8800.00
04358              -0.40    -8400.00
04359              -1.00    -8400.00
04360              -0.80    -8200.00
04361              -0.60    -8200.00
04362              -1.20    -8000.00
04363              -1.40    -8000.00
04364              -1.20    -8000.00
04365              -0.60    -7600.00
04366              -1.80    -7400.00
04367              -0.60    -7400.00
04368              -0.20    -7200.00
04369              -1.20    -7200.00
04370              -1.20    -6800.00
04371              -0.60    -6800.00
04372              -0.80    -6600.00
04373              -1.20    -6600.00
04374              -1.20    -6400.00
04375              -1.00    -6200.00
04376              -1.00    -6200.00
04377              -1.40    -6000.00
04378              -0.60    -5800.00
04379              -1.00    -5600.00
04380              -1.40    -5200.00
04381              -0.60    -5200.00
04382              -0.60    -5200.00
04383              -1.20    -5000.00
04384              -1.20    -4600.00
04385              -0.40    -4800.00
04386              -1.40    -4400.00
04387              -0.80    -4200.00
04388              -0.60    -4200.00
04389              -1.00    -4200.00
04390              -1.00    -4000.00
04391              -0.60    -3800.00
04392              -1.00    -3600.00
04393              -1.00    -3400.00
04394              -0.60    -3200.00
04395              -0.60    -3200.00
04396              -1.00    -3000.00
04397              -0.80    -2800.00
04398              -0.40    -2600.00
04399              -0.40    -2400.00
04400              -0.60    -2200.00
04401              -0.60    -2000.00
04402              -0.20    -1800.00
04403              -0.40    -1800.00
04404              -0.60    -1600.00
04405              -0.40    -1400.00
04406              -0.40    -1200.00
04407              -0.80    -1000.00
04408               0.20    -1000.00
04409               0.20     -800.00
04410              -0.60     -400.00
04411              -0.60     -400.00
04412               0.20     -200.00
04413              -0.20     -200.00
04414              -0.40        0.00
04415               0.40      400.00
04416               1.40      400.00
04417               1.00      600.00
04418              -1.00      800.00
04419               0.20      800.00
04420               1.20     1000.00
04421               0.20     1200.00
04422               0.40     1400.00
04423               5.80     1600.00
04424              20.60     2000.00
04425              -8.60     2000.00
04426             -25.00     2200.00
04427               1.20     2200.00
04428               5.80     2400.00
04429              16.20     2600.00
04430              25.00     2800.00
04431             -25.00     3000.00
04432              25.00     3200.00
04433              25.00     3200.00
04434             -25.00     3400.00
04435               0.20     3600.00
04436              25.00     3600.00
04437             -25.00     3800.00
04438               0.60     4000.00
04439              25.00     4000.00
04440             -15.40     4200.00
04441               5.20     4600.00
04442             -13.80     4400.00
04443              16.20     4800.00
04444               6.80     5200.00
04445             -25.00     5200.00
04446              24.40     5200.00
04447              22.00     5600.00
04448             -25.00     5600.00
04449              -9.20     5600.00
04450              25.00     6000.00
04451              -7.60     6200.00
04452             -25.00     6200.00
04453              25.00     6400.00
04454               8.40     6600.00
04455             -24.40     6800.00
04456              10.60     6800.00
04457              13.20     7000.00
04458             -17.80     7200.00
04459              -1.40     7200.00
04460              18.80     7600.00
04461              -9.80     7600.00
04462              -7.00     7600.00
04463              14.60     8000.00
04464              -2.20     8000.00
04465              -7.60     8400.00
04466               5.60     8400.00
04467               3.20     8400.00
04468              -2.60     8600.00
04469               0.60     8600.00
04470               2.20     8800.00
04471               0.60     8800.00
04472              -2.00     9200.00
04473               1.40     9200.00
04474               2.80     9400.00
04475              -1.80     9400.00
04476               0.80     9400.00
04477               4.20     9600.00
04478              -0.60     9600.00
04479              -2.20     9800.00
04480               4.40    10000.00
04481               1.40    10200.00
04482              -3.20    10200.00
04483               3.00    10200.00
04484               3.00    10400.00
04485              -2.20    10400.00
04486               0.20    10400.00
04487               3.60    10600.00
04488              -0.40    10800.00
04489              -0.40    10800.00
04490               3.40    11000.00
04491               0.60    11200.00
04492              -1.20    11200.00
04493               2.20    11200.00
04494               2.40    11200.00
04495              -1.00    11600.00
04496               0.40    11600.00
04497               2.80    11600.00
04498               1.00    11800.00
04499               0.20    11800.00
04500               1.80    11800.00
04501               1.20    11800.00
04502               0.20    12000.00
04503               1.20    12000.00
04504               1.40    12000.00
04505               0.00    12000.00
04506               1.00    12400.00
04507               1.80    12400.00
04508               0.60    12400.00
04509               0.40    12400.00
04510               1.00    12400.00
04511               1.20    12600.00
04512               1.00    12600.00
04513               0.80    12600.00
04514               1.00    12600.00
04515               1.20    12600.00
04516               1.00    12800.00
04517               0.40    12600.00
04518               0.40    12800.00
04519               1.20    12800.00
04520               1.00    12800.00
04521               1.20    12600.00
04522               1.20    12800.00
04523               0.40    12800.00
04524               1.00    12800.00
04525               1.20    13000.00
04526               1.00    12800.00
04527               0.40    12800.00
04528               1.00    13000.00
04529               1.00    12800.00
04530               1.40    12800.00
04531               1.00    13200.00
04532               0.40    12800.00
04533               1.40    13000.00
04534               1.80    13000.00
04535               0.60    13000.00
04536               1.00    13000.00
04537               1.20    13000.00
04538               1.00    13000.00
04539               1.20    13000.00
04540               0.80    12800.00
04541               1.00    12800.00
04542               1.20    12800.00
04543               1.20    12800.00
04544               1.60    12800.00
04545               1.20    12800.00
04546               0.60    12800.00
04547               0.80    12600.00
04548               1.80    12800.00
04549               0.80    12600.00
04550               0.60    12600.00
04551               1.80    12600.00
04552               1.00    12600.00
04553               0.60    12600.00
04554               1.20    12400.00
04555               1.20    12400.00
04556               0.40    12400.00
04557               1.40    12400.00
04558               1.40    12200.00
04559               0.40    12400.00
04560               1.00    12200.00
04561               1.20    12000.00
04562               1.00    12200.00
04563               1.00    12000.00
04564               0.60    11800.00
04565               0.60    11800.00
04566               1.20    11800.00
04567               0.80    11800.00
04568               1.00    11600.00
04569               1.00    11600.00
04570               0.60    11600.00
04571               0.80    11600.00
04572               1.20    11200.00
04573               0.40    11200.00
04574               0.60    11200.00
04575               1.20    11000.00
04576               0.80    10800.00
04577               0.20    10800.00
04578               1.00    10800.00
04579               0.60    10800.00
04580               0.40    10800.00
04581               1.00    10200.00
04582               1.00    10400.00
04583               0.00    10200.00
04584               1.20    10200.00
04585               1.00    10000.00
04586               0.20     9800.00
04587               0.60    10000.00
04588               1.00     9600.00
04589               0.40     9600.00
04590               0.40     9400.00
04591               1.00     9400.00
04592               0.60     9200.00
04593               0.20     9200.00
04594               1.00     9200.00
04595               1.00     9000.00
04596              -0.40     8800.00
04597               1.00     8800.00
04598               0.60     8600.00
04599               0.40     8400.00
04600               1.00     8400.00
04601              -0.40     8200.00
04602               0.40     8200.00
04603               0.40     7800.00
04604               0.40     7800.00
04605               1.80     7800.00
04606              -0.20     7600.00
04607              -0.40     7400.00
04608               2.00     7200.00
04609               0.40     7000.00
04610              -1.20     7000.00
04611               1.40     6800.00
04612               1.20     6800.00
04613              -0.60     6400.00
04614               0.60     6400.00
04615               1.00     6200.00
04616              -0.40     6200.00
04617               0.60     6000.00
04618               1.00     5800.00
04619               0.20     5600.00
04620              -0.40     5600.00
04621               1.00     5400.00
04622               0.20     5200.00
04623              -0.40     4800.00
04624               0.60     4800.00
04625               0.40     4600.00
04626              -1.00     4400.00
04627               1.00     4400.00
04628               0.40     4200.00
04629              -0.60     4000.00
04630               0.20     3800.00
04631               0.40     3600.00
04632               0.20     3600.00
04633              -0.60     3400.00
04634               0.00     3200.00
04635               0.00     3000.00
04636              -0.20     2800.00
04637              -0.20     2600.00
04638              -0.60     2600.00
04639               0.00     2400.00
04640               0.20     2400.00
04641              -1.00     2000.00
04642              -0.20     2000.00
04643               0.20     1800.00
04644              -0.80     1600.00
04645              -0.20     1400.00
04646               0.00     1200.00
04647              -0.40     1000.00
04648              -0.60      800.00
04649               0.20      600.00
04650               0.20      600.00
04651              -1.00      400.00
04652              -0.40      200.00
04653              -0.20        0.00
04654              -0.60        0.00
04655              -0.40     -200.00
04656               1.20     -400.00
04657               0.60     -600.00
04658              -2.00     -800.00
04659              -0.60    -1000.00
04660               1.00    -1000.00
04661              -1.00    -1200.00
04662               1.00    -1400.00
04663              24.20    -1600.00
04664               6.00    -2000.00
04665             -25.00    -2000.00
04666             -10.20    -2400.00
04667               5.20    -2200.00
04668              25.00    -2400.00
04669              23.00    -2800.00
04670             -25.00    -2600.00
04671              25.00    -2800.00
04672              25.00    -3400.00
04673             -25.00    -3200.00
04674              -3.80    -3400.00
04675              25.00    -3600.00
04676             -25.00    -3600.00
04677              14.00    -4000.00
04678              25.00    -4000.00
04679             -25.00    -4000.00
04680              16.40    -4600.00
04681             -25.00    -4400.00
04682              25.00    -4800.00
04683              21.00    -4800.00
04684             -25.00    -5000.00
04685              25.00    -5200.00
04686              22.00    -5200.00
04687             -25.00    -5600.00
04688               2.00    -5600.00
04689              25.00    -5800.00
04690              -8.60    -6000.00
04691             -25.00    -6000.00
04692              25.00    -6400.00
04693               2.80    -6400.00
04694             -25.00    -6600.00
04695              25.00    -6800.00
04696               2.60    -6800.00
04697             -13.60    -7200.00
04698              -7.80    -7200.00
04699              18.80    -7400.00
04700              -7.40    -7400.00
04701             -14.00    -7600.00
04702              19.40    -7800.00
04703              -9.60    -8000.00
04704              -8.40    -8000.00
04705               5.60    -8200.00
04706               1.40    -8400.00
04707              -6.60    -8400.00
04708               0.20    -8600.00
04709               3.00    -8800.00
04710              -2.80    -8800.00
04711              -5.20    -9000.00
04712               0.80    -9000.00
04713               2.20    -9200.00
04714              -8.60    -9200.00
04715               3.40    -9400.00
04716               2.60    -9600.00
04717              -6.00    -9800.00
04718              -2.60    -9600.00
04719               2.80    -9800.00
04720              -2.00   -10000.00
04721              -7.00   -10000.00
04722               4.00   -10200.00
04723               0.60   -10200.00
04724              -6.20   -10400.00
04725               0.40   -10400.00
04726               2.20   -10800.00
04727              -5.80   -10600.00
04728              -2.00   -10800.00
04729               2.20   -10800.00
04730              -2.20   -10800.00
04731              -3.80   -11200.00
04732               0.20   -11000.00
04733               1.00   -11400.00
04734              -4.60   -11200.00
04735              -1.40   -11400.00
04736               1.00   -11400.00
04737              -1.60   -11400.00
04738              -1.80   -11600.00
04739              -1.20   -11600.00
04740              -0.60   -11800.00
04741              -2.60   -12000.00
04742              -1.40   -12000.00
04743               0.20   -12000.00
04744              -2.20   -12200.00
04745              -2.00   -12200.00
04746              -0.40   -12200.00
04747              -1.40   -12400.00
04748              -2.20   -12200.00
04749              -1.40   -12400.00
04750              -0.80   -12400.00
04751              -1.20   -12400.00
04752              -1.40   -12600.00
04753              -1.40   -12800.00
04754              -1.40   -12600.00
04755              -0.60   -12800.00
04756              -2.00   -12800.00
04757              -2.00   -12800.00
04758              -0.60   -12800.00
04759              -1.40   -12800.00
04760              -1.40   -12800.00
04761              -1.40   -12800.00
04762              -1.80   -12800.00
04763              -2.00   -13000.00
04764              -1.40   -13000.00
04765              -1.20   -13000.00
04766              -1.80   -12800.00
04767              -2.00   -13000.00
04768              -1.20   -13000.00
04769              -1.20   -13200.00
04770              -1.80   -13000.00
04771              -2.20   -13000.00
04772              -1.60   -13000.00
04773              -1.20   -13000.00
04774              -2.20   -13200.00
04775              -1.40   -13000.00
04776              -1.80   -13000.00
04777              -2.20   -13000.00
04778              -0.80   -13000.00
04779              -1.80   -13200.00
04780              -2.20   -13000.00
04781              -1.00   -13000.00
04782              -1.20   -13000.00
04783              -1.80   -13000.00
04784              -2.20   -12800.00
04785              -1.20   -12800.00
04786              -1.40   -12800.00
04787              -2.00   -12800.00
04788              -1.20   -12800.00
04789              -1.40   -12800.00
04790              -2.20   -12800.00
04791              -1.60   -12800.00
04792              -0.60   -12800.00
04793              -2.00   -12400.00
04794              -2.20   -12400.00
04795              -0.20   -12400.00
04796              -1.00   -12400.00
04797              -3.60   -12200.00
04798              -1.20   -12200.00
04799              -0.20   -12200.00
04800              -2.20   -12400.00
04801              -2.20   -12000.00
04802              -0.20   -12000.00
04803              -0.20   -12000.00
04804              -2.20   -12000.00
04805              -1.80   -12000.00
04806              -0.20   -11800.00
04807              -2.20   -11600.00
04808              -2.60   -11600.00
04809              -0.60   -11600.00
04810              -0.40   -11400.00
04811              -1.80   -11400.00
04812              -1.20   -11400.00
04813              -0.60   -11000.00
04814              -1.80   -11200.00
04815              -2.00   -11000.00
04816              -1.20   -10800.00
04817              -1.20   -10800.00
04818              -0.60   -10800.00
04819              -1.00   -10600.00
04820              -1.40   -10600.00
04821              -1.80   -10400.00
04822              -2.00   -10400.00
04823              -1.40   -10400.00
04824              -1.00   -10000.00
04825              -1.00   -10000.00
04826              -1.20   -10000.00
04827              -1.20    -9800.00
04828              -1.00    -9800.00
04829              -1.40    -9600.00
04830              -2.20    -9600.00
04831              -1.00    -9400.00
04832              -0.60    -9200.00
04833              -1.80    -9200.00
04834              -1.20    -9000.00
04835              -1.20    -9000.00
04836              -1.20    -8600.00
04837              -1.00    -8600.00
04838              -1.00    -8400.00
04839              -1.60    -8400.00
04840              -1.40    -8200.00
04841              -1.40    -8200.00
04842              -1.20    -8000.00
04843              -1.00    -8000.00
04844              -0.60    -8000.00
04845              -1.40    -7600.00
04846              -1.20    -7400.00
04847              -0.60    -7400.00
04848              -1.40    -7200.00
04849              -2.00    -7000.00
04850              -0.60    -7000.00
04851              -0.60    -6800.00
04852              -1.40    -6600.00
04853              -1.20    -6600.00
04854              -0.60    -6400.00
04855              -1.40    -6000.00
04856              -1.40    -6000.00
04857              -0.60    -5800.00
04858              -1.00    -5800.00
04859              -1.20    -5600.00
04860              -0.40    -5200.00
04861              -0.60    -5400.00
04862              -1.20    -5000.00
04863              -1.20    -5000.00
04864              -0.40    -4600.00
04865              -1.00    -4600.00
04866              -0.80    -4400.00
04867              -0.40    -4200.00
04868              -1.20    -4200.00
04869              -0.40    -4000.00
04870              -0.60    -4000.00
04871              -1.20    -3600.00
04872              -0.60    -3400.00
04873              -0.60    -3400.00
04874              -0.80    -3400.00
04875              -0.20    -3000.00
04876               0.20    -2800.00
04877              -1.20    -2600.00
04878              -1.00    -2600.00
04879               0.20    -2400.00
04880              -0.60    -2200.00
04881              -1.00    -2000.00
04882               0.20    -1800.00
04883               0.20    -1600.00
04884              -0.60    -1600.00
04885              -0.60    -1200.00
04886              -0.40    -1200.00
04887              -0.60    -1200.00
04888              -0.40     -800.00
04889              -0.20     -600.00
04890              -0.40     -400.00
04891              -0.40     -400.00
04892               0.20     -200.00
04893              -0.20        0.00
04894              -0.40        0.00
04895               0.40      200.00
04896               1.80      400.00
04897               0.00      600.00
04898              -1.20      800.00
04899               0.60      800.00
04900               1.00     1200.00
04901              -0.60     1400.00
04902               0.60     1400.00
04903               9.00     1800.00
04904              19.80     2000.00
04905             -20.00     2000.00
04906             -25.00     2200.00
04907               7.40     2000.00
04908               1.20     2400.00
04909              25.00     2800.00
04910               6.20     2800.00
04911             -25.00     3000.00
04912              25.00     3200.00
04913              25.00     3200.00
04914             -25.00     3600.00
04915              25.00     3600.00
04916              25.00     3600.00
04917             -25.00     3800.00
04918              19.80     4200.00
04919              14.40     4000.00
04920             -11.80     4600.00
04921               3.00     4600.00
04922             -11.20     4600.00
04923              22.20     4800.00
04924              -7.60     5200.00
04925             -25.00     5200.00
04926              25.00     5400.00
04927               9.00     5600.00
04928             -25.00     5600.00
04929               3.80     5800.00
04930              25.00     6000.00
04931             -20.40     6200.00
04932             -18.20     6400.00
04933              25.00     6400.00
04934              -3.80     6600.00
04935             -19.60     6800.00
04936              17.20     7000.00
04937               6.20     7000.00
04938             -18.80     7200.00
04939               6.80     7400.00
04940              15.20     7600.00
04941             -13.80     7800.00
04942              -0.20     7800.00
04943              13.00     7800.00
04944              -6.00     8200.00
04945              -4.60     8200.00
04946               6.60     8400.00
04947               1.40     8600.00
04948              -2.20     8600.00
04949               2.00     8800.00
04950               1.80     8800.00
04951               0.60     8800.00
04952              -1.20     9200.00
04953               2.20     9200.00
04954               2.20     9200.00
04955              -2.20     9400.00
04956               2.00     9600.00
04957               3.40     9600.00
04958              -2.00     9800.00
04959              -1.00    10000.00
04960               4.40    10000.00
04961              -0.60    10000.00
04962              -2.20    10200.00
04963               4.40    10400.00
04964               1.20    10400.00
04965              -2.60    10400.00
04966               2.00    10600.00
04967               2.20    10800.00
04968              -1.20    10800.00
04969               1.20    11000.00
04970               2.80    11000.00
04971               0.20    11200.00
04972              -0.60    11200.00
04973               2.20    11200.00
04974               1.40    11400.00
04975              -0.60    11400.00
04976               0.60    11600.00
04977               2.00    11600.00
04978               1.00    11600.00
04979               0.20    11800.00
04980               1.20    11800.00
04981               1.00    12000.00
04982               0.60    12000.00
04983               1.20    12000.00
04984               1.00    12000.00
04985               1.00    12200.00
04986               1.00    12200.00
04987               1.40    12400.00
04988               1.00    12400.00
04989               0.20    12400.00
04990               1.80    12400.00
04991               1.80    12600.00
04992               0.60    12400.00
04993               0.20    12600.00
04994               1.20    12600.00
04995               1.00    12600.00
04996               1.20    12600.00
04997               2.00    12800.00
04998               0.20    12800.00
04999               1.20    12800.00
05000               1.80    12600.00
