Unit:(mV)
                     CH1         CH2
Frequency              ? 208.241 kHz
00001              -5.80    -4400.00
00002              -6.60    -4400.00
00003              -6.00    -4400.00
00004              -5.80    -4400.00
00005              -6.00    -4200.00
00006              -5.40    -4400.00
00007              -5.40    -4400.00
00008              -5.40    -4200.00
00009              -5.00    -4200.00
00010              -5.40    -4200.00
00011              -5.60    -4400.00
00012              -5.00    -4200.00
00013              -4.60    -4200.00
00014              -5.20    -4200.00
00015              -5.00    -4000.00
00016              -4.60    -4200.00
00017              -4.60    -4000.00
00018              -4.60    -4000.00
00019              -4.60    -4000.00
00020              -4.60    -3800.00
00021              -4.40    -4000.00
00022              -4.20    -3800.00
00023              -4.40    -3600.00
00024              -4.20    -3600.00
00025              -4.20    -3600.00
00026              -3.80    -3600.00
00027              -4.20    -3600.00
00028              -4.40    -3600.00
00029              -3.80    -3600.00
00030              -3.80    -3400.00
00031              -4.20    -3400.00
00032              -3.40    -3400.00
00033              -3.80    -3400.00
00034              -3.80    -3400.00
00035              -3.20    -3200.00
00036              -3.40    -3200.00
00037              -3.60    -3200.00
00038              -3.40    -3000.00
00039              -3.40    -3000.00
00040              -3.20    -3200.00
00041              -3.40    -2800.00
00042              -3.60    -2800.00
00043              -2.20    -2800.00
00044              -3.00    -2800.00
00045              -3.60    -2800.00
00046              -2.20    -2600.00
00047              -2.20    -2600.00
00048              -3.80    -2400.00
00049              -3.00    -2400.00
00050              -2.00    -2400.00
00051              -2.80    -2400.00
00052              -3.40    -2400.00
00053              -2.00    -2200.00
00054              -1.40    -2200.00
00055              -3.00    -2200.00
00056              -2.80    -2000.00
00057              -1.40    -2000.00
00058              -1.40    -2000.00
00059              -2.20    -1800.00
00060              -2.20    -1800.00
00061              -1.00    -1800.00
00062              -2.00    -1800.00
00063              -2.40    -1600.00
00064              -1.80    -1600.00
00065              -0.60    -1600.00
00066              -2.00    -1600.00
00067              -3.00    -1400.00
00068              -0.20    -1600.00
00069              -1.20    -1200.00
00070              -2.80    -1200.00
00071              -0.60    -1200.00
00072              -0.40    -1000.00
00073              -2.20    -1000.00
00074              -1.60    -1000.00
00075               0.00     -800.00
00076              -0.60     -800.00
00077              -1.00     -600.00
00078              -1.00     -800.00
00079              -0.40     -600.00
00080              -1.00     -400.00
00081              -1.20     -400.00
00082              -0.20     -400.00
00083              -0.60     -400.00
00084              -1.00     -400.00
00085              -0.40     -200.00
00086              -0.60     -200.00
00087              -0.20     -200.00
00088               0.40     -200.00
00089              -1.20        0.00
00090               0.20        0.00
00091               1.40        0.00
00092              -1.20        0.00
00093              -0.20      200.00
00094               1.40      400.00
00095              -0.80      400.00
00096              -1.20      400.00
00097               3.00      400.00
00098               7.20      600.00
00099               7.00      600.00
00100             -25.00      600.00
00101             -20.60      600.00
00102              25.00      800.00
00103              22.60      800.00
00104             -25.00     1000.00
00105             -15.00     1200.00
00106              25.00     1000.00
00107               3.00     1200.00
00108             -25.00     1000.00
00109              25.00     1400.00
00110              25.00     1200.00
00111             -25.00     1400.00
00112             -25.00     1400.00
00113              25.00     1400.00
00114              23.60     1800.00
00115             -25.00     1600.00
00116              25.00     1800.00
00117              25.00     1800.00
00118             -25.00     2000.00
00119             -25.00     2000.00
00120              25.00     1800.00
00121              -4.40     2000.00
00122             -25.00     2200.00
00123              25.00     2000.00
00124              25.00     2000.00
00125             -25.00     2400.00
00126             -19.20     2400.00
00127              25.00     2200.00
00128              -3.40     2600.00
00129             -25.00     2400.00
00130              25.00     2400.00
00131              25.00     2600.00
00132             -25.00     2800.00
00133             -11.00     2800.00
00134              25.00     2800.00
00135             -14.00     2800.00
00136             -25.00     2800.00
00137              25.00     2800.00
00138              25.00     3000.00
00139             -25.00     3000.00
00140              15.60     3200.00
00141              25.00     3200.00
00142             -25.00     3200.00
00143             -14.00     3200.00
00144              25.00     3200.00
00145              -0.60     3400.00
00146             -25.00     3200.00
00147              22.00     3400.00
00148              21.00     3600.00
00149             -22.20     3600.00
00150               3.00     3600.00
00151              25.00     3600.00
00152              -7.20     3600.00
00153             -11.00     3600.00
00154              21.80     3800.00
00155               8.40     3600.00
00156             -15.60     3800.00
00157              11.40     3800.00
00158              18.40     3800.00
00159             -10.20     4000.00
00160              -0.60     3800.00
00161              18.80     4000.00
00162               1.00     4000.00
00163              -6.60     4000.00
00164              13.60     4200.00
00165              10.00     4200.00
00166              -6.80     4000.00
00167               7.20     4400.00
00168              14.40     4400.00
00169              -2.20     4400.00
00170               0.20     4400.00
00171              14.60     4200.00
00172               5.80     4400.00
00173              -3.00     4400.00
00174               9.40     4400.00
00175              10.80     4400.00
00176              -0.60     4400.00
00177               4.20     4400.00
00178              12.00     4600.00
00179               4.20     4600.00
00180               1.20     4400.00
00181              10.60     4600.00
00182               8.80     4800.00
00183               0.60     4800.00
00184               7.40     4800.00
00185              11.40     4800.00
00186               4.20     4800.00
00187               3.80     4800.00
00188              10.60     4800.00
00189               7.80     4800.00
00190               3.40     5000.00
00191               8.20     4800.00
00192               9.80     4800.00
00193               4.60     4800.00
00194               6.60     4800.00
00195              10.60     5000.00
00196               7.40     4800.00
00197               5.20     4800.00
00198               9.40     5200.00
00199               9.60     4800.00
00200               6.00     5000.00
00201               7.60     5000.00
00202              10.20     5000.00
00203               7.60     5000.00
00204               6.80     4800.00
00205               9.00     5000.00
00206               9.00     4800.00
00207               7.00     5200.00
00208               8.80     5000.00
00209               9.80     4800.00
00210               7.40     5000.00
00211               8.00     4800.00
00212               9.60     5200.00
00213               8.60     4800.00
00214               7.60     4800.00
00215               8.40     4800.00
00216               9.40     5000.00
00217               7.60     5000.00
00218               7.80     4800.00
00219               8.20     5000.00
00220               7.80     4800.00
00221               7.60     4800.00
00222               8.40     5000.00
00223               7.60     4800.00
00224               6.80     4800.00
00225               7.60     4800.00
00226               7.40     4800.00
00227               6.20     4800.00
00228               7.00     4600.00
00229               7.00     4600.00
00230               6.80     4800.00
00231               6.60     4600.00
00232               6.40     4600.00
00233               6.80     4800.00
00234               6.00     4600.00
00235               5.80     4600.00
00236               7.40     4800.00
00237               5.20     4400.00
00238               5.80     4600.00
00239               6.20     4400.00
00240               5.80     4400.00
00241               5.20     4600.00
00242               5.20     4400.00
00243               6.20     4400.00
00244               5.00     4400.00
00245               5.20     4400.00
00246               6.00     4400.00
00247               4.60     4400.00
00248               5.00     4200.00
00249               5.20     4400.00
00250               4.60     4200.00
00251               5.00     4200.00
00252               4.20     4400.00
00253               4.60     4200.00
00254               5.40     4200.00
00255               4.20     4000.00
00256               3.60     4000.00
00257               4.60     4000.00
00258               4.40     4000.00
00259               3.40     4000.00
00260               4.40     3800.00
00261               4.20     3800.00
00262               3.20     3800.00
00263               4.20     3800.00
00264               4.20     3800.00
00265               3.00     3600.00
00266               4.00     3600.00
00267               4.00     3600.00
00268               3.00     3600.00
00269               3.20     3600.00
00270               3.60     3600.00
00271               2.80     3600.00
00272               3.00     3200.00
00273               3.60     3200.00
00274               2.80     3200.00
00275               2.80     3200.00
00276               3.60     3000.00
00277               3.00     3200.00
00278               2.00     3200.00
00279               3.00     3000.00
00280               3.20     3000.00
00281               2.20     2800.00
00282               2.40     3000.00
00283               3.00     2800.00
00284               2.00     2800.00
00285               1.80     2800.00
00286               2.60     2600.00
00287               2.20     2400.00
00288               1.40     2400.00
00289               2.60     2400.00
00290               2.40     2600.00
00291               1.20     2200.00
00292               2.00     2400.00
00293               2.20     2200.00
00294               1.20     2200.00
00295               1.20     2000.00
00296               2.40     2000.00
00297               1.00     2000.00
00298               1.00     1800.00
00299               1.60     1800.00
00300               1.80     2000.00
00301               0.40     1800.00
00302               1.00     1800.00
00303               1.80     1600.00
00304               1.20     1800.00
00305               0.80     1400.00
00306               0.40     1400.00
00307               1.40     1400.00
00308               0.60     1400.00
00309               0.60     1400.00
00310               0.80     1200.00
00311               0.80     1200.00
00312               0.40     1000.00
00313               1.00     1000.00
00314               0.60      800.00
00315               0.20      800.00
00316               0.40      800.00
00317               0.60      800.00
00318               0.40      600.00
00319               0.20      600.00
00320               0.40      600.00
00321               0.20      400.00
00322              -0.20      400.00
00323               0.20      400.00
00324               0.40      400.00
00325              -0.20      400.00
00326              -0.60      400.00
00327               0.20      200.00
00328               0.40        0.00
00329              -0.60      200.00
00330              -0.40        0.00
00331               0.60     -200.00
00332              -0.40     -200.00
00333              -0.60     -200.00
00334              -0.20     -200.00
00335              -0.60     -400.00
00336              -0.60     -400.00
00337               2.60     -400.00
00338              14.80     -400.00
00339              -8.40     -800.00
00340             -25.00     -600.00
00341              25.00     -800.00
00342              25.00     -800.00
00343             -25.00    -1200.00
00344             -25.00     -800.00
00345              25.00    -1000.00
00346              25.00    -1200.00
00347             -25.00    -1200.00
00348             -25.00    -1200.00
00349              25.00    -1200.00
00350               4.60    -1600.00
00351             -25.00    -1200.00
00352              25.00    -1600.00
00353              25.00    -1800.00
00354             -25.00    -1600.00
00355             -25.00    -1800.00
00356              25.00    -1800.00
00357               9.00    -2000.00
00358             -25.00    -1800.00
00359              25.00    -2000.00
00360              25.00    -2200.00
00361             -25.00    -1800.00
00362             -25.00    -2200.00
00363              25.00    -2400.00
00364             -17.80    -2200.00
00365             -25.00    -2400.00
00366              25.00    -2400.00
00367              25.00    -2400.00
00368             -25.00    -2400.00
00369             -25.00    -2400.00
00370              25.00    -2600.00
00371               3.60    -2600.00
00372             -25.00    -2800.00
00373              25.00    -2600.00
00374              25.00    -2600.00
00375             -25.00    -2800.00
00376             -17.40    -2800.00
00377              25.00    -3000.00
00378             -25.00    -2800.00
00379             -25.00    -3200.00
00380              25.00    -3200.00
00381               2.00    -3000.00
00382             -25.00    -3200.00
00383              19.80    -3400.00
00384              19.40    -3200.00
00385             -25.00    -3200.00
00386              -7.60    -3400.00
00387              18.80    -3400.00
00388              -7.60    -3400.00
00389             -23.40    -3600.00
00390               8.40    -3400.00
00391               9.00    -3600.00
00392             -24.60    -3600.00
00393              -3.40    -3600.00
00394              14.60    -3800.00
00395             -17.40    -4000.00
00396             -13.20    -4000.00
00397              13.00    -4000.00
00398              -6.80    -4000.00
00399             -18.60    -4000.00
00400               5.00    -4000.00
00401               2.00    -4000.00
00402             -17.20    -4000.00
00403              -3.80    -4200.00
00404               5.20    -4200.00
00405             -11.80    -4200.00
00406             -11.60    -4200.00
00407               5.00    -4400.00
00408              -5.40    -4200.00
00409             -15.40    -4400.00
00410               0.20    -4200.00
00411              -0.20    -4400.00
00412             -13.40    -4400.00
00413              -7.00    -4400.00
00414               1.40    -4400.00
00415              -8.60    -4400.00
00416             -11.00    -4400.00
00417              -0.60    -4400.00
00418              -6.20    -4600.00
00419             -12.40    -4600.00
00420              -2.60    -4600.00
00421              -3.60    -4800.00
00422             -13.40    -4600.00
00423              -6.80    -4600.00
00424              -0.60    -4800.00
00425             -10.00    -4600.00
00426             -12.00    -4800.00
00427              -2.80    -4600.00
00428              -5.80    -4800.00
00429             -12.40    -4800.00
00430              -6.80    -4800.00
00431              -3.80    -4800.00
00432             -10.00    -5000.00
00433             -10.80    -4800.00
00434              -4.60    -4600.00
00435              -6.80    -4800.00
00436             -11.80    -5000.00
00437              -7.60    -5000.00
00438              -5.80    -5000.00
00439             -10.20    -5000.00
00440             -10.00    -5000.00
00441              -7.00    -5000.00
00442              -8.00    -5000.00
00443              -9.80    -5000.00
00444              -8.20    -5000.00
00445              -8.20    -5000.00
00446              -9.80    -5000.00
00447              -9.20    -5000.00
00448              -7.80    -5000.00
00449              -9.20    -5000.00
00450              -9.00    -4800.00
00451              -8.60    -5200.00
00452              -9.20    -5000.00
00453              -9.00    -5000.00
00454              -8.60    -5000.00
00455              -9.20    -5000.00
00456              -9.40    -5000.00
00457              -8.20    -5000.00
00458              -7.80    -5000.00
00459              -9.20    -4600.00
00460              -8.80    -5000.00
00461              -7.20    -4800.00
00462              -8.40    -4600.00
00463              -9.20    -4800.00
00464              -7.40    -4800.00
00465              -6.80    -5000.00
00466              -9.00    -4600.00
00467              -8.00    -4800.00
00468              -6.40    -4800.00
00469              -7.60    -4600.00
00470              -7.60    -4600.00
00471              -6.20    -4600.00
00472              -7.80    -4600.00
00473              -7.00    -4800.00
00474              -6.00    -4600.00
00475              -7.00    -4800.00
00476              -6.80    -4600.00
00477              -6.20    -4400.00
00478              -6.20    -4600.00
00479              -6.20    -4400.00
00480              -6.80    -4400.00
00481              -5.80    -4600.00
00482              -5.80    -4400.00
00483              -6.60    -4400.00
00484              -6.00    -4400.00
00485              -5.60    -4400.00
00486              -6.60    -4400.00
00487              -6.00    -4400.00
00488              -5.00    -4400.00
00489              -5.00    -4200.00
00490              -5.80    -4400.00
00491              -5.80    -4200.00
00492              -4.40    -4200.00
00493              -5.20    -4200.00
00494              -6.00    -4200.00
00495              -5.20    -4000.00
00496              -4.40    -4000.00
00497              -5.00    -4000.00
00498              -5.00    -4000.00
00499              -5.20    -4000.00
00500              -4.80    -4000.00
00501              -3.00    -3800.00
00502              -5.00    -3800.00
00503              -6.20    -3800.00
00504              -2.80    -3600.00
00505              -2.80    -3800.00
00506              -6.20    -3600.00
00507              -5.00    -3600.00
00508              -2.00    -3600.00
00509              -3.60    -3600.00
00510              -6.00    -3600.00
00511              -4.00    -3400.00
00512              -2.20    -3200.00
00513              -3.80    -3400.00
00514              -4.40    -3200.00
00515              -3.20    -3200.00
00516              -2.80    -3200.00
00517              -3.00    -3200.00
00518              -3.60    -3200.00
00519              -3.60    -3200.00
00520              -2.80    -3000.00
00521              -2.80    -2800.00
00522              -3.00    -2800.00
00523              -3.40    -2800.00
00524              -2.80    -2800.00
00525              -2.20    -2800.00
00526              -3.00    -2600.00
00527              -3.00    -2600.00
00528              -2.20    -2400.00
00529              -2.40    -2400.00
00530              -3.00    -2400.00
00531              -2.20    -2400.00
00532              -2.20    -2400.00
00533              -2.80    -2400.00
00534              -2.00    -2200.00
00535              -2.00    -2200.00
00536              -2.20    -2000.00
00537              -2.00    -2000.00
00538              -1.80    -2000.00
00539              -1.80    -2000.00
00540              -2.20    -1800.00
00541              -2.00    -1600.00
00542              -1.20    -1800.00
00543              -1.40    -1800.00
00544              -2.20    -1600.00
00545              -1.40    -1600.00
00546              -1.20    -1600.00
00547              -2.00    -1600.00
00548              -1.60    -1200.00
00549              -1.00    -1200.00
00550              -1.40    -1000.00
00551              -2.00    -1200.00
00552              -1.00    -1200.00
00553              -1.00    -1000.00
00554              -1.80    -1000.00
00555              -1.20     -800.00
00556              -0.40     -800.00
00557              -1.20     -800.00
00558              -1.40     -800.00
00559              -0.60     -600.00
00560              -1.20     -600.00
00561              -1.20     -600.00
00562              -0.20     -400.00
00563              -0.60     -400.00
00564              -1.20     -200.00
00565              -0.60     -200.00
00566              -0.60     -200.00
00567              -0.60        0.00
00568              -0.40     -200.00
00569              -0.40        0.00
00570              -0.20        0.00
00571               0.20      200.00
00572               0.20      200.00
00573               0.20      400.00
00574              -0.60      200.00
00575              -0.20      400.00
00576               0.40      400.00
00577               0.60      600.00
00578               5.00      600.00
00579              12.40      600.00
00580             -18.60      800.00
00581             -25.00      800.00
00582              25.00      800.00
00583              25.00      800.00
00584             -25.00      800.00
00585             -25.00     1000.00
00586              25.00     1200.00
00587              25.00     1400.00
00588             -25.00     1000.00
00589               5.40     1400.00
00590              25.00     1200.00
00591             -25.00     1400.00
00592             -25.00     1400.00
00593              25.00     1800.00
00594              25.00     1400.00
00595             -25.00     1800.00
00596               8.40     1800.00
00597              25.00     1800.00
00598             -25.00     2000.00
00599             -25.00     2000.00
00600              25.00     2000.00
00601              25.00     2000.00
00602             -25.00     2200.00
00603              22.20     2200.00
00604              25.00     2000.00
00605             -25.00     2400.00
00606             -25.00     2400.00
00607              25.00     2200.00
00608              25.00     2600.00
00609             -25.00     2400.00
00610              12.60     2600.00
00611              25.00     2400.00
00612             -25.00     2800.00
00613             -25.00     2800.00
00614              25.00     2600.00
00615              13.40     3000.00
00616             -25.00     2800.00
00617              25.00     2800.00
00618              25.00     3000.00
00619             -25.00     3000.00
00620              -6.00     3000.00
00621              25.00     3000.00
00622             -15.00     3200.00
00623             -25.00     3200.00
00624              25.00     3200.00
00625              14.80     3200.00
00626             -25.00     3400.00
00627              10.60     3400.00
00628              25.00     3400.00
00629             -15.80     3600.00
00630              -8.20     3600.00
00631              25.00     3600.00
00632               2.80     3600.00
00633             -17.00     3600.00
00634              16.20     3600.00
00635              16.40     3800.00
00636             -15.00     3800.00
00637               3.60     4000.00
00638              21.40     4000.00
00639              -4.60     4000.00
00640              -6.60     4000.00
00641              17.00     4000.00
00642               7.40     4200.00
00643              -8.40     4200.00
00644               8.60     4000.00
00645              14.40     4400.00
00646              -3.60     4200.00
00647               1.00     4400.00
00648              14.80     4400.00
00649               3.80     4400.00
00650              -3.60     4400.00
00651              11.40     4400.00
00652              10.80     4400.00
00653              -2.80     4600.00
00654               5.20     4400.00
00655              13.00     4400.00
00656               2.40     4400.00
00657               1.20     4800.00
00658              11.20     4400.00
00659               7.60     4600.00
00660               0.40     4600.00
00661               8.40     4600.00
00662              11.00     4800.00
00663               2.00     4800.00
00664               4.60     4800.00
00665              11.80     4800.00
00666               6.60     4600.00
00667               2.40     4800.00
00668               9.20     4800.00
00669               9.80     4800.00
00670               3.60     4800.00
00671               6.60     4800.00
00672              10.20     4800.00
00673               6.00     4800.00
00674               5.20     4800.00
00675              10.00     4800.00
00676               8.60     4800.00
00677               5.20     4800.00
00678               8.20     4800.00
00679              10.00     4800.00
00680               6.20     5200.00
00681               6.80     4800.00
00682               9.80     4800.00
00683               8.20     5000.00
00684               6.80     4800.00
00685               8.40     5200.00
00686               8.60     5000.00
00687               7.40     5000.00
00688               8.20     4800.00
00689               9.00     4800.00
00690               8.40     4800.00
00691               7.20     5200.00
00692               9.00     5000.00
00693               9.40     5000.00
00694               6.40     5000.00
00695               8.60     4800.00
00696               9.40     4800.00
00697               6.20     5000.00
00698               8.60     5000.00
00699               9.20     4800.00
00700               6.80     4800.00
00701               7.40     4800.00
00702               8.20     4800.00
00703               8.40     4800.00
00704               6.20     4800.00
00705               7.40     4800.00
00706               8.40     5000.00
00707               6.60     4800.00
00708               6.80     4800.00
00709               7.60     4800.00
00710               6.80     4800.00
00711               6.40     4800.00
00712               7.40     4800.00
00713               6.80     4800.00
00714               5.40     4600.00
00715               6.20     4600.00
00716               7.00     4800.00
00717               5.60     4600.00
00718               5.80     4600.00
00719               6.80     4600.00
00720               5.80     4600.00
00721               5.20     4400.00
00722               6.00     4600.00
00723               5.80     4400.00
00724               5.20     4400.00
00725               5.80     4400.00
00726               5.80     4400.00
00727               5.00     4400.00
00728               5.00     4400.00
00729               5.20     4200.00
00730               4.60     4400.00
00731               4.40     4200.00
00732               5.00     4400.00
00733               5.00     4000.00
00734               4.60     4000.00
00735               4.60     4000.00
00736               4.40     4000.00
00737               4.20     3800.00
00738               4.20     4000.00
00739               4.20     3800.00
00740               4.20     3800.00
00741               3.60     3800.00
00742               4.40     3600.00
00743               3.80     3800.00
00744               3.60     3600.00
00745               3.60     3600.00
00746               3.80     3600.00
00747               3.40     3600.00
00748               3.60     3600.00
00749               3.60     3600.00
00750               3.00     3600.00
00751               3.00     3400.00
00752               3.40     3400.00
00753               3.00     3200.00
00754               2.60     3400.00
00755               3.00     3200.00
00756               3.00     3000.00
00757               2.80     3200.00
00758               2.60     3200.00
00759               2.60     3000.00
00760               2.60     3000.00
00761               2.00     3000.00
00762               2.80     2800.00
00763               2.20     2800.00
00764               2.00     2800.00
00765               2.00     2800.00
00766               2.20     2800.00
00767               2.00     2400.00
00768               1.80     2600.00
00769               2.00     2400.00
00770               2.20     2400.00
00771               2.00     2400.00
00772               1.80     2400.00
00773               2.20     2200.00
00774               1.80     2200.00
00775               1.20     2200.00
00776               1.80     2000.00
00777               1.00     2000.00
00778               1.00     2000.00
00779               1.80     1800.00
00780               0.60     1800.00
00781               1.00     1800.00
00782               1.80     1600.00
00783               2.00     1800.00
00784               2.20     1600.00
00785               1.80     1800.00
00786               1.40     1600.00
00787               1.20     1400.00
00788               0.20     1400.00
00789              -0.80     1200.00
00790              -0.60     1200.00
00791              -0.40     1400.00
00792               1.20     1000.00
00793               2.00      800.00
00794               3.00     1000.00
00795               2.60      800.00
00796               0.60      800.00
00797              -1.00      800.00
00798              -2.00      400.00
00799              -1.80      600.00
00800              -0.60      600.00
00801               1.00      600.00
00802               2.20      400.00
00803               3.00      400.00
00804               1.80      400.00
00805              -1.00      400.00
00806              -1.40        0.00
00807              -2.80        0.00
00808              -2.20        0.00
00809               0.20        0.00
00810               1.00        0.00
00811               1.80        0.00
00812               2.80     -200.00
00813              -0.20     -200.00
00814              -1.60     -400.00
00815              -2.60     -600.00
00816              -3.00     -400.00
00817               0.40     -400.00
00818              13.20     -600.00
00819               3.40     -800.00
00820             -25.00     -600.00
00821              21.00     -800.00
00822              25.00     -800.00
00823             -18.00    -1000.00
00824             -25.00     -800.00
00825              25.00    -1000.00
00826              25.00    -1000.00
00827             -25.00    -1200.00
00828             -25.00    -1000.00
00829              25.00    -1200.00
00830              25.00    -1600.00
00831             -25.00    -1200.00
00832              13.20    -1400.00
00833              25.00    -1600.00
00834             -25.00    -1800.00
00835             -25.00    -1600.00
00836              25.00    -1800.00
00837              25.00    -2000.00
00838             -25.00    -1600.00
00839              25.00    -2000.00
00840              25.00    -2200.00
00841             -25.00    -1800.00
00842             -25.00    -2200.00
00843              25.00    -2200.00
00844              23.40    -2400.00
00845             -25.00    -2400.00
00846              18.20    -2400.00
00847              25.00    -2400.00
00848             -25.00    -2400.00
00849             -25.00    -2400.00
00850              25.00    -2600.00
00851              25.00    -2400.00
00852             -25.00    -2800.00
00853               0.20    -2600.00
00854              25.00    -2800.00
00855             -25.00    -2600.00
00856             -25.00    -2800.00
00857              25.00    -3200.00
00858              -1.20    -2800.00
00859             -25.00    -3200.00
00860              25.00    -3200.00
00861              24.60    -3200.00
00862             -25.00    -3200.00
00863               4.60    -3400.00
00864              25.00    -3400.00
00865             -24.00    -3200.00
00866             -17.80    -3400.00
00867              17.40    -3600.00
00868               1.20    -3400.00
00869             -25.00    -3600.00
00870               0.60    -3400.00
00871              14.00    -3600.00
00872             -19.60    -3600.00
00873             -11.80    -3800.00
00874              16.40    -3800.00
00875              -9.20    -3800.00
00876             -20.20    -4000.00
00877              10.00    -4000.00
00878               0.20    -4000.00
00879             -21.20    -4000.00
00880               0.20    -4000.00
00881               6.20    -4000.00
00882             -14.60    -4000.00
00883              -9.20    -4000.00
00884               6.60    -4200.00
00885              -7.60    -4200.00
00886             -15.80    -4200.00
00887               2.60    -4200.00
00888              -0.60    -4200.00
00889             -16.20    -4400.00
00890              -4.40    -4400.00
00891               3.40    -4400.00
00892             -10.40    -4400.00
00893             -12.20    -4400.00
00894               0.60    -4400.00
00895              -4.40    -4400.00
00896             -14.20    -4600.00
00897              -4.00    -4600.00
00898              -0.60    -4600.00
00899             -11.60    -4600.00
00900              -8.60    -4800.00
00901              -0.60    -4800.00
00902              -7.80    -4600.00
00903             -12.60    -4600.00
00904              -3.60    -4600.00
00905              -3.80    -4800.00
00906             -11.80    -4800.00
00907              -7.80    -4800.00
00908              -2.60    -4600.00
00909              -8.40    -4800.00
00910             -11.40    -4800.00
00911              -5.20    -4600.00
00912              -5.40    -4800.00
00913             -11.40    -4800.00
00914              -8.20    -5000.00
00915              -4.60    -5000.00
00916              -9.40    -5000.00
00917              -9.80    -4600.00
00918              -6.00    -5000.00
00919              -7.60    -5000.00
00920             -10.60    -5000.00
00921              -8.20    -5000.00
00922              -7.00    -5000.00
00923              -9.40    -5000.00
00924              -9.20    -5000.00
00925              -7.60    -5000.00
00926              -8.60    -5200.00
00927              -9.40    -5000.00
00928              -8.60    -4600.00
00929              -8.20    -4800.00
00930              -9.20    -5000.00
00931              -9.20    -4800.00
00932              -8.20    -5000.00
00933              -8.80    -5000.00
00934              -9.20    -5000.00
00935              -8.80    -5000.00
00936              -8.20    -5000.00
00937              -8.40    -5000.00
00938              -9.20    -5000.00
00939              -8.80    -5000.00
00940              -8.40    -5000.00
00941              -8.20    -4600.00
00942              -8.40    -4800.00
00943              -8.20    -5000.00
00944              -8.40    -4800.00
00945              -7.80    -4800.00
00946              -8.00    -4800.00
00947              -7.60    -5000.00
00948              -7.80    -4600.00
00949              -7.60    -5000.00
00950              -7.40    -4600.00
00951              -7.40    -4800.00
00952              -7.60    -4800.00
00953              -6.80    -4800.00
00954              -7.00    -4600.00
00955              -7.40    -4800.00
00956              -6.80    -4600.00
00957              -6.80    -4600.00
00958              -6.80    -4600.00
00959              -6.40    -4600.00
00960              -6.60    -4400.00
00961              -6.00    -4400.00
00962              -6.20    -4400.00
00963              -6.20    -4400.00
00964              -6.00    -4400.00
00965              -6.00    -4400.00
00966              -6.60    -4400.00
00967              -5.80    -4200.00
00968              -5.20    -4400.00
00969              -5.60    -4400.00
00970              -5.20    -4200.00
00971              -5.20    -4200.00
00972              -5.40    -4400.00
00973              -5.40    -4200.00
00974              -5.00    -4200.00
00975              -5.20    -4000.00
00976              -5.20    -4200.00
00977              -4.60    -4200.00
00978              -4.40    -4000.00
00979              -4.60    -4000.00
00980              -5.00    -4000.00
00981              -4.40    -3800.00
00982              -4.40    -4000.00
00983              -4.40    -3800.00
00984              -4.00    -3800.00
00985              -4.20    -3800.00
00986              -4.20    -3600.00
00987              -3.40    -3600.00
00988              -4.20    -3600.00
00989              -4.40    -3600.00
00990              -3.60    -3400.00
00991              -3.60    -3600.00
00992              -3.80    -3400.00
00993              -3.60    -3400.00
00994              -3.60    -3400.00
00995              -3.40    -3200.00
00996              -2.80    -3200.00
00997              -3.00    -3200.00
00998              -3.20    -3200.00
00999              -2.80    -3200.00
01000              -3.00    -3200.00
01001              -3.40    -2800.00
01002              -2.80    -2800.00
01003              -2.80    -2800.00
01004              -3.40    -2800.00
01005              -2.20    -2600.00
01006              -2.80    -2800.00
01007              -3.00    -2600.00
01008              -2.60    -2600.00
01009              -2.60    -2600.00
01010              -2.80    -2400.00
01011              -2.20    -2400.00
01012              -2.20    -2400.00
01013              -2.80    -2200.00
01014              -2.20    -2200.00
01015              -2.20    -2400.00
01016              -2.60    -2200.00
01017              -2.20    -2200.00
01018              -2.00    -2000.00
01019              -2.20    -2200.00
01020              -2.00    -1800.00
01021              -1.80    -1800.00
01022              -2.20    -1800.00
01023              -2.00    -1800.00
01024              -1.40    -1600.00
01025              -2.00    -1600.00
01026              -2.20    -1600.00
01027              -1.20    -1400.00
01028              -2.00    -1400.00
01029              -1.80    -1400.00
01030              -1.20    -1200.00
01031              -1.40    -1200.00
01032              -1.80    -1000.00
01033              -0.60    -1000.00
01034              -1.20    -1000.00
01035              -1.80    -1000.00
01036              -0.60     -800.00
01037              -0.20     -800.00
01038              -1.40     -800.00
01039              -1.00     -800.00
01040              -0.60     -800.00
01041              -1.40     -400.00
01042              -0.60     -400.00
01043              -0.40     -400.00
01044              -0.80     -400.00
01045              -0.60     -400.00
01046              -0.20     -200.00
01047              -0.60     -200.00
01048              -0.20        0.00
01049               0.00        0.00
01050              -0.40        0.00
01051               0.20        0.00
01052               1.00        0.00
01053               0.40        0.00
01054              -1.00      400.00
01055              -0.60      400.00
01056               1.00      400.00
01057               1.20      600.00
01058               3.00      600.00
01059              13.20      800.00
01060              -9.20      600.00
01061             -25.00      600.00
01062              25.00      800.00
01063              25.00     1000.00
01064             -25.00     1000.00
01065             -25.00      800.00
01066              25.00     1200.00
01067              25.00     1200.00
01068             -25.00     1200.00
01069             -25.00     1200.00
01070              25.00     1400.00
01071              17.00     1400.00
01072             -25.00     1200.00
01073              25.00     1800.00
01074              25.00     1400.00
01075             -25.00     1800.00
01076             -25.00     1800.00
01077              25.00     1800.00
01078              -2.80     2000.00
01079             -25.00     2000.00
01080              25.00     2000.00
01081              25.00     2000.00
01082             -25.00     2000.00
01083             -15.40     2200.00
01084              25.00     2000.00
01085             -15.80     2400.00
01086             -25.00     2200.00
01087              25.00     2400.00
01088              25.00     2400.00
01089             -25.00     2400.00
01090             -13.00     2600.00
01091              25.00     2400.00
01092             -10.80     2800.00
01093             -25.00     2600.00
01094              25.00     2600.00
01095              25.00     2800.00
01096             -25.00     2800.00
01097               6.80     3000.00
01098              25.00     2800.00
01099             -25.00     3000.00
01100             -25.00     3000.00
01101              25.00     3000.00
01102               5.40     3200.00
01103             -25.00     3200.00
01104              24.80     3200.00
01105              25.00     3200.00
01106             -25.00     3400.00
01107              -1.80     3400.00
01108              25.00     3600.00
01109              -6.40     3600.00
01110             -16.20     3600.00
01111              21.80     3600.00
01112              13.60     3600.00
01113             -19.40     3600.00
01114               7.40     3600.00
01115              24.40     3800.00
01116             -11.60     3800.00
01117              -5.00     3800.00
01118              23.60     3800.00
01119               2.00     4000.00
01120             -10.60     4000.00
01121              13.00     4000.00
01122              14.00     4000.00
01123              -8.80     4200.00
01124               4.20     4000.00
01125              17.00     4000.00
01126              -1.40     4200.00
01127              -2.00     4400.00
01128              13.00     4400.00
01129               8.40     4200.00
01130              -3.40     4400.00
01131               6.80     4400.00
01132              13.00     4400.00
01133              -1.20     4600.00
01134               3.40     4400.00
01135              11.60     4600.00
01136               4.20     4400.00
01137               1.60     4400.00
01138               9.20     4600.00
01139               7.00     4400.00
01140               2.20     4600.00
01141               7.20     4800.00
01142               8.80     4600.00
01143               4.40     4800.00
01144               5.00     4600.00
01145               8.80     4800.00
01146               7.40     4800.00
01147               3.40     4600.00
01148               6.80     4800.00
01149              10.00     4800.00
01150               5.40     4800.00
01151               4.60     4800.00
01152               9.00     4800.00
01153               8.20     4800.00
01154               4.60     4800.00
01155               8.20     4800.00
01156              10.00     4800.00
01157               5.40     5000.00
01158               7.00     4800.00
01159              10.00     4800.00
01160               6.60     5200.00
01161               6.40     5000.00
01162               9.80     4800.00
01163               8.20     4800.00
01164               6.40     4800.00
01165               8.40     5000.00
01166               8.60     5000.00
01167               7.60     5000.00
01168               8.60     5000.00
01169               9.00     5000.00
01170               8.40     5200.00
01171               7.60     5000.00
01172               7.80     5000.00
01173               9.00     5200.00
01174               8.40     5000.00
01175               8.40     4800.00
01176               8.20     5000.00
01177               8.60     4800.00
01178               8.60     4800.00
01179               6.80     5000.00
01180               7.80     5000.00
01181               8.60     4800.00
01182               7.60     4800.00
01183               7.60     4800.00
01184               8.20     4800.00
01185               7.40     4800.00
01186               6.60     4800.00
01187               8.00     4800.00
01188               7.60     4800.00
01189               5.80     4800.00
01190               7.00     4800.00
01191               8.00     4800.00
01192               6.20     4800.00
01193               5.80     4800.00
01194               7.00     4600.00
01195               6.60     4600.00
01196               6.00     4600.00
01197               6.20     4800.00
01198               6.40     4600.00
01199               5.80     4600.00
01200               5.80     4600.00
01201               5.80     4600.00
01202               5.20     4400.00
01203               5.40     4600.00
01204               5.80     4400.00
01205               5.20     4400.00
01206               5.20     4400.00
01207               5.40     4400.00
01208               5.20     4400.00
01209               4.60     4400.00
01210               4.60     4400.00
01211               5.00     4000.00
01212               4.20     4200.00
01213               4.60     4000.00
01214               5.20     4000.00
01215               3.40     4000.00
01216               4.20     4000.00
01217               5.20     4000.00
01218               3.40     4000.00
01219               3.80     4000.00
01220               5.20     3800.00
01221               3.00     4000.00
01222               3.40     3800.00
01223               4.60     3800.00
01224               3.60     3800.00
01225               2.60     3600.00
01226               4.20     3600.00
01227               3.80     3600.00
01228               3.00     3600.00
01229               3.60     3600.00
01230               3.40     3600.00
01231               2.80     3600.00
01232               3.40     3600.00
01233               3.40     3200.00
01234               2.80     3200.00
01235               3.00     3200.00
01236               3.00     3200.00
01237               2.60     3200.00
01238               2.60     3200.00
01239               3.00     3200.00
01240               2.60     3000.00
01241               2.60     3000.00
01242               2.60     3000.00
01243               2.60     2800.00
01244               2.00     2800.00
01245               2.40     2800.00
01246               2.60     2800.00
01247               2.00     2800.00
01248               2.00     2400.00
01249               2.20     2400.00
01250               2.60     2400.00
01251               2.20     2400.00
01252               1.00     2200.00
01253               1.40     2200.00
01254               3.00     2200.00
01255               1.80     2200.00
01256               1.40     2200.00
01257               2.00     2000.00
01258               1.00     1800.00
01259               1.20     1800.00
01260               1.80     1800.00
01261               1.20     1800.00
01262               1.40     1800.00
01263               2.00     1800.00
01264               1.00     1600.00
01265               0.80     1600.00
01266               1.20     1400.00
01267               0.40     1400.00
01268               0.20     1400.00
01269               2.20     1200.00
01270               1.40     1200.00
01271              -1.60     1200.00
01272               0.40     1200.00
01273               1.80     1200.00
01274              -0.40      800.00
01275               0.20      800.00
01276               2.00      800.00
01277               0.20      800.00
01278              -0.60      600.00
01279               0.80      800.00
01280               0.20      400.00
01281              -0.60      400.00
01282               0.40      400.00
01283               0.40      400.00
01284              -0.20      400.00
01285              -0.40      200.00
01286              -0.20        0.00
01287              -0.60        0.00
01288              -0.20      200.00
01289               0.20        0.00
01290              -0.40        0.00
01291              -0.20     -200.00
01292               0.20     -200.00
01293              -0.20     -200.00
01294              -0.60     -400.00
01295              -0.80     -400.00
01296              -0.60     -400.00
01297               0.40     -400.00
01298               9.40     -400.00
01299               8.60     -800.00
01300             -25.00     -800.00
01301              -6.60     -600.00
01302              25.00     -800.00
01303               6.80    -1000.00
01304             -25.00     -800.00
01305              16.40    -1000.00
01306              25.00    -1000.00
01307             -25.00    -1400.00
01308             -25.00    -1000.00
01309              25.00    -1000.00
01310              25.00    -1600.00
01311             -25.00    -1200.00
01312             -25.00    -1200.00
01313              25.00    -1600.00
01314               3.40    -1800.00
01315             -25.00    -1600.00
01316              25.00    -1800.00
01317              25.00    -2000.00
01318             -25.00    -1600.00
01319             -25.00    -1800.00
01320              25.00    -2000.00
01321             -22.00    -2000.00
01322             -25.00    -2000.00
01323              25.00    -2000.00
01324              25.00    -2200.00
01325             -25.00    -2000.00
01326             -14.00    -2400.00
01327              25.00    -2400.00
01328             -14.20    -2400.00
01329             -25.00    -2800.00
01330              25.00    -2600.00
01331              25.00    -2600.00
01332             -25.00    -2800.00
01333             -25.00    -2800.00
01334              25.00    -2800.00
01335             -13.40    -2800.00
01336             -25.00    -3000.00
01337              25.00    -2800.00
01338              25.00    -2800.00
01339             -25.00    -3200.00
01340              15.40    -3200.00
01341              25.00    -3200.00
01342             -25.00    -3200.00
01343             -12.60    -3400.00
01344              25.00    -3400.00
01345             -14.20    -3400.00
01346             -25.00    -3400.00
01347              13.80    -3600.00
01348               8.20    -3400.00
01349             -23.80    -3600.00
01350              -6.20    -3600.00
01351              15.80    -3600.00
01352             -12.40    -3600.00
01353             -19.60    -3600.00
01354              13.80    -3800.00
01355              -1.20    -3800.00
01356             -23.60    -3800.00
01357               6.00    -3800.00
01358               6.20    -4000.00
01359             -19.80    -4000.00
01360              -5.00    -4000.00
01361               7.80    -4000.00
01362             -10.80    -4000.00
01363             -13.40    -4000.00
01364               5.20    -4000.00
01365              -2.80    -4200.00
01366             -17.00    -4200.00
01367              -0.60    -4200.00
01368               3.00    -4400.00
01369             -14.20    -4200.00
01370              -8.40    -4200.00
01371               3.80    -4200.00
01372              -7.20    -4400.00
01373             -13.80    -4400.00
01374              -1.00    -4400.00
01375              -1.20    -4400.00
01376             -13.20    -4400.00
01377              -6.60    -4800.00
01378               0.20    -4600.00
01379              -9.40    -4600.00
01380             -10.80    -4600.00
01381              -1.40    -4400.00
01382              -5.00    -4600.00
01383             -12.60    -4800.00
01384              -5.20    -4600.00
01385              -2.20    -4600.00
01386             -10.40    -4800.00
01387             -10.00    -4600.00
01388              -2.80    -4800.00
01389              -6.40    -4600.00
01390             -11.60    -5000.00
01391              -6.00    -4800.00
01392              -4.60    -4600.00
01393             -10.20    -4800.00
01394              -9.40    -4800.00
01395              -5.00    -5000.00
01396              -8.20    -5000.00
01397             -10.60    -4800.00
01398              -6.80    -5000.00
01399              -6.60    -5000.00
01400             -10.20    -4800.00
01401              -8.60    -5000.00
01402              -7.00    -4800.00
01403              -8.60    -5000.00
01404              -9.40    -5000.00
01405              -8.20    -5000.00
01406              -8.40    -5000.00
01407              -9.40    -5000.00
01408              -8.60    -5000.00
01409              -8.40    -5000.00
01410              -9.20    -5000.00
01411              -9.20    -5000.00
01412              -8.40    -4800.00
01413              -9.00    -5000.00
01414              -9.80    -5000.00
01415              -9.20    -5000.00
01416              -8.40    -4800.00
01417              -9.20    -4800.00
01418              -8.80    -4800.00
01419              -8.60    -4600.00
01420              -8.60    -5000.00
01421              -8.40    -4800.00
01422              -8.40    -4800.00
01423              -8.20    -5000.00
01424              -8.40    -4800.00
01425              -7.80    -5000.00
01426              -8.20    -4600.00
01427              -8.40    -4800.00
01428              -7.00    -4600.00
01429              -8.00    -5000.00
01430              -7.60    -4600.00
01431              -6.80    -4800.00
01432              -7.60    -4600.00
01433              -7.00    -4800.00
01434              -6.20    -4600.00
01435              -7.40    -4600.00
01436              -6.80    -4600.00
01437              -6.60    -4600.00
01438              -6.80    -4600.00
01439              -6.20    -4600.00
01440              -6.20    -4600.00
01441              -6.60    -4400.00
01442              -5.80    -4400.00
01443              -6.20    -4400.00
01444              -6.20    -4400.00
01445              -5.40    -4400.00
01446              -6.00    -4400.00
01447              -6.00    -4400.00
01448              -5.40    -4400.00
01449              -5.20    -4400.00
01450              -5.80    -4200.00
01451              -5.40    -4400.00
01452              -5.00    -4200.00
01453              -5.20    -4200.00
01454              -5.20    -4200.00
01455              -5.00    -4000.00
01456              -4.60    -4200.00
01457              -5.20    -4200.00
01458              -5.00    -4000.00
01459              -4.40    -4000.00
01460              -5.00    -4200.00
01461              -5.00    -3800.00
01462              -4.20    -4000.00
01463              -4.40    -3800.00
01464              -4.80    -3600.00
01465              -4.40    -3600.00
01466              -3.80    -3600.00
01467              -4.40    -3800.00
01468              -3.80    -3400.00
01469              -4.20    -3600.00
01470              -4.40    -3600.00
01471              -3.80    -3400.00
01472              -4.20    -3400.00
01473              -3.80    -3400.00
01474              -3.80    -3400.00
01475              -3.80    -3200.00
01476              -3.60    -3200.00
01477              -3.40    -3400.00
01478              -3.60    -3200.00
01479              -3.80    -3000.00
01480              -3.00    -3000.00
01481              -3.40    -3000.00
01482              -3.20    -2800.00
01483              -3.40    -2800.00
01484              -3.00    -2800.00
01485              -2.80    -2800.00
01486              -2.80    -2800.00
01487              -3.00    -2800.00
01488              -2.80    -2600.00
01489              -2.60    -2600.00
01490              -2.60    -2600.00
01491              -2.20    -2400.00
01492              -2.40    -2400.00
01493              -2.60    -2400.00
01494              -2.20    -2200.00
01495              -2.20    -2200.00
01496              -2.20    -2000.00
01497              -2.60    -2000.00
01498              -2.20    -2000.00
01499              -1.80    -2000.00
01500              -2.00    -2000.00
01501              -2.00    -2000.00
01502              -1.40    -1800.00
01503              -1.60    -1600.00
01504              -1.80    -1600.00
01505              -1.80    -1600.00
01506              -1.40    -1600.00
01507              -1.80    -1600.00
01508              -1.40    -1600.00
01509              -1.20    -1200.00
01510              -1.40    -1200.00
01511              -1.40    -1200.00
01512              -0.80    -1000.00
01513              -1.20    -1200.00
01514              -1.20    -1000.00
01515              -1.00    -1000.00
01516              -1.20    -1000.00
01517              -0.80    -1000.00
01518              -1.00     -800.00
01519              -1.00     -800.00
01520              -0.60     -400.00
01521              -0.60     -600.00
01522              -0.60     -400.00
01523              -0.60     -400.00
01524              -0.60     -400.00
01525              -0.60     -200.00
01526              -0.60     -200.00
01527              -0.60     -200.00
01528              -0.20        0.00
01529               0.00     -200.00
01530              -0.60        0.00
01531              -0.40        0.00
01532               0.40      200.00
01533               0.20        0.00
01534              -0.20      400.00
01535              -0.20      400.00
01536               0.40      400.00
01537               0.20      400.00
01538               2.00      600.00
01539              11.60      800.00
01540              -0.80      600.00
01541             -25.00      600.00
01542               8.00      800.00
01543              25.00      800.00
01544              -4.60      800.00
01545             -25.00      800.00
01546              25.00     1200.00
01547              25.00     1200.00
01548             -25.00     1400.00
01549             -25.00     1000.00
01550              25.00     1400.00
01551              25.00     1400.00
01552             -25.00     1400.00
01553              11.40     1800.00
01554              25.00     1600.00
01555             -25.00     1800.00
01556             -25.00     1600.00
01557              25.00     1800.00
01558              25.00     1800.00
01559             -25.00     2000.00
01560              25.00     2000.00
01561              25.00     2000.00
01562             -25.00     2200.00
01563             -25.00     2200.00
01564              25.00     2000.00
01565              20.60     2400.00
01566             -25.00     2200.00
01567              25.00     2400.00
01568              25.00     2200.00
01569             -25.00     2600.00
01570             -25.00     2400.00
01571              25.00     2400.00
01572              16.60     3000.00
01573             -25.00     2800.00
01574              23.80     2800.00
01575              25.00     2800.00
01576             -25.00     2800.00
01577             -16.80     2800.00
01578              25.00     2800.00
01579              -8.60     3000.00
01580             -25.00     3000.00
01581              25.00     3200.00
01582              25.00     3200.00
01583             -25.00     3200.00
01584              10.60     3200.00
01585              25.00     3200.00
01586             -21.20     3400.00
01587             -13.00     3400.00
01588              25.00     3600.00
01589               4.20     3600.00
01590             -21.40     3600.00
01591              16.20     3600.00
01592              19.40     3600.00
01593             -16.20     3800.00
01594               0.60     3800.00
01595              23.40     3600.00
01596              -3.60     3800.00
01597             -10.20     3800.00
01598              18.80     4000.00
01599              10.00     3800.00
01600             -12.20     4000.00
01601               8.20     4000.00
01602              16.60     4000.00
01603              -5.40     4000.00
01604              -1.00     4000.00
01605              16.40     4000.00
01606               3.60     4400.00
01607              -5.40     4400.00
01608              11.40     4200.00
01609              11.00     4400.00
01610              -4.40     4400.00
01611               4.20     4400.00
01612              14.20     4400.00
01613               2.00     4400.00
01614              -1.00     4400.00
01615              11.00     4400.00
01616               8.60     4600.00
01617              -1.00     4600.00
01618               7.00     4600.00
01619              11.00     4600.00
01620               2.20     4600.00
01621               4.20     4600.00
01622              11.60     4600.00
01623               6.40     4600.00
01624               1.80     4800.00
01625               8.40     4800.00
01626               9.80     4600.00
01627               2.80     4800.00
01628               5.40     4800.00
01629              11.40     4800.00
01630               5.80     4800.00
01631               4.20     4800.00
01632              10.00     4800.00
01633               8.40     4800.00
01634               4.20     4800.00
01635               8.60     4800.00
01636              10.20     4800.00
01637               5.40     4800.00
01638               6.60     5200.00
01639              10.20     4800.00
01640               7.80     4800.00
01641               6.00     5000.00
01642               8.60     5000.00
01643               9.60     4800.00
01644               6.80     5000.00
01645               7.40     5000.00
01646               9.80     4800.00
01647               8.20     4800.00
01648               7.60     4800.00
01649               9.00     4800.00
01650               9.40     5200.00
01651               7.20     5000.00
01652               7.80     4800.00
01653               9.80     5000.00
01654               8.20     5200.00
01655               7.60     5000.00
01656               8.60     5000.00
01657               9.00     5200.00
01658               7.00     5000.00
01659               8.00     4800.00
01660               8.20     4800.00
01661               7.20     4800.00
01662               7.60     4800.00
01663               8.60     4800.00
01664               6.60     4600.00
01665               7.40     4800.00
01666               8.20     4800.00
01667               7.20     4800.00
01668               6.00     4600.00
01669               7.00     4800.00
01670               7.00     4800.00
01671               6.20     4800.00
01672               6.80     4600.00
01673               6.80     4800.00
01674               6.00     4800.00
01675               5.80     4600.00
01676               6.60     4800.00
01677               6.00     4400.00
01678               5.40     4400.00
01679               6.00     4600.00
01680               6.20     4400.00
01681               5.80     4600.00
01682               5.00     4400.00
01683               5.80     4400.00
01684               5.40     4400.00
01685               5.20     4400.00
01686               5.40     4400.00
01687               5.20     4400.00
01688               5.00     4400.00
01689               5.20     4400.00
01690               4.80     4400.00
01691               5.20     4200.00
01692               4.60     4200.00
01693               4.40     4200.00
01694               5.00     4200.00
01695               5.00     4000.00
01696               4.00     4000.00
01697               4.40     4000.00
01698               4.80     4000.00
01699               3.80     4000.00
01700               3.80     3800.00
01701               4.40     3800.00
01702               3.80     4000.00
01703               4.00     3800.00
01704               4.40     3800.00
01705               3.60     3600.00
01706               3.60     3600.00
01707               3.60     3600.00
01708               3.80     3600.00
01709               3.20     3600.00
01710               3.40     3600.00
01711               3.60     3400.00
01712               3.20     3400.00
01713               3.40     3200.00
01714               3.00     3200.00
01715               2.80     3200.00
01716               3.20     3200.00
01717               3.00     3200.00
01718               2.60     3200.00
01719               2.60     3000.00
01720               2.80     3000.00
01721               2.20     3000.00
01722               2.60     2800.00
01723               2.80     2800.00
01724               2.00     2800.00
01725               2.20     2800.00
01726               2.60     2400.00
01727               2.00     2600.00
01728               2.20     2400.00
01729               2.20     2400.00
01730               2.00     2400.00
01731               2.20     2400.00
01732               1.80     2200.00
01733               1.40     2200.00
01734               1.80     2200.00
01735               1.60     2200.00
01736               1.40     2200.00
01737               1.60     2000.00
01738               1.40     2000.00
01739               1.40     2000.00
01740               1.20     1800.00
01741               1.40     1800.00
01742               1.20     1800.00
01743               1.00     1800.00
01744               1.20     1800.00
01745               1.20     1600.00
01746               1.20     1600.00
01747               0.40     1400.00
01748               1.00     1400.00
01749               1.80     1200.00
01750               0.40     1200.00
01751               0.40     1200.00
01752               1.20     1200.00
01753               0.40     1200.00
01754               0.40     1000.00
01755               0.60      800.00
01756               0.40      800.00
01757               0.40      800.00
01758               0.20      800.00
01759               0.60      600.00
01760               0.20      600.00
01761               0.40      600.00
01762               0.60      400.00
01763              -0.20      400.00
01764               0.20      400.00
01765               0.20      400.00
01766              -0.40      400.00
01767              -0.60        0.00
01768               0.20      200.00
01769               0.40        0.00
01770              -0.40        0.00
01771              -0.20        0.00
01772               0.40     -200.00
01773               0.00     -200.00
01774              -0.60     -400.00
01775              -0.60     -400.00
01776              -0.40     -400.00
01777              -0.60     -400.00
01778               6.20     -400.00
01779              13.20     -600.00
01780             -25.00    -1000.00
01781             -25.00     -600.00
01782              25.00     -800.00
01783              25.00     -800.00
01784             -25.00    -1000.00
01785             -23.60     -800.00
01786              25.00    -1000.00
01787               6.60    -1400.00
01788             -25.00    -1200.00
01789              25.00    -1200.00
01790              25.00    -1200.00
01791             -25.00    -1600.00
01792             -25.00    -1200.00
01793              25.00    -1600.00
01794              25.00    -2000.00
01795             -25.00    -1600.00
01796              25.00    -1800.00
01797              25.00    -2000.00
01798             -25.00    -1800.00
01799             -25.00    -1800.00
01800              25.00    -2000.00
01801              25.00    -2000.00
01802             -25.00    -2000.00
01803              25.00    -2000.00
01804              25.00    -2400.00
01805             -25.00    -2000.00
01806             -25.00    -2400.00
01807              25.00    -2400.00
01808              15.00    -2400.00
01809             -25.00    -2600.00
01810               9.20    -2400.00
01811              25.00    -2800.00
01812             -25.00    -2600.00
01813             -25.00    -2800.00
01814              25.00    -2800.00
01815              18.60    -2800.00
01816             -25.00    -2800.00
01817              25.00    -2800.00
01818              25.00    -2800.00
01819             -25.00    -2800.00
01820              -9.80    -3200.00
01821              25.00    -3200.00
01822             -25.00    -3000.00
01823             -25.00    -3400.00
01824              25.00    -3200.00
01825              -0.60    -3200.00
01826             -25.00    -3400.00
01827               6.40    -3400.00
01828              14.00    -3600.00
01829             -18.40    -3600.00
01830             -14.00    -3600.00
01831              14.80    -3600.00
01832              -3.00    -3600.00
01833             -24.00    -3600.00
01834               8.40    -3800.00
01835               6.60    -3800.00
01836             -23.60    -3800.00
01837              -1.00    -4000.00
01838              10.60    -3800.00
01839             -16.00    -4000.00
01840             -10.80    -4000.00
01841               8.20    -4200.00
01842              -6.60    -4000.00
01843             -15.80    -4000.00
01844               2.20    -4200.00
01845               1.00    -4200.00
01846             -15.60    -4200.00
01847              -5.00    -4200.00
01848               4.20    -4200.00
01849             -10.80    -4400.00
01850             -11.80    -4400.00
01851               2.60    -4400.00
01852              -4.20    -4400.00
01853             -14.60    -4400.00
01854              -3.60    -4400.00
01855              -0.20    -4400.00
01856             -11.40    -4600.00
01857              -9.60    -4600.00
01858              -0.20    -4400.00
01859              -7.00    -4600.00
01860             -12.60    -4600.00
01861              -3.00    -4800.00
01862              -3.20    -4600.00
01863             -12.20    -4600.00
01864              -7.80    -4600.00
01865              -1.60    -4800.00
01866              -8.60    -4600.00
01867             -11.80    -4600.00
01868              -3.80    -4800.00
01869              -5.00    -4800.00
01870             -12.00    -4600.00
01871              -7.60    -4800.00
01872              -3.80    -4800.00
01873              -9.40    -5000.00
01874             -10.20    -4600.00
01875              -5.40    -5000.00
01876              -7.00    -4600.00
01877             -11.00    -5000.00
01878              -7.60    -4800.00
01879              -5.80    -5000.00
01880              -9.80    -5000.00
01881              -9.60    -5000.00
01882              -6.40    -4800.00
01883              -8.20    -5000.00
01884             -10.20    -5000.00
01885              -8.20    -4600.00
01886              -7.60    -5200.00
01887             -10.20    -5000.00
01888              -8.80    -5000.00
01889              -7.40    -5000.00
01890              -9.40    -5000.00
01891              -9.40    -5000.00
01892              -8.00    -5000.00
01893              -8.40    -4800.00
01894              -9.60    -4600.00
01895              -8.60    -5200.00
01896              -8.20    -5000.00
01897              -9.00    -5000.00
01898              -9.00    -4800.00
01899              -8.60    -4800.00
01900              -8.40    -5000.00
01901              -8.40    -5000.00
01902              -7.80    -5000.00
01903              -7.80    -4800.00
01904              -8.40    -4600.00
01905              -7.60    -5000.00
01906              -7.40    -5000.00
01907              -8.20    -4600.00
01908              -7.40    -4800.00
01909              -7.60    -4600.00
01910              -7.40    -4800.00
01911              -7.00    -4600.00
01912              -7.00    -4800.00
01913              -7.40    -4600.00
01914              -6.20    -4800.00
01915              -7.00    -4600.00
01916              -6.80    -4600.00
01917              -6.80    -4400.00
01918              -6.60    -4600.00
01919              -6.80    -4600.00
01920              -6.20    -4600.00
01921              -6.60    -4600.00
01922              -6.00    -4600.00
01923              -6.20    -4400.00
01924              -6.20    -4400.00
01925              -5.40    -4600.00
01926              -6.00    -4400.00
01927              -6.20    -4400.00
01928              -5.40    -4200.00
01929              -5.00    -4400.00
01930              -5.80    -4400.00
01931              -5.40    -4200.00
01932              -5.20    -4200.00
01933              -5.20    -4200.00
01934              -5.40    -4200.00
01935              -5.40    -4200.00
01936              -5.20    -4200.00
01937              -4.60    -4000.00
01938              -5.20    -4000.00
01939              -4.60    -4000.00
01940              -4.00    -4000.00
01941              -5.20    -3800.00
01942              -4.60    -4000.00
01943              -3.80    -3800.00
01944              -4.60    -3800.00
01945              -4.60    -3600.00
01946              -3.80    -3800.00
01947              -4.20    -3600.00
01948              -4.20    -3600.00
01949              -3.80    -3400.00
01950              -4.40    -3400.00
01951              -4.20    -3600.00
01952              -3.40    -3400.00
01953              -4.20    -3400.00
01954              -4.40    -3400.00
01955              -2.80    -3400.00
01956              -3.40    -3200.00
01957              -3.80    -3200.00
01958              -3.00    -3000.00
01959              -3.00    -3000.00
01960              -3.60    -3200.00
01961              -3.40    -3000.00
01962              -2.80    -2800.00
01963              -2.80    -2800.00
01964              -3.40    -2800.00
01965              -2.80    -2800.00
01966              -2.40    -2600.00
01967              -3.40    -2600.00
01968              -3.40    -2800.00
01969              -2.20    -2400.00
01970              -2.20    -2400.00
01971              -2.80    -2600.00
01972              -2.60    -2400.00
01973              -2.00    -2200.00
01974              -2.60    -2400.00
01975              -2.20    -2200.00
01976              -2.20    -2000.00
01977              -2.60    -2200.00
01978              -2.20    -2000.00
01979              -2.00    -2000.00
01980              -2.20    -2000.00
01981              -2.20    -1800.00
01982              -1.80    -1800.00
01983              -1.20    -1800.00
01984              -2.20    -1800.00
01985              -1.80    -1600.00
01986              -1.40    -1600.00
01987              -2.00    -1600.00
01988              -2.00    -1200.00
01989              -0.60    -1400.00
01990              -1.80    -1200.00
01991              -2.80    -1200.00
01992              -0.40    -1200.00
01993              -1.20    -1200.00
01994              -2.00    -1000.00
01995              -1.20     -800.00
01996              -1.00     -800.00
01997              -0.60     -800.00
01998              -2.00     -800.00
01999              -1.20     -800.00
02000               0.40     -800.00
02001              -2.20     -400.00
02002              -1.60     -400.00
02003               1.00     -400.00
02004              -1.00     -400.00
02005              -3.00     -400.00
02006               1.00     -200.00
02007               0.40     -200.00
02008              -2.60     -200.00
02009               0.40        0.00
02010               1.80        0.00
02011              -2.20        0.00
02012              -0.20      200.00
02013               2.00      400.00
02014              -1.00      200.00
02015              -1.20      400.00
02016               1.20      400.00
02017               0.40      400.00
02018               1.20      400.00
02019               9.20      600.00
02020               6.00      600.00
02021             -25.00      600.00
02022             -12.40      800.00
02023              25.00      800.00
02024              14.80      800.00
02025             -25.00      800.00
02026               4.20     1200.00
02027              25.00     1000.00
02028             -15.60     1400.00
02029             -25.00     1200.00
02030              25.00     1600.00
02031              25.00     1200.00
02032             -25.00     1800.00
02033             -25.00     1600.00
02034              25.00     1400.00
02035               3.00     1800.00
02036             -25.00     1400.00
02037              25.00     1800.00
02038              25.00     1600.00
02039             -25.00     2000.00
02040             -13.00     2000.00
02041              25.00     2000.00
02042             -24.40     2200.00
02043             -25.00     2200.00
02044              25.00     2200.00
02045              25.00     2200.00
02046             -25.00     2400.00
02047              -6.00     2400.00
02048              25.00     2200.00
02049             -16.20     2400.00
02050             -25.00     2400.00
02051              25.00     2400.00
02052              25.00     2800.00
02053             -25.00     2600.00
02054              -1.00     2800.00
02055              25.00     2800.00
02056             -25.00     2800.00
02057             -25.00     2800.00
02058              25.00     2800.00
02059              16.20     3200.00
02060             -25.00     3000.00
02061              24.00     3200.00
02062              25.00     3200.00
02063             -25.00     3200.00
02064              -6.60     3200.00
02065              25.00     3200.00
02066              -7.80     3400.00
02067             -23.60     3400.00
02068              25.00     3600.00
02069              15.80     3600.00
02070             -23.00     3600.00
02071               6.80     3600.00
02072              24.60     3600.00
02073             -10.40     3800.00
02074              -7.60     3600.00
02075              22.80     3600.00
02076               5.00     3800.00
02077             -14.80     3800.00
02078              14.00     3800.00
02079              16.20     3800.00
02080             -11.20     4000.00
02081               2.60     4000.00
02082              18.40     4000.00
02083              -1.00     4000.00
02084              -4.40     4000.00
02085              14.80     4000.00
02086               8.20     4200.00
02087              -6.00     4400.00
02088               8.40     4000.00
02089              13.20     4200.00
02090              -2.60     4200.00
02091               2.00     4400.00
02092              14.20     4400.00
02093               5.20     4400.00
02094              -2.20     4400.00
02095              10.00     4400.00
02096              10.20     4600.00
02097              -0.40     4600.00
02098               5.40     4600.00
02099              11.60     4400.00
02100               4.20     4600.00
02101               2.20     4600.00
02102              10.60     4600.00
02103               8.20     4800.00
02104               1.20     4800.00
02105               7.40     4600.00
02106              11.60     4800.00
02107               3.80     4800.00
02108               3.60     4800.00
02109              10.80     4800.00
02110               7.80     5000.00
02111               3.00     4800.00
02112               8.60     4800.00
02113               9.60     4800.00
02114               4.20     4800.00
02115               7.00     4800.00
02116              10.00     4800.00
02117               6.60     4800.00
02118               5.80     4800.00
02119               9.60     4800.00
02120               8.60     5200.00
02121               5.80     4800.00
02122               7.60     5000.00
02123               9.20     5000.00
02124               7.20     4800.00
02125               7.40     4800.00
02126               9.00     5200.00
02127               8.40     4800.00
02128               7.40     4800.00
02129               8.80     5000.00
02130               9.00     5000.00
02131               7.60     4800.00
02132               7.60     4800.00
02133               9.00     5000.00
02134               8.40     4800.00
02135               7.60     4800.00
02136               8.20     5200.00
02137               9.00     5000.00
02138               7.40     5000.00
02139               7.80     4800.00
02140               8.40     5200.00
02141               7.60     5000.00
02142               7.60     4800.00
02143               9.00     4800.00
02144               6.80     4800.00
02145               7.20     4800.00
02146               7.80     4800.00
02147               7.40     4800.00
02148               6.60     4800.00
02149               7.40     4800.00
02150               6.80     4600.00
02151               6.80     4800.00
02152               6.80     4800.00
02153               6.80     4800.00
02154               6.40     4600.00
02155               6.40     4600.00
02156               6.80     4800.00
02157               6.40     4800.00
02158               5.80     4600.00
02159               6.60     4600.00
02160               6.00     4600.00
02161               5.40     4400.00
02162               5.80     4600.00
02163               5.80     4400.00
02164               5.40     4400.00
02165               4.40     4400.00
02166               6.60     4400.00
02167               5.20     4400.00
02168               4.20     4400.00
02169               5.80     4400.00
02170               5.40     4400.00
02171               4.80     4400.00
02172               4.20     4200.00
02173               5.20     4200.00
02174               5.20     4400.00
02175               3.80     4000.00
02176               5.00     4000.00
02177               4.20     4000.00
02178               3.60     4000.00
02179               4.60     4000.00
02180               4.20     3800.00
02181               3.40     3800.00
02182               4.20     3800.00
02183               4.40     3800.00
02184               3.40     3800.00
02185               3.40     3800.00
02186               3.80     3800.00
02187               3.40     3600.00
02188               3.60     3600.00
02189               3.40     3600.00
02190               3.00     3600.00
02191               3.40     3600.00
02192               3.00     3400.00
02193               2.80     3200.00
02194               3.60     3200.00
02195               2.80     3200.00
02196               2.20     3200.00
02197               3.20     3000.00
02198               3.40     3200.00
02199               1.80     3200.00
02200               2.20     3000.00
02201               3.40     3000.00
02202               2.60     3000.00
02203               2.00     2800.00
02204               2.80     2800.00
02205               2.20     2800.00
02206               1.80     2800.00
02207               2.60     2800.00
02208               2.60     2400.00
02209               1.80     2400.00
02210               2.20     2600.00
02211               2.20     2400.00
02212               2.00     2400.00
02213               1.20     2200.00
02214               2.00     2200.00
02215               2.00     2200.00
02216               1.40     2000.00
02217               2.00     2000.00
02218               1.80     2000.00
02219               1.20     2000.00
02220               1.80     2000.00
02221               2.00     1800.00
02222               0.60     1800.00
02223               1.40     1800.00
02224               1.80     1600.00
02225               1.00     1600.00
02226               1.20     1400.00
02227               1.40     1400.00
02228               0.40     1400.00
02229               1.00     1400.00
02230               1.40     1200.00
02231               0.60     1200.00
02232               0.40     1200.00
02233               1.20     1200.00
02234               1.00     1000.00
02235               0.40     1000.00
02236               0.80      800.00
02237               0.60      800.00
02238               0.20      800.00
02239               0.60      800.00
02240               0.40      600.00
02241              -0.20      600.00
02242               0.00      600.00
02243               0.40      600.00
02244               0.00      400.00
02245              -0.40      400.00
02246               0.20      400.00
02247              -0.40        0.00
02248              -0.40      200.00
02249               0.40        0.00
02250               0.20     -200.00
02251              -0.60     -200.00
02252               0.20     -200.00
02253               0.20     -200.00
02254              -0.40     -400.00
02255              -0.60     -200.00
02256              -0.40     -400.00
02257              -0.60     -400.00
02258               2.80     -400.00
02259              14.80     -600.00
02260             -14.40     -800.00
02261             -25.00     -800.00
02262              25.00     -800.00
02263              25.00     -800.00
02264             -25.00    -1000.00
02265             -25.00     -800.00
02266              25.00    -1000.00
02267              25.00    -1200.00
02268             -25.00    -1200.00
02269             -10.60    -1200.00
02270              25.00    -1200.00
02271             -22.00    -1600.00
02272             -25.00    -1200.00
02273              25.00    -1400.00
02274              25.00    -1800.00
02275             -25.00    -1600.00
02276             -25.00    -1600.00
02277              25.00    -1800.00
02278             -19.00    -1800.00
02279             -25.00    -1800.00
02280              25.00    -2000.00
02281              25.00    -2200.00
02282             -25.00    -1800.00
02283              -5.20    -2200.00
02284              25.00    -2400.00
02285             -25.00    -2000.00
02286             -25.00    -2400.00
02287              25.00    -2400.00
02288              25.00    -2400.00
02289             -25.00    -2600.00
02290             -17.00    -2400.00
02291              25.00    -2600.00
02292             -10.80    -2400.00
02293             -25.00    -2800.00
02294              25.00    -2800.00
02295              25.00    -2800.00
02296             -25.00    -2800.00
02297              -3.20    -2800.00
02298              25.00    -3200.00
02299             -25.00    -3000.00
02300             -25.00    -3000.00
02301              25.00    -3400.00
02302              -8.60    -3000.00
02303             -25.00    -3400.00
02304              25.00    -3200.00
02305              13.20    -3400.00
02306             -25.00    -3400.00
02307              -2.80    -3400.00
02308              18.00    -3400.00
02309             -11.80    -3400.00
02310             -20.60    -3600.00
02311              11.60    -3600.00
02312               5.00    -3600.00
02313             -25.00    -3600.00
02314               1.20    -3600.00
02315              12.40    -3800.00
02316             -20.60    -3800.00
02317              -9.00    -4000.00
02318              12.80    -4000.00
02319             -10.60    -4000.00
02320             -16.60    -4000.00
02321               6.60    -4000.00
02322              -1.20    -4200.00
02323             -17.80    -4000.00
02324              -1.80    -4200.00
02325               4.60    -4200.00
02326             -14.00    -4200.00
02327             -10.00    -4400.00
02328               5.80    -4400.00
02329              -7.00    -4200.00
02330             -15.60    -4400.00
02331               1.00    -4400.00
02332              -0.40    -4400.00
02333             -14.80    -4400.00
02334              -6.80    -4400.00
02335               2.00    -4400.00
02336              -9.20    -4400.00
02337             -12.60    -4600.00
02338              -0.20    -4400.00
02339              -4.20    -4600.00
02340             -13.40    -4600.00
02341              -4.80    -4600.00
02342              -1.40    -4800.00
02343             -10.80    -4600.00
02344             -10.00    -4800.00
02345              -1.40    -4600.00
02346              -7.00    -4600.00
02347             -11.60    -4800.00
02348              -5.00    -4600.00
02349              -4.60    -4800.00
02350             -10.40    -4800.00
02351              -8.60    -4800.00
02352              -5.00    -4800.00
02353              -8.40    -4600.00
02354             -10.00    -5000.00
02355              -5.40    -4600.00
02356              -7.40    -4800.00
02357             -10.00    -4800.00
02358              -6.60    -4800.00
02359              -8.00    -5000.00
02360             -10.60    -5000.00
02361              -6.00    -5000.00
02362              -6.60    -5000.00
02363             -12.40    -5000.00
02364              -8.40    -5000.00
02365              -4.20    -4600.00
02366             -11.00    -5000.00
02367             -11.00    -5000.00
02368              -5.40    -4800.00
02369              -8.40    -5000.00
02370             -11.80    -5000.00
02371              -8.60    -5000.00
02372              -6.60    -5000.00
02373              -9.80    -5000.00
02374             -10.60    -5000.00
02375              -7.80    -5000.00
02376              -8.00    -5000.00
02377             -10.00    -5000.00
02378              -8.40    -5000.00
02379              -7.00    -4800.00
02380              -9.20    -5000.00
02381              -9.40    -5000.00
02382              -7.00    -4800.00
02383              -8.80    -5000.00
02384              -9.40    -5000.00
02385              -7.00    -4600.00
02386              -7.40    -4800.00
02387              -9.20    -4800.00
02388              -7.60    -4600.00
02389              -6.80    -4800.00
02390              -7.80    -5000.00
02391              -7.40    -4600.00
02392              -6.00    -4600.00
02393              -8.40    -4600.00
02394              -7.80    -4800.00
02395              -5.80    -4600.00
02396              -6.60    -4600.00
02397              -8.40    -4600.00
02398              -6.20    -4600.00
02399              -5.40    -4400.00
02400              -6.80    -4600.00
02401              -7.00    -4600.00
02402              -5.20    -4600.00
02403              -6.00    -4400.00
02404              -7.00    -4400.00
02405              -5.40    -4400.00
02406              -5.40    -4400.00
02407              -7.00    -4400.00
02408              -5.80    -4400.00
02409              -4.60    -4200.00
02410              -5.20    -4400.00
02411              -5.40    -4400.00
02412              -5.80    -4200.00
02413              -4.40    -4200.00
02414              -5.00    -4200.00
02415              -6.00    -4200.00
02416              -4.40    -4000.00
02417              -4.20    -4000.00
02418              -5.40    -4000.00
02419              -4.80    -4200.00
02420              -3.60    -4000.00
02421              -5.40    -4000.00
02422              -5.00    -3800.00
02423              -3.00    -3800.00
02424              -4.20    -4000.00
02425              -5.20    -3600.00
02426              -3.60    -3600.00
02427              -3.80    -3600.00
02428              -4.60    -3600.00
02429              -4.20    -3600.00
02430              -3.60    -3600.00
02431              -3.80    -3400.00
02432              -4.40    -3400.00
02433              -3.80    -3400.00
02434              -3.00    -3200.00
02435              -3.80    -3200.00
02436              -3.60    -3200.00
02437              -2.80    -3200.00
02438              -2.80    -3000.00
02439              -3.80    -3200.00
02440              -3.40    -3000.00
02441              -2.80    -3000.00
02442              -3.40    -3000.00
02443              -3.60    -2800.00
02444              -2.80    -2800.00
02445              -2.80    -2600.00
02446              -3.00    -2600.00
02447              -2.80    -2800.00
02448              -2.40    -2600.00
02449              -3.00    -2600.00
02450              -3.00    -2400.00
02451              -2.00    -2400.00
02452              -2.20    -2400.00
02453              -2.80    -2400.00
02454              -2.60    -2200.00
02455              -1.60    -2200.00
02456              -2.80    -2200.00
02457              -3.00    -2000.00
02458              -1.80    -2000.00
02459              -1.40    -2000.00
02460              -3.00    -1800.00
02461              -2.20    -1800.00
02462              -1.00    -1800.00
02463              -2.20    -1800.00
02464              -2.40    -1800.00
02465              -1.20    -1600.00
02466              -1.80    -1600.00
02467              -2.20    -1600.00
02468              -1.20    -1200.00
02469              -0.80    -1200.00
02470              -1.80    -1200.00
02471              -2.00    -1400.00
02472              -1.00    -1000.00
02473              -1.20    -1000.00
02474              -1.20    -1000.00
02475              -0.80    -1000.00
02476              -0.80    -1000.00
02477              -1.00     -800.00
02478              -1.00     -800.00
02479              -0.60     -800.00
02480              -1.00     -600.00
02481              -1.20     -400.00
02482              -0.60     -400.00
02483              -0.40     -400.00
02484              -0.60     -400.00
02485              -0.60     -400.00
02486              -0.60     -200.00
02487              -0.40     -200.00
02488              -0.40        0.00
02489              -0.20     -200.00
02490               0.00        0.00
02491              -0.40        0.00
02492               0.20        0.00
02493               0.40        0.00
02494               0.40      200.00
02495              -0.40      200.00
02496              -0.20      400.00
02497               0.40      400.00
02498               1.20      600.00
02499               6.00      800.00
02500              11.40      800.00
02501             -22.80      600.00
02502             -25.00      800.00
02503              25.00      800.00
02504              25.00      800.00
02505             -25.00      800.00
02506             -25.00     1000.00
02507              25.00     1200.00
02508              22.60     1200.00
02509             -25.00     1000.00
02510              25.00     1400.00
02511              25.00     1400.00
02512             -25.00     1400.00
02513             -25.00     1400.00
02514              25.00     1800.00
02515              25.00     1600.00
02516             -25.00     1800.00
02517              25.00     1800.00
02518              25.00     1600.00
02519             -25.00     2000.00
02520             -25.00     2000.00
02521              25.00     2000.00
02522              17.80     2000.00
02523             -25.00     2000.00
02524              25.00     2200.00
02525              25.00     2000.00
02526             -25.00     2200.00
02527             -25.00     2400.00
02528              25.00     2200.00
02529              12.80     2600.00
02530             -25.00     2400.00
02531              25.00     2400.00
02532              25.00     2800.00
02533             -25.00     2800.00
02534             -24.40     2800.00
02535              25.00     2800.00
02536               0.20     3000.00
02537             -25.00     2800.00
02538              25.00     2800.00
02539              25.00     3000.00
02540             -25.00     3000.00
02541               4.20     3000.00
02542              25.00     3200.00
02543             -23.60     3200.00
02544             -22.80     3200.00
02545              25.00     3200.00
02546               8.20     3600.00
02547             -25.00     3400.00
02548              17.00     3600.00
02549              25.00     3400.00
02550             -19.80     3600.00
02551              -2.80     3600.00
02552              25.00     3600.00
02553              -2.00     3600.00
02554             -14.40     3600.00
02555              19.40     3800.00
02556              13.00     3800.00
02557             -15.40     3800.00
02558               7.60     3800.00
02559              20.40     4000.00
02560              -7.00     3800.00
02561              -3.40     4000.00
02562              18.60     4000.00
02563               4.20     4000.00
02564              -7.80     4000.00
02565              12.00     4200.00
02566              12.20     4000.00
02567              -5.40     4200.00
02568               4.60     4200.00
02569              14.60     4200.00
02570               0.60     4400.00
02571              -1.60     4400.00
02572              13.00     4400.00
02573               8.40     4400.00
02574              -3.40     4400.00
02575               7.40     4600.00
02576              12.60     4600.00
02577               0.40     4400.00
02578               2.60     4600.00
02579              12.20     4600.00
02580               5.40     4600.00
02581               0.40     4600.00
02582               9.40     4600.00
02583              10.00     4600.00
02584               1.00     4600.00
02585               5.80     4600.00
02586              11.60     4600.00
02587               5.20     4800.00
02588               2.60     4800.00
02589              10.00     4800.00
02590               9.40     4800.00
02591               2.80     4800.00
02592               7.40     4800.00
02593              10.60     4800.00
02594               5.20     4800.00
02595               5.80     4800.00
02596              10.00     5000.00
02597               8.00     4800.00
02598               5.20     5000.00
02599               9.00     4800.00
02600              10.00     4800.00
02601               6.00     4800.00
02602               6.80     4800.00
02603               9.80     5000.00
02604               7.80     4800.00
02605               6.80     4800.00
02606               9.20     4800.00
02607               9.00     5000.00
02608               7.40     4800.00
02609               8.60     5000.00
02610               9.40     5000.00
02611               7.60     4800.00
02612               8.20     5000.00
02613               9.20     5200.00
02614               8.80     5000.00
02615               7.40     4800.00
02616               8.40     4800.00
02617               8.60     5000.00
02618               7.40     4800.00
02619               8.40     4800.00
02620               8.60     4800.00
02621               7.80     4800.00
02622               7.80     4800.00
02623               8.60     5000.00
02624               7.80     4800.00
02625               6.80     4800.00
02626               7.80     4800.00
02627               7.60     4800.00
02628               6.60     4800.00
02629               7.00     4800.00
02630               7.00     4800.00
02631               6.60     4800.00
02632               6.60     4800.00
02633               6.80     4800.00
02634               6.40     4800.00
02635               6.20     4600.00
02636               6.20     4600.00
02637               6.20     4600.00
02638               5.80     4400.00
02639               5.80     4600.00
02640               6.00     4800.00
02641               5.80     4600.00
02642               5.40     4600.00
02643               5.20     4400.00
02644               5.40     4400.00
02645               5.20     4400.00
02646               5.20     4400.00
02647               5.20     4400.00
02648               5.00     4400.00
02649               4.60     4400.00
02650               5.00     4200.00
02651               5.00     4200.00
02652               4.20     4000.00
02653               4.40     4200.00
02654               4.60     4000.00
02655               4.60     4000.00
02656               4.20     4200.00
02657               4.40     4000.00
02658               4.20     3800.00
02659               4.20     4000.00
02660               4.20     3800.00
02661               4.20     4000.00
02662               3.80     3800.00
02663               3.60     3800.00
02664               4.40     3800.00
02665               3.60     3600.00
02666               3.40     3600.00
02667               3.60     3800.00
02668               3.80     3600.00
02669               3.00     3600.00
02670               3.40     3600.00
02671               3.60     3400.00
02672               3.40     3400.00
02673               2.80     3200.00
02674               3.40     3400.00
02675               3.00     3200.00
02676               2.80     3200.00
02677               3.00     3200.00
02678               3.00     3200.00
02679               2.80     3200.00
02680               2.20     3000.00
02681               2.80     3000.00
02682               2.80     3000.00
02683               2.20     2800.00
02684               2.60     2800.00
02685               2.80     2800.00
02686               2.00     2800.00
02687               2.20     2600.00
02688               2.40     2800.00
02689               2.00     2400.00
02690               2.00     2400.00
02691               2.20     2400.00
02692               2.00     2400.00
02693               2.00     2200.00
02694               1.40     2400.00
02695               2.00     2200.00
02696               1.80     2200.00
02697               1.60     2000.00
02698               1.60     2000.00
02699               1.60     2000.00
02700               1.20     2000.00
02701               1.80     2000.00
02702               1.20     1600.00
02703               0.60     1800.00
02704               1.40     1800.00
02705               1.40     1600.00
02706               0.60     1400.00
02707               0.40     1400.00
02708               1.20     1400.00
02709               0.60     1400.00
02710               0.40     1200.00
02711               0.80     1200.00
02712               0.40     1200.00
02713               0.60     1000.00
02714               0.60     1000.00
02715               1.00      800.00
02716               0.40      800.00
02717               0.20      800.00
02718               1.00      600.00
02719               0.40      600.00
02720               0.00      600.00
02721              -0.40      400.00
02722               0.40      400.00
02723               0.20      400.00
02724              -0.80      400.00
02725               0.40      400.00
02726               0.20      400.00
02727              -0.40      200.00
02728              -0.40        0.00
02729               0.40        0.00
02730               0.40        0.00
02731              -0.60        0.00
02732              -0.20     -200.00
02733               1.00     -200.00
02734              -0.20     -400.00
02735              -1.20     -400.00
02736              -0.20     -400.00
02737               0.20     -400.00
02738               0.40     -400.00
02739              13.80     -400.00
02740              -1.40     -800.00
02741             -25.00     -800.00
02742              25.00     -800.00
02743              25.00     -800.00
02744             -25.00    -1000.00
02745             -25.00     -800.00
02746              25.00    -1000.00
02747              25.00    -1200.00
02748             -25.00    -1400.00
02749             -25.00    -1200.00
02750              25.00    -1200.00
02751              25.00    -1600.00
02752             -25.00    -1200.00
02753              25.00    -1400.00
02754              25.00    -1800.00
02755             -25.00    -1600.00
02756             -25.00    -1600.00
02757              25.00    -1800.00
02758              25.00    -2000.00
02759             -25.00    -1600.00
02760              25.00    -2000.00
02761              25.00    -2000.00
02762             -25.00    -1800.00
02763             -25.00    -2200.00
02764              25.00    -2400.00
02765               4.00    -2000.00
02766             -25.00    -2400.00
02767              25.00    -2400.00
02768              25.00    -2600.00
02769             -25.00    -2400.00
02770             -25.00    -2600.00
02771              25.00    -2600.00
02772              17.80    -2600.00
02773             -25.00    -2600.00
02774              13.80    -2800.00
02775              25.00    -2800.00
02776             -25.00    -2800.00
02777             -25.00    -2800.00
02778              25.00    -3200.00
02779             -15.60    -3000.00
02780             -25.00    -3200.00
02781              25.00    -3200.00
02782              14.80    -3200.00
02783             -25.00    -3200.00
02784              12.40    -3200.00
02785              24.60    -3200.00
02786             -25.00    -3200.00
02787             -13.00    -3400.00
02788              18.00    -3400.00
02789              -3.40    -3400.00
02790             -23.80    -3600.00
02791               5.40    -3600.00
02792              11.00    -3600.00
02793             -22.20    -3800.00
02794              -7.00    -3800.00
02795              14.80    -3800.00
02796             -14.00    -3600.00
02797             -15.80    -3800.00
02798              11.80    -4000.00
02799              -3.80    -3800.00
02800             -19.40    -4000.00
02801               3.00    -4000.00
02802               3.00    -4200.00
02803             -16.00    -4000.00
02804              -6.60    -4200.00
02805               6.00    -4200.00
02806              -9.40    -4200.00
02807             -13.40    -4200.00
02808               3.80    -4400.00
02809              -2.60    -4200.00
02810             -15.80    -4400.00
02811              -2.60    -4200.00
02812               2.40    -4400.00
02813             -11.80    -4400.00
02814             -10.20    -4400.00
02815               1.40    -4600.00
02816              -5.80    -4400.00
02817             -13.40    -4400.00
02818              -2.60    -4600.00
02819              -2.00    -4600.00
02820             -12.40    -4400.00
02821              -7.40    -4600.00
02822              -0.60    -4600.00
02823              -8.20    -4600.00
02824             -11.40    -4600.00
02825              -3.00    -4600.00
02826              -3.80    -4800.00
02827             -12.40    -4600.00
02828              -7.40    -4800.00
02829              -2.80    -4800.00
02830              -9.20    -4600.00
02831             -10.80    -4600.00
02832              -4.80    -4800.00
02833              -6.60    -5000.00
02834             -11.00    -4600.00
02835              -7.40    -4800.00
02836              -4.80    -5000.00
02837              -9.80    -4800.00
02838              -9.80    -4800.00
02839              -6.00    -4800.00
02840              -7.80    -5000.00
02841             -10.60    -5000.00
02842              -7.60    -4800.00
02843              -6.60    -4600.00
02844             -10.00    -5000.00
02845              -9.40    -5000.00
02846              -7.60    -5000.00
02847              -9.00    -5000.00
02848             -10.00    -5000.00
02849              -8.20    -5000.00
02850              -8.20    -4800.00
02851             -10.00    -5000.00
02852              -9.00    -5000.00
02853              -7.80    -4800.00
02854              -9.40    -5000.00
02855              -9.60    -5000.00
02856              -8.40    -5000.00
02857              -8.20    -5000.00
02858              -9.20    -5000.00
02859              -8.60    -5000.00
02860              -8.40    -4800.00
02861              -8.60    -4600.00
02862              -8.20    -5000.00
02863              -8.40    -4800.00
02864              -8.40    -5000.00
02865              -8.20    -5000.00
02866              -7.60    -4600.00
02867              -7.40    -4800.00
02868              -8.20    -4600.00
02869              -7.60    -4800.00
02870              -6.80    -4600.00
02871              -7.40    -4800.00
02872              -7.40    -4600.00
02873              -7.40    -4600.00
02874              -6.60    -4600.00
02875              -7.00    -4600.00
02876              -7.00    -4600.00
02877              -6.60    -4600.00
02878              -6.60    -4600.00
02879              -6.80    -4600.00
02880              -6.00    -4600.00
02881              -6.20    -4600.00
02882              -6.60    -4600.00
02883              -5.40    -4400.00
02884              -6.00    -4400.00
02885              -6.00    -4400.00
02886              -5.80    -4400.00
02887              -6.20    -4400.00
02888              -5.60    -4400.00
02889              -5.20    -4400.00
02890              -5.20    -4400.00
02891              -5.80    -4400.00
02892              -5.20    -4200.00
02893              -5.20    -4200.00
02894              -5.40    -4200.00
02895              -5.00    -4200.00
02896              -5.20    -4000.00
02897              -5.20    -4200.00
02898              -5.00    -4200.00
02899              -4.60    -4000.00
02900              -4.40    -4000.00
02901              -4.80    -4000.00
02902              -4.60    -3800.00
02903              -3.80    -4000.00
02904              -4.60    -3800.00
02905              -4.80    -3600.00
02906              -3.80    -3600.00
02907              -4.00    -3600.00
02908              -4.60    -3600.00
02909              -4.20    -3600.00
02910              -3.80    -3600.00
02911              -4.40    -3600.00
02912              -4.00    -3600.00
02913              -3.80    -3400.00
02914              -3.80    -3200.00
02915              -3.80    -3200.00
02916              -3.40    -3200.00
02917              -3.60    -3200.00
02918              -2.80    -3200.00
02919              -3.60    -3200.00
02920              -3.80    -3200.00
02921              -2.60    -3000.00
02922              -2.80    -2800.00
02923              -4.40    -2800.00
02924              -2.40    -2800.00
02925              -2.40    -2800.00
02926              -3.60    -2800.00
02927              -2.80    -2600.00
02928              -1.80    -2600.00
02929              -3.40    -2600.00
02930              -2.60    -2400.00
02931              -1.40    -2400.00
02932              -2.80    -2400.00
02933              -2.60    -2400.00
02934              -2.00    -2400.00
02935              -2.00    -2200.00
02936              -2.40    -2400.00
02937              -2.20    -2200.00
02938              -2.20    -2000.00
02939              -2.00    -1800.00
02940              -2.00    -1800.00
02941              -1.80    -2000.00
02942              -2.00    -1800.00
02943              -1.80    -1800.00
02944              -1.40    -1800.00
02945              -1.40    -1800.00
02946              -1.60    -1600.00
02947              -1.40    -1600.00
02948              -1.20    -1600.00
02949              -1.40    -1200.00
02950              -1.40    -1200.00
02951              -1.40    -1200.00
02952              -1.20    -1200.00
02953              -1.20    -1200.00
02954              -1.00    -1000.00
02955              -1.20    -1000.00
02956              -1.20     -800.00
02957              -1.00     -800.00
02958              -1.00     -800.00
02959              -0.60     -800.00
02960              -1.00     -800.00
02961              -1.00     -800.00
02962              -0.60     -400.00
02963              -0.80     -400.00
02964              -0.60     -400.00
02965              -0.60     -400.00
02966              -0.60     -400.00
02967              -0.40     -200.00
02968              -0.60     -200.00
02969              -0.20        0.00
02970               0.20        0.00
02971              -0.60        0.00
02972              -0.40        0.00
02973               1.40      200.00
02974              -0.40      200.00
02975              -0.60        0.00
02976               0.60      400.00
02977               0.60      400.00
02978              -0.40      400.00
02979               4.20      800.00
02980              13.80      800.00
02981             -14.00      600.00
02982             -25.00      600.00
02983              25.00      800.00
02984              25.00      800.00
02985             -25.00      800.00
02986             -25.00      800.00
02987              25.00     1200.00
02988              25.00     1200.00
02989             -25.00     1200.00
02990             -17.60     1200.00
02991              25.00     1400.00
02992              -6.00     1400.00
02993             -25.00     1400.00
02994              25.00     1800.00
02995              25.00     1400.00
02996             -25.00     1800.00
02997             -15.40     1800.00
02998              25.00     1800.00
02999             -24.80     1800.00
03000             -25.00     2000.00
03001              25.00     2000.00
03002              25.00     2000.00
03003             -25.00     2000.00
03004               3.20     2200.00
03005              25.00     2000.00
03006             -25.00     2400.00
03007             -25.00     2400.00
03008              25.00     2200.00
03009              25.00     2400.00
03010             -25.00     2400.00
03011               1.20     2600.00
03012              25.00     2400.00
03013             -24.60     2800.00
03014             -25.00     2800.00
03015              25.00     2600.00
03016              25.00     3000.00
03017             -25.00     2800.00
03018              16.20     2800.00
03019              25.00     3000.00
03020             -25.00     3000.00
03021             -17.20     3200.00
03022              25.00     3000.00
03023              -4.60     3200.00
03024             -25.00     3200.00
03025              25.00     3200.00
03026              23.80     3200.00
03027             -25.00     3400.00
03028               5.80     3400.00
03029              25.00     3400.00
03030             -14.60     3600.00
03031             -11.60     3600.00
03032              25.00     3600.00
03033               7.40     3800.00
03034             -19.00     3600.00
03035              12.80     3600.00
03036              20.20     3800.00
03037             -13.80     3800.00
03038              -1.00     4000.00
03039              23.20     3800.00
03040              -0.60     3800.00
03041             -11.00     4000.00
03042              16.40     3800.00
03043              11.60     4000.00
03044             -11.00     4000.00
03045               7.00     4000.00
03046              16.40     4000.00
03047              -4.20     4400.00
03048              -0.20     4400.00
03049              15.40     4200.00
03050               4.40     4400.00
03051              -4.60     4400.00
03052              10.80     4400.00
03053              11.80     4400.00
03054              -2.80     4400.00
03055               4.40     4400.00
03056              13.00     4600.00
03057               2.60     4400.00
03058               0.60     4600.00
03059              10.60     4400.00
03060               7.80     4600.00
03061               1.00     4600.00
03062               7.80     4600.00
03063              10.80     4800.00
03064               2.80     4600.00
03065               4.20     4800.00
03066              11.00     4800.00
03067               7.40     4800.00
03068               2.20     4800.00
03069               8.60     4800.00
03070              10.60     4800.00
03071               3.60     4600.00
03072               5.80     4800.00
03073              11.00     4800.00
03074               6.80     4800.00
03075               4.40     4800.00
03076              10.00     4800.00
03077               9.20     4800.00
03078               4.20     4800.00
03079               7.80     4800.00
03080              11.00     4800.00
03081               6.60     4800.00
03082               6.00     5000.00
03083              10.00     4800.00
03084               9.00     5000.00
03085               6.00     4800.00
03086               8.60     5000.00
03087              10.00     4800.00
03088               6.80     4800.00
03089               7.80     4800.00
03090              10.40     5000.00
03091               7.80     5200.00
03092               6.60     4800.00
03093               9.20     5000.00
03094               9.80     5000.00
03095               6.80     4800.00
03096               7.80     4800.00
03097               9.20     4800.00
03098               7.80     5000.00
03099               7.60     5200.00
03100               8.60     4800.00
03101               8.20     4800.00
03102               6.80     4800.00
03103               8.20     4800.00
03104               8.40     4800.00
03105               6.60     4800.00
03106               7.60     4800.00
03107               7.80     4800.00
03108               6.80     4800.00
03109               6.80     4800.00
03110               6.80     4600.00
03111               6.20     4800.00
03112               6.60     4800.00
03113               7.00     4600.00
03114               6.20     4800.00
03115               6.20     4600.00
03116               6.60     4600.00
03117               6.60     4600.00
03118               6.20     4600.00
03119               6.00     4600.00
03120               6.00     4600.00
03121               6.00     4600.00
03122               5.80     4400.00
03123               5.20     4600.00
03124               5.40     4400.00
03125               5.80     4400.00
03126               5.20     4400.00
03127               5.40     4400.00
03128               5.40     4400.00
03129               5.00     4400.00
03130               5.20     4400.00
03131               5.20     4200.00
03132               4.80     4200.00
03133               4.60     4400.00
03134               5.20     4200.00
03135               5.00     4000.00
03136               4.20     4000.00
03137               4.40     4000.00
03138               4.40     4000.00
03139               4.40     4000.00
03140               4.20     3800.00
03141               4.20     4000.00
03142               4.20     3800.00
03143               3.80     3600.00
03144               4.20     3800.00
03145               4.00     3600.00
03146               3.40     3600.00
03147               3.60     3600.00
03148               4.00     3600.00
03149               3.60     3600.00
03150               3.40     3600.00
03151               3.00     3600.00
03152               3.40     3400.00
03153               3.40     3400.00
03154               2.80     3200.00
03155               2.80     3200.00
03156               2.80     3200.00
03157               2.60     3200.00
03158               3.00     3000.00
03159               2.80     3200.00
03160               2.60     3000.00
03161               2.40     3000.00
03162               2.60     2800.00
03163               2.60     2800.00
03164               2.20     3000.00
03165               2.20     2800.00
03166               2.20     2800.00
03167               2.20     2800.00
03168               2.00     2600.00
03169               1.80     2400.00
03170               1.80     2400.00
03171               2.00     2400.00
03172               2.00     2200.00
03173               2.00     2400.00
03174               1.40     2200.00
03175               1.80     2200.00
03176               1.80     2200.00
03177               1.20     2200.00
03178               1.20     2000.00
03179               1.80     2000.00
03180               1.40     2000.00
03181               1.20     2000.00
03182               1.40     1800.00
03183               1.40     1800.00
03184               1.00     1600.00
03185               1.20     1800.00
03186               1.40     1400.00
03187               1.00     1600.00
03188               0.40     1400.00
03189               1.00     1200.00
03190               1.00     1400.00
03191               0.40     1400.00
03192               1.00     1200.00
03193               1.00     1000.00
03194               0.40     1200.00
03195               1.20     1000.00
03196               0.60      800.00
03197               0.40      800.00
03198               0.40      800.00
03199               0.80      600.00
03200               0.00      600.00
03201               0.20      600.00
03202               0.40      600.00
03203               0.20      400.00
03204              -0.20      400.00
03205               0.40      400.00
03206               0.20      400.00
03207              -0.20      200.00
03208              -0.20        0.00
03209               0.40        0.00
03210               0.20     -200.00
03211              -0.40        0.00
03212               0.20     -200.00
03213               0.40     -200.00
03214              -0.40     -200.00
03215              -0.40     -400.00
03216              -0.40     -400.00
03217              -0.60     -400.00
03218               0.40     -400.00
03219              11.00     -400.00
03220               6.20     -800.00
03221             -25.00     -800.00
03222               5.20     -600.00
03223              25.00     -800.00
03224              -3.00    -1000.00
03225             -25.00     -800.00
03226              25.00    -1000.00
03227              25.00    -1000.00
03228             -25.00    -1400.00
03229             -25.00    -1000.00
03230              25.00    -1400.00
03231              25.00    -1600.00
03232             -25.00    -1200.00
03233             -16.00    -1600.00
03234              25.00    -1600.00
03235             -22.60    -1800.00
03236             -25.00    -1600.00
03237              25.00    -1800.00
03238              25.00    -2000.00
03239             -25.00    -1600.00
03240              -3.80    -2000.00
03241              25.00    -2000.00
03242             -25.00    -2000.00
03243             -25.00    -2000.00
03244              25.00    -2000.00
03245              25.00    -2400.00
03246             -25.00    -2000.00
03247               1.00    -2400.00
03248              25.00    -2600.00
03249             -25.00    -2400.00
03250             -25.00    -2600.00
03251              25.00    -2600.00
03252              25.00    -2600.00
03253             -25.00    -2800.00
03254             -14.80    -2800.00
03255              25.00    -2800.00
03256             -25.00    -2800.00
03257             -25.00    -2800.00
03258              25.00    -2800.00
03259              15.40    -2800.00
03260             -25.00    -3200.00
03261              25.00    -3000.00
03262              25.00    -3200.00
03263             -25.00    -3200.00
03264              -5.00    -3200.00
03265              25.00    -3400.00
03266             -19.40    -3200.00
03267             -23.40    -3400.00
03268              15.80    -3400.00
03269               5.40    -3400.00
03270             -24.40    -3600.00
03271              -2.80    -3400.00
03272              15.80    -3600.00
03273             -15.80    -3600.00
03274             -16.20    -3600.00
03275              15.00    -3600.00
03276              -5.00    -3600.00
03277             -22.00    -4000.00
03278               8.40    -3800.00
03279               3.60    -3800.00
03280             -20.40    -4000.00
03281              -2.60    -4000.00
03282               6.80    -4200.00
03283             -12.60    -4000.00
03284             -11.60    -4200.00
03285               5.80    -4200.00
03286              -4.60    -4200.00
03287             -16.20    -4200.00
03288               0.60    -4200.00
03289               1.20    -4400.00
03290             -15.00    -4400.00
03291              -7.00    -4400.00
03292               3.40    -4400.00
03293              -8.60    -4400.00
03294             -13.20    -4400.00
03295              -0.20    -4400.00
03296              -2.40    -4400.00
03297             -13.80    -4400.00
03298              -5.40    -4600.00
03299              -0.40    -4400.00
03300             -10.80    -4400.00
03301             -10.00    -4400.00
03302              -1.00    -4600.00
03303              -6.20    -4600.00
03304             -12.60    -4800.00
03305              -4.40    -4600.00
03306              -3.00    -4800.00
03307             -11.40    -4600.00
03308              -9.00    -4600.00
03309              -3.00    -4600.00
03310              -8.40    -4800.00
03311             -10.80    -4600.00
03312              -5.40    -4800.00
03313              -5.80    -5000.00
03314             -10.20    -4800.00
03315              -8.20    -4600.00
03316              -5.20    -5000.00
03317              -8.60    -4800.00
03318             -10.20    -5000.00
03319              -6.60    -5000.00
03320              -6.60    -4800.00
03321             -10.20    -5000.00
03322              -9.00    -5000.00
03323              -6.60    -4800.00
03324              -9.00    -4600.00
03325              -9.80    -5000.00
03326              -7.60    -4800.00
03327              -8.20    -5000.00
03328              -9.80    -5000.00
03329              -8.20    -4800.00
03330              -7.80    -5000.00
03331              -9.60    -5000.00
03332              -9.00    -5000.00
03333              -7.80    -5000.00
03334              -8.60    -5000.00
03335              -9.80    -5000.00
03336              -8.40    -4800.00
03337              -7.80    -5000.00
03338              -9.20    -4800.00
03339              -8.60    -5000.00
03340              -8.60    -5000.00
03341              -9.00    -4800.00
03342              -7.80    -5000.00
03343              -8.00    -5000.00
03344              -8.60    -4600.00
03345              -7.80    -5000.00
03346              -7.40    -4800.00
03347              -8.40    -4600.00
03348              -8.00    -4800.00
03349              -6.60    -5000.00
03350              -8.20    -4800.00
03351              -7.60    -4600.00
03352              -7.00    -4600.00
03353              -7.00    -4800.00
03354              -7.60    -4600.00
03355              -7.00    -4600.00
03356              -6.80    -4600.00
03357              -7.00    -4600.00
03358              -7.00    -4600.00
03359              -6.00    -4600.00
03360              -6.80    -4600.00
03361              -6.80    -4600.00
03362              -6.00    -4600.00
03363              -5.80    -4400.00
03364              -7.00    -4400.00
03365              -6.00    -4400.00
03366              -5.60    -4400.00
03367              -5.40    -4400.00
03368              -7.00    -4400.00
03369              -5.40    -4400.00
03370              -4.20    -4400.00
03371              -6.60    -4400.00
03372              -6.20    -4200.00
03373              -3.60    -4200.00
03374              -5.80    -4200.00
03375              -6.00    -4000.00
03376              -4.20    -4000.00
03377              -5.20    -4000.00
03378              -5.80    -4000.00
03379              -4.20    -4000.00
03380              -3.80    -4000.00
03381              -5.40    -4000.00
03382              -4.60    -3800.00
03383              -3.60    -4000.00
03384              -4.60    -4000.00
03385              -5.40    -3800.00
03386              -3.60    -3600.00
03387              -3.80    -3600.00
03388              -5.00    -3600.00
03389              -3.80    -3600.00
03390              -3.60    -3600.00
03391              -4.40    -3600.00
03392              -3.80    -3400.00
03393              -3.00    -3400.00
03394              -3.80    -3400.00
03395              -3.60    -3400.00
03396              -3.00    -3200.00
03397              -3.40    -3200.00
03398              -3.40    -3200.00
03399              -3.20    -3200.00
03400              -3.40    -2800.00
03401              -3.40    -3000.00
03402              -3.00    -2800.00
03403              -2.80    -2800.00
03404              -3.60    -2800.00
03405              -3.20    -2600.00
03406              -2.60    -2600.00
03407              -2.80    -2800.00
03408              -2.80    -2600.00
03409              -2.60    -2600.00
03410              -2.60    -2600.00
03411              -2.20    -2600.00
03412              -2.20    -2400.00
03413              -2.80    -2400.00
03414              -2.80    -2400.00
03415              -2.20    -2200.00
03416              -2.80    -2400.00
03417              -2.20    -2000.00
03418              -2.00    -2000.00
03419              -2.20    -2000.00
03420              -2.00    -2000.00
03421              -2.00    -2000.00
03422              -2.00    -1600.00
03423              -2.00    -1800.00
03424              -1.40    -1800.00
03425              -2.00    -1600.00
03426              -1.80    -1600.00
03427              -1.80    -1800.00
03428              -1.80    -1400.00
03429              -2.00    -1400.00
03430              -1.20    -1200.00
03431              -1.40    -1200.00
03432              -2.00    -1200.00
03433              -1.20    -1000.00
03434              -1.00    -1200.00
03435              -1.80    -1000.00
03436              -1.40    -1000.00
03437              -0.60     -800.00
03438              -1.00     -800.00
03439              -1.20     -800.00
03440              -0.60     -600.00
03441              -0.40     -400.00
03442              -1.00     -600.00
03443              -1.20     -400.00
03444              -0.40     -400.00
03445              -0.20     -400.00
03446              -1.20     -400.00
03447              -1.00     -200.00
03448              -0.20     -200.00
03449              -0.40     -200.00
03450              -0.60        0.00
03451               0.20        0.00
03452               0.20      200.00
03453               0.20        0.00
03454               1.00      200.00
03455              -0.40        0.00
03456               0.00      400.00
03457               0.20      400.00
03458               1.00      400.00
03459               2.60      600.00
03460              12.20      800.00
03461              -3.80      800.00
03462             -25.00      600.00
03463              16.60      800.00
03464              25.00      800.00
03465             -14.00     1000.00
03466             -25.00      800.00
03467              25.00     1200.00
03468              25.00     1000.00
03469             -25.00     1200.00
03470             -25.00     1200.00
03471              25.00     1400.00
03472              25.00     1400.00
03473             -25.00     1200.00
03474              25.00     1800.00
03475              25.00     1400.00
03476             -25.00     1800.00
03477             -25.00     1800.00
03478              25.00     1800.00
03479              22.20     1800.00
03480             -25.00     2000.00
03481              25.00     2000.00
03482              25.00     1800.00
03483             -25.00     2200.00
03484             -25.00     2200.00
03485              25.00     2000.00
03486               4.20     2400.00
03487             -25.00     2400.00
03488              25.00     2400.00
03489              25.00     2400.00
03490             -25.00     2600.00
03491             -25.00     2600.00
03492              25.00     2400.00
03493               4.60     2800.00
03494             -25.00     2600.00
03495              25.00     2800.00
03496              25.00     2800.00
03497             -25.00     2800.00
03498              -7.40     3000.00
03499              25.00     3000.00
03500             -18.80     3200.00
03501             -25.00     3000.00
03502              25.00     3000.00
03503              17.20     3400.00
03504             -25.00     3200.00
03505              16.60     3200.00
03506              25.00     3200.00
03507             -25.00     3400.00
03508              -8.60     3600.00
03509              25.00     3200.00
03510              -0.40     3600.00
03511             -20.00     3600.00
03512              19.00     3600.00
03513              17.00     3800.00
03514             -18.20     3800.00
03515               3.80     3800.00
03516              23.80     3800.00
03517              -6.80     3800.00
03518              -8.20     3800.00
03519              20.60     4000.00
03520               7.40     4000.00
03521             -12.60     4000.00
03522              10.80     4000.00
03523              15.60     4200.00
03524              -7.20     4000.00
03525               1.80     4200.00
03526              16.00     4000.00
03527               1.20     4200.00
03528              -2.80     4200.00
03529              12.60     4000.00
03530               8.40     4400.00
03531              -3.60     4400.00
03532               7.20     4400.00
03533              13.00     4400.00
03534               0.60     4400.00
03535               1.80     4400.00
03536              11.80     4600.00
03537               6.20     4400.00
03538               0.20     4600.00
03539               8.20     4600.00
03540               9.80     4400.00
03541               2.00     4800.00
03542               5.40     4600.00
03543              11.00     4800.00
03544               5.00     4600.00
03545               2.20     4800.00
03546               9.80     4600.00
03547               9.20     4800.00
03548               2.20     4800.00
03549               6.20     4800.00
03550              11.00     4800.00
03551               5.40     4800.00
03552               4.20     4800.00
03553               9.20     4800.00
03554               9.00     4800.00
03555               4.20     5000.00
03556               7.40     4800.00
03557              10.60     4800.00
03558               5.80     4800.00
03559               5.80     5200.00
03560               9.80     4800.00
03561               8.60     4800.00
03562               5.20     4800.00
03563               8.20     4800.00
03564              10.00     4800.00
03565               6.60     5000.00
03566               6.80     5000.00
03567               9.80     5000.00
03568               8.20     5000.00
03569               6.60     5200.00
03570               9.60     4800.00
03571               9.20     4800.00
03572               6.60     4800.00
03573               8.20     5000.00
03574               9.80     4800.00
03575               7.60     4800.00
03576               7.40     5000.00
03577               8.40     5000.00
03578               8.60     4800.00
03579               8.40     5000.00
03580               8.40     4800.00
03581               8.20     4800.00
03582               7.00     4800.00
03583               7.40     4800.00
03584               8.40     4800.00
03585               7.00     4800.00
03586               7.40     4600.00
03587               8.40     4800.00
03588               7.80     4800.00
03589               5.80     4800.00
03590               6.60     4800.00
03591               7.80     4800.00
03592               5.80     4800.00
03593               6.40     4800.00
03594               8.60     4800.00
03595               6.60     4800.00
03596               4.80     4600.00
03597               6.80     4600.00
03598               6.80     4600.00
03599               5.20     4800.00
03600               6.20     4600.00
03601               7.40     4600.00
03602               5.20     4600.00
03603               5.00     4400.00
03604               5.80     4600.00
03605               4.80     4400.00
03606               5.00     4400.00
03607               6.60     4400.00
03608               5.20     4400.00
03609               5.00     4400.00
03610               5.40     4400.00
03611               5.00     4200.00
03612               3.80     4400.00
03613               4.60     4200.00
03614               5.20     4200.00
03615               4.20     4000.00
03616               4.60     4000.00
03617               4.60     4000.00
03618               3.60     4000.00
03619               4.20     4000.00
03620               4.40     4000.00
03621               3.60     4000.00
03622               3.80     3800.00
03623               4.20     3800.00
03624               4.20     3800.00
03625               3.60     3600.00
03626               3.60     3600.00
03627               3.40     3600.00
03628               3.40     3600.00
03629               3.60     3600.00
03630               3.00     3600.00
03631               3.00     3600.00
03632               3.60     3200.00
03633               3.00     3200.00
03634               2.60     3200.00
03635               2.80     3200.00
03636               3.00     3200.00
03637               3.00     3200.00
03638               2.60     3200.00
03639               3.00     3000.00
03640               2.80     3000.00
03641               2.60     3000.00
03642               2.60     3000.00
03643               3.20     3000.00
03644               2.00     2800.00
03645               2.20     2800.00
03646               3.00     2800.00
03647               2.20     2800.00
03648               2.00     2600.00
03649               2.60     2600.00
03650               2.00     2400.00
03651               1.80     2400.00
03652               2.00     2400.00
03653               2.60     2400.00
03654               1.80     2400.00
03655               1.40     2200.00
03656               2.20     2200.00
03657               1.80     2200.00
03658               1.20     2200.00
03659               1.40     2000.00
03660               1.80     2000.00
03661               1.40     2000.00
03662               1.20     1800.00
03663               1.60     1800.00
03664               1.20     1600.00
03665               1.00     1800.00
03666               1.80     1600.00
03667               0.80     1600.00
03668               0.80     1400.00
03669               1.40     1400.00
03670               1.20     1200.00
03671               0.60     1200.00
03672               1.00     1200.00
03673               0.60     1200.00
03674               1.00     1000.00
03675               0.60      800.00
03676               0.40      800.00
03677               0.20      800.00
03678               0.40      800.00
03679               0.40      600.00
03680              -0.40      600.00
03681               0.40      600.00
03682               0.40      400.00
03683              -0.40      400.00
03684               0.00      400.00
03685               0.20      400.00
03686              -0.20      200.00
03687              -0.40      200.00
03688              -0.40        0.00
03689               0.20        0.00
03690               0.00        0.00
03691              -0.60     -200.00
03692              -0.20     -200.00
03693               0.20     -200.00
03694              -0.60     -200.00
03695              -0.40     -400.00
03696              -0.40     -200.00
03697              -1.20     -400.00
03698              -0.60     -400.00
03699               7.80     -400.00
03700              11.60     -600.00
03701             -25.00     -800.00
03702             -21.40     -400.00
03703              25.00     -800.00
03704              19.00     -800.00
03705             -25.00    -1000.00
03706              -7.20     -800.00
03707              25.00    -1000.00
03708             -11.40    -1600.00
03709             -25.00    -1000.00
03710              25.00    -1200.00
03711              25.00    -1600.00
03712             -25.00    -1400.00
03713             -25.00    -1200.00
03714              25.00    -1600.00
03715              25.00    -1800.00
03716             -25.00    -1400.00
03717              25.00    -1600.00
03718              25.00    -2000.00
03719             -25.00    -1600.00
03720             -25.00    -2000.00
03721              25.00    -2000.00
03722               9.00    -2000.00
03723             -25.00    -2000.00
03724              25.00    -2000.00
03725              25.00    -2400.00
03726             -25.00    -2000.00
03727             -25.00    -2400.00
03728              25.00    -2400.00
03729               3.40    -2400.00
03730             -25.00    -2600.00
03731              20.20    -2400.00
03732              25.00    -2600.00
03733             -25.00    -2600.00
03734             -25.00    -2800.00
03735              25.00    -3000.00
03736               5.80    -2800.00
03737             -25.00    -2800.00
03738              25.00    -2800.00
03739              25.00    -3000.00
03740             -25.00    -3000.00
03741               0.60    -3000.00
03742              25.00    -3200.00
03743             -25.00    -3200.00
03744             -24.20    -3400.00
03745              25.00    -3400.00
03746              -6.00    -3200.00
03747             -25.00    -3600.00
03748               9.40    -3400.00
03749              12.60    -3400.00
03750             -21.20    -3400.00
03751             -11.80    -3600.00
03752              16.40    -3600.00
03753              -7.00    -3600.00
03754             -23.00    -3600.00
03755              10.60    -3800.00
03756               4.20    -3600.00
03757             -24.40    -3800.00
03758               1.20    -4000.00
03759               9.20    -4000.00
03760             -18.00    -3800.00
03761              -9.60    -4000.00
03762               8.40    -4200.00
03763              -7.60    -4000.00
03764             -15.00    -4000.00
03765               3.60    -4200.00
03766              -1.00    -4200.00
03767             -16.60    -4200.00
03768              -3.60    -4400.00
03769               4.20    -4400.00
03770             -11.80    -4400.00
03771             -11.20    -4200.00
03772               3.00    -4400.00
03773              -4.60    -4400.00
03774             -14.80    -4400.00
03775              -3.20    -4400.00
03776               0.60    -4600.00
03777             -12.00    -4400.00
03778              -8.80    -4400.00
03779               0.80    -4600.00
03780              -7.80    -4800.00
03781             -13.20    -4600.00
03782              -2.00    -4600.00
03783              -2.20    -4800.00
03784             -12.60    -4600.00
03785              -7.40    -4600.00
03786              -1.20    -4800.00
03787              -9.40    -4600.00
03788             -11.40    -4600.00
03789              -3.40    -4800.00
03790              -5.40    -4800.00
03791             -11.60    -4600.00
03792              -6.80    -5000.00
03793              -4.20    -4800.00
03794             -10.00    -5000.00
03795              -9.80    -4600.00
03796              -5.20    -5000.00
03797              -7.00    -4800.00
03798             -10.40    -5000.00
03799              -7.00    -5000.00
03800              -6.00    -5000.00
03801             -10.00    -5000.00
03802              -9.20    -5000.00
03803              -7.00    -4800.00
03804              -8.40    -5000.00
03805             -10.00    -5000.00
03806              -7.80    -5000.00
03807              -7.80    -5000.00
03808              -9.80    -5000.00
03809              -8.60    -5000.00
03810              -8.20    -5000.00
03811              -9.20    -5000.00
03812              -9.40    -5000.00
03813              -8.20    -5000.00
03814              -8.40    -5000.00
03815              -9.80    -5000.00
03816              -9.20    -5000.00
03817              -8.20    -5000.00
03818              -9.00    -5000.00
03819              -9.00    -4800.00
03820              -8.60    -4800.00
03821              -8.60    -5000.00
03822              -8.40    -5000.00
03823              -8.00    -5000.00
03824              -8.60    -5000.00
03825              -8.20    -4800.00
03826              -7.80    -4600.00
03827              -7.80    -4800.00
03828              -7.60    -5000.00
03829              -8.20    -4800.00
03830              -7.40    -4800.00
03831              -7.00    -4600.00
03832              -7.60    -4800.00
03833              -7.60    -4600.00
03834              -6.00    -4600.00
03835              -7.60    -4800.00
03836              -7.00    -4600.00
03837              -6.20    -4600.00
03838              -7.00    -4600.00
03839              -7.00    -4600.00
03840              -6.00    -4400.00
03841              -6.40    -4400.00
03842              -6.20    -4600.00
03843              -6.00    -4400.00
03844              -6.00    -4400.00
03845              -5.40    -4400.00
03846              -6.00    -4400.00
03847              -6.80    -4400.00
03848              -5.00    -4400.00
03849              -5.20    -4400.00
03850              -6.20    -4400.00
03851              -5.20    -4200.00
03852              -4.60    -4200.00
03853              -6.00    -4200.00
03854              -5.40    -4200.00
03855              -4.20    -4200.00
03856              -5.20    -4200.00
03857              -5.60    -4000.00
03858              -4.60    -4200.00
03859              -4.20    -4000.00
03860              -5.00    -4000.00
03861              -4.80    -4000.00
03862              -4.20    -4000.00
03863              -3.80    -3800.00
03864              -4.60    -4000.00
03865              -4.60    -3800.00
03866              -3.80    -3600.00
03867              -3.80    -3600.00
03868              -4.40    -3600.00
03869              -3.80    -3600.00
03870              -3.60    -3600.00
03871              -5.00    -3600.00
03872              -3.60    -3400.00
03873              -3.00    -3400.00
03874              -4.40    -3400.00
03875              -4.20    -3400.00
03876              -2.80    -3200.00
03877              -3.80    -3200.00
03878              -3.60    -3200.00
03879              -2.80    -3200.00
03880              -3.40    -3200.00
03881              -4.00    -3000.00
03882              -3.00    -3000.00
03883              -3.00    -3000.00
03884              -3.60    -2800.00
03885              -2.80    -2800.00
03886              -2.60    -2800.00
03887              -3.00    -2800.00
03888              -2.80    -2600.00
03889              -2.80    -2600.00
03890              -2.80    -2400.00
03891              -2.60    -2600.00
03892              -2.40    -2400.00
03893              -2.80    -2400.00
03894              -2.80    -2400.00
03895              -2.20    -2400.00
03896              -2.60    -2400.00
03897              -2.40    -2200.00
03898              -2.20    -2000.00
03899              -2.00    -1800.00
03900              -2.20    -2000.00
03901              -2.00    -1800.00
03902              -2.00    -1800.00
03903              -2.00    -1800.00
03904              -2.00    -1800.00
03905              -1.20    -1800.00
03906              -1.20    -1600.00
03907              -2.60    -1600.00
03908              -1.80    -1600.00
03909              -0.60    -1600.00
03910              -2.00    -1200.00
03911              -2.20    -1200.00
03912               0.20    -1200.00
03913              -1.80    -1200.00
03914              -2.20    -1000.00
03915              -0.20    -1000.00
03916              -1.00     -800.00
03917              -1.60     -800.00
03918              -1.00    -1000.00
03919              -0.60     -800.00
03920               0.00     -800.00
03921              -1.80     -400.00
03922              -1.20     -800.00
03923               1.00     -400.00
03924              -1.20     -400.00
03925              -2.80     -400.00
03926               1.20     -200.00
03927               0.40     -200.00
03928              -3.00     -200.00
03929               1.00     -200.00
03930               1.80        0.00
03931              -2.20     -200.00
03932              -0.60        0.00
03933               1.60        0.00
03934              -0.20      200.00
03935              -0.80        0.00
03936               0.40      200.00
03937               0.40      200.00
03938               0.20      400.00
03939               1.20      600.00
03940               9.20      600.00
03941               3.60      600.00
03942             -25.00      600.00
03943              -5.40      600.00
03944              25.00      800.00
03945               7.80      800.00
03946             -25.00      800.00
03947              20.20     1200.00
03948              25.00     1200.00
03949             -25.00     1200.00
03950             -25.00     1200.00
03951              25.00     1400.00
03952              25.00     1200.00
03953             -25.00     1400.00
03954             -17.20     1600.00
03955              25.00     1400.00
03956             -17.20     1800.00
03957             -25.00     1600.00
03958              25.00     1800.00
03959              25.00     1800.00
03960             -25.00     2000.00
03961               5.00     2000.00
03962              25.00     1800.00
03963             -25.00     2000.00
03964             -25.00     2200.00
03965              25.00     2000.00
03966              25.00     2200.00
03967             -25.00     2400.00
03968               7.40     2400.00
03969              25.00     2400.00
03970             -25.00     2600.00
03971             -25.00     2600.00
03972              25.00     2400.00
03973              25.00     2800.00
03974             -25.00     2800.00
03975               9.20     2800.00
03976              25.00     2800.00
03977             -25.00     2800.00
03978             -25.00     3000.00
03979              25.00     2800.00
03980               6.20     3000.00
03981             -25.00     3200.00
03982              25.00     3000.00
03983              25.00     3200.00
03984             -25.00     3200.00
03985               0.20     3200.00
03986              25.00     3200.00
03987             -13.00     3600.00
03988             -20.20     3400.00
03989              25.00     3600.00
03990              12.20     3600.00
03991             -23.40     3600.00
03992              10.20     3600.00
03993              24.00     3800.00
03994             -13.20     3600.00
03995              -5.00     3800.00
03996              23.80     3800.00
03997               1.80     3800.00
03998             -13.40     3800.00
03999              16.40     3800.00
04000              14.20     4000.00
04001             -12.40     4000.00
04002               4.40     4000.00
04003              18.60     4000.00
04004              -3.00     4000.00
04005              -3.60     4000.00
04006              15.40     4000.00
04007               6.60     4400.00
04008              -6.00     4000.00
04009               9.40     4400.00
04010              12.60     4400.00
04011              -3.40     4400.00
04012               2.80     4400.00
04013              14.20     4400.00
04014               3.40     4400.00
04015              -2.00     4400.00
04016              11.00     4400.00
04017               9.20     4600.00
04018              -1.80     4600.00
04019               6.80     4600.00
04020              12.40     4600.00
04021               1.40     4600.00
04022               2.20     4600.00
04023              12.40     4600.00
04024               7.40     4600.00
04025              -0.20     4800.00
04026               9.00     4600.00
04027              11.60     4800.00
04028               2.20     4800.00
04029               4.40     4800.00
04030              11.40     4800.00
04031               6.80     4800.00
04032               3.40     4800.00
04033               9.20     4800.00
04034               9.20     4800.00
04035               4.40     4800.00
04036               7.60     4800.00
04037              10.20     4800.00
04038               5.80     4800.00
04039               6.00     4800.00
04040              10.00     5200.00
04041               8.40     4800.00
04042               5.40     4800.00
04043               8.40     4800.00
04044               9.80     4800.00
04045               6.80     5000.00
04046               7.40     4800.00
04047               9.80     4800.00
04048               8.20     4800.00
04049               6.80     5000.00
04050               9.60     4800.00
04051               9.00     5000.00
04052               6.40     5000.00
04053               9.20     5000.00
04054               9.80     5000.00
04055               7.40     4800.00
04056               8.40     5000.00
04057               8.60     4800.00
04058               8.60     4800.00
04059               7.40     4800.00
04060               8.40     4800.00
04061               8.20     4800.00
04062               6.40     4800.00
04063               9.80     4800.00
04064               8.20     4800.00
04065               5.40     4800.00
04066               9.00     4800.00
04067               8.20     4800.00
04068               6.00     4800.00
04069               7.00     4800.00
04070               7.80     4800.00
04071               6.00     4600.00
04072               6.60     4800.00
04073               7.40     4800.00
04074               6.40     4800.00
04075               5.80     4600.00
04076               6.20     4800.00
04077               6.60     4600.00
04078               5.80     4600.00
04079               5.40     4600.00
04080               6.80     4600.00
04081               5.80     4600.00
04082               4.40     4400.00
04083               6.60     4400.00
04084               5.60     4600.00
04085               3.60     4400.00
04086               5.80     4400.00
04087               6.40     4400.00
04088               3.60     4400.00
04089               5.00     4400.00
04090               6.20     4400.00
04091               4.40     4200.00
04092               4.60     4400.00
04093               4.80     4200.00
04094               4.60     4000.00
04095               5.00     4200.00
04096               4.20     4000.00
04097               4.40     4000.00
04098               4.20     4000.00
04099               4.00     4000.00
04100               4.20     4000.00
04101               4.20     4000.00
04102               3.40     3800.00
04103               3.80     3800.00
04104               5.20     3600.00
04105               3.60     3800.00
04106               3.00     3800.00
04107               4.60     3800.00
04108               3.20     3600.00
04109               3.60     3600.00
04110               3.60     3600.00
04111               3.00     3400.00
04112               3.60     3400.00
04113               3.00     3200.00
04114               3.40     3200.00
04115               3.40     3200.00
04116               2.80     3200.00
04117               2.60     3200.00
04118               3.60     3200.00
04119               3.00     3200.00
04120               2.00     3000.00
04121               3.40     3000.00
04122               3.60     2800.00
04123               1.80     3000.00
04124               2.60     2800.00
04125               2.80     2800.00
04126               1.20     2800.00
04127               2.40     2600.00
04128               3.40     2600.00
04129               1.20     2400.00
04130               2.00     2400.00
04131               3.60     2400.00
04132               1.80     2400.00
04133               1.20     2200.00
04134               2.60     2200.00
04135               1.40     2200.00
04136               0.40     2200.00
04137               2.20     2000.00
04138               2.20     2000.00
04139               1.00     2000.00
04140               1.00     2000.00
04141               2.60     1800.00
04142               1.20     1800.00
04143               0.40     1600.00
04144               2.00     1800.00
04145               1.60     1800.00
04146               0.60     1600.00
04147               1.20     1800.00
04148               1.00     1400.00
04149               0.40     1400.00
04150               0.60     1200.00
04151               1.00     1200.00
04152               0.80     1200.00
04153               0.40     1200.00
04154               0.40      800.00
04155               1.00     1000.00
04156               0.60      800.00
04157               0.40      800.00
04158               0.60      800.00
04159               0.60      600.00
04160               0.40      600.00
04161               0.20      600.00
04162               0.20      600.00
04163              -0.20      400.00
04164               0.20      400.00
04165               0.40      400.00
04166               0.20      200.00
04167               0.20      400.00
04168              -0.40      200.00
04169               0.40        0.00
04170               0.60        0.00
04171              -0.40        0.00
04172              -0.20        0.00
04173               0.20     -200.00
04174              -0.40     -200.00
04175              -0.40     -400.00
04176              -0.40     -400.00
04177              -0.60     -400.00
04178              -0.20     -400.00
04179               4.40     -400.00
04180              14.80     -800.00
04181             -20.00    -1000.00
04182             -25.00     -600.00
04183              25.00     -800.00
04184              25.00     -800.00
04185             -25.00    -1200.00
04186             -25.00     -800.00
04187              25.00    -1000.00
04188              25.00    -1400.00
04189             -25.00    -1200.00
04190               9.40    -1200.00
04191              25.00    -1200.00
04192             -25.00    -1600.00
04193             -25.00    -1200.00
04194              25.00    -1400.00
04195              25.00    -1800.00
04196             -25.00    -1600.00
04197              -5.40    -1800.00
04198              25.00    -1800.00
04199             -25.00    -1800.00
04200             -25.00    -2000.00
04201              25.00    -2000.00
04202              25.00    -2200.00
04203             -25.00    -2000.00
04204              12.20    -2000.00
04205              25.00    -2400.00
04206             -25.00    -2000.00
04207             -25.00    -2400.00
04208              25.00    -2400.00
04209              25.00    -2400.00
04210             -25.00    -2400.00
04211              -7.00    -2600.00
04212              25.00    -2600.00
04213             -22.20    -2600.00
04214             -25.00    -2800.00
04215              25.00    -2800.00
04216              25.00    -2600.00
04217             -25.00    -2800.00
04218               8.20    -2800.00
04219              25.00    -3000.00
04220             -25.00    -2800.00
04221             -25.00    -3000.00
04222              25.00    -3400.00
04223             -17.00    -3200.00
04224             -25.00    -3200.00
04225              25.00    -3200.00
04226               8.40    -3200.00
04227             -25.00    -3400.00
04228               1.00    -3400.00
04229              17.00    -3600.00
04230             -14.60    -3400.00
04231             -18.80    -3600.00
04232              13.20    -3600.00
04233               2.20    -3600.00
04234             -25.00    -3800.00
04235               3.60    -3800.00
04236              10.80    -3600.00
04237             -22.00    -3800.00
04238              -6.00    -4000.00
04239              12.60    -4000.00
04240             -12.40    -4000.00
04241             -15.00    -4000.00
04242               7.60    -4000.00
04243              -2.60    -4000.00
04244             -17.40    -4200.00
04245               0.00    -4000.00
04246               3.60    -4200.00
04247             -14.60    -4200.00
04248              -8.00    -4200.00
04249               5.20    -4400.00
04250              -8.20    -4400.00
04251             -14.20    -4200.00
04252               1.60    -4400.00
04253              -1.60    -4400.00
04254             -14.20    -4400.00
04255              -5.80    -4400.00
04256               1.20    -4400.00
04257             -10.00    -4400.00
04258             -10.80    -4400.00
04259              -0.60    -4600.00
04260              -5.40    -4600.00
04261             -12.00    -4800.00
04262              -4.20    -4600.00
04263              -3.00    -4600.00
04264             -11.40    -4600.00
04265              -8.00    -4600.00
04266              -2.80    -4800.00
04267              -8.20    -4800.00
04268             -11.00    -4800.00
04269              -4.60    -4600.00
04270              -5.40    -4800.00
04271             -10.20    -4800.00
04272              -7.40    -4800.00
04273              -6.60    -4600.00
04274              -9.40    -5000.00
04275              -7.00    -5000.00
04276              -6.00    -4800.00
04277             -10.80    -5000.00
04278              -8.60    -5000.00
04279              -4.40    -4800.00
04280              -9.40    -5000.00
04281             -11.00    -4800.00
04282              -6.00    -4800.00
04283              -8.00    -5000.00
04284             -11.00    -5200.00
04285              -7.80    -5000.00
04286              -6.60    -5000.00
04287             -10.20    -5000.00
04288             -10.20    -5000.00
04289              -7.20    -5000.00
04290              -8.40    -5000.00
04291             -10.20    -5000.00
04292              -8.60    -5000.00
04293              -7.80    -5000.00
04294              -9.40    -4800.00
04295              -9.60    -5000.00
04296              -8.40    -5000.00
04297              -9.20    -5000.00
04298              -9.00    -5000.00
04299              -7.40    -5000.00
04300              -9.00    -5000.00
04301              -9.80    -4800.00
04302              -7.40    -5000.00
04303              -7.40    -4800.00
04304              -9.40    -4600.00
04305              -7.60    -5000.00
04306              -6.20    -4600.00
04307              -8.60    -4800.00
04308              -8.60    -4800.00
04309              -6.00    -4600.00
04310              -7.60    -4800.00
04311              -9.20    -4600.00
04312              -6.00    -4800.00
04313              -6.00    -4600.00
04314              -9.00    -4800.00
04315              -7.00    -4600.00
04316              -5.00    -4600.00
04317              -7.80    -4600.00
04318              -7.60    -4600.00
04319              -5.40    -4600.00
04320              -6.20    -4600.00
04321              -7.40    -4400.00
04322              -6.00    -4400.00
04323              -5.00    -4400.00
04324              -6.80    -4600.00
04325              -6.20    -4400.00
04326              -5.20    -4400.00
04327              -6.00    -4400.00
04328              -6.80    -4200.00
04329              -5.00    -4400.00
04330              -5.00    -4400.00
04331              -6.00    -4200.00
04332              -5.40    -4400.00
04333              -4.80    -4200.00
04334              -5.20    -4200.00
04335              -6.00    -4200.00
04336              -4.20    -4200.00
04337              -4.60    -4200.00
04338              -6.00    -4000.00
04339              -4.60    -4000.00
04340              -3.60    -4200.00
04341              -5.40    -4000.00
04342              -5.40    -4000.00
04343              -3.60    -3800.00
04344              -4.00    -3800.00
04345              -5.40    -3800.00
04346              -4.40    -3600.00
04347              -3.40    -3800.00
04348              -4.60    -3600.00
04349              -4.40    -3600.00
04350              -3.80    -3600.00
04351              -3.80    -3600.00
04352              -4.40    -3400.00
04353              -3.80    -3400.00
04354              -3.60    -3400.00
04355              -3.80    -3400.00
04356              -3.60    -3200.00
04357              -3.40    -3200.00
04358              -3.40    -3200.00
04359              -3.20    -3200.00
04360              -3.80    -3000.00
04361              -3.60    -3000.00
04362              -2.80    -3000.00
04363              -3.60    -2800.00
04364              -3.00    -2800.00
04365              -2.60    -2800.00
04366              -2.80    -2800.00
04367              -3.00    -2800.00
04368              -2.60    -2600.00
04369              -2.40    -2600.00
04370              -2.80    -2400.00
04371              -2.40    -2400.00
04372              -1.80    -2400.00
04373              -2.60    -2400.00
04374              -3.00    -2400.00
04375              -1.80    -2200.00
04376              -2.00    -2200.00
04377              -2.80    -2000.00
04378              -2.00    -2000.00
04379              -1.80    -2000.00
04380              -2.20    -2000.00
04381              -1.40    -1800.00
04382              -1.40    -1800.00
04383              -2.00    -1800.00
04384              -1.40    -1600.00
04385              -1.40    -1800.00
04386              -1.80    -1600.00
04387              -1.60    -1600.00
04388              -1.40    -1600.00
04389              -1.60    -1600.00
04390              -1.40    -1200.00
04391              -1.20    -1400.00
04392              -1.40    -1200.00
04393              -1.60    -1000.00
04394              -1.20    -1200.00
04395              -1.00    -1000.00
04396              -1.40    -1000.00
04397              -1.20    -1000.00
04398              -0.60    -1000.00
04399              -1.20     -800.00
04400              -1.20     -800.00
04401              -0.80     -800.00
04402              -1.00     -600.00
04403              -1.20     -600.00
04404              -1.00     -400.00
04405              -0.60     -400.00
04406              -0.80     -400.00
04407              -1.00     -200.00
04408              -0.40     -200.00
04409              -0.40        0.00
04410              -0.40     -200.00
04411              -0.40        0.00
04412              -0.40        0.00
04413               0.00        0.00
04414               0.40        0.00
04415               0.00      400.00
04416              -0.60      200.00
04417               0.20      400.00
04418               0.20      400.00
04419               1.00      600.00
04420               6.80      800.00
04421               9.20      800.00
04422             -25.00      600.00
04423             -23.20      600.00
04424              25.00      800.00
04425              24.40     1000.00
04426             -25.00      800.00
04427             -20.00     1200.00
04428              25.00     1200.00
04429               8.60     1200.00
04430             -25.00     1000.00
04431              25.00     1400.00
04432              25.00     1200.00
04433             -25.00     1600.00
04434             -25.00     1400.00
04435              25.00     1800.00
04436              25.00     1600.00
04437             -25.00     1800.00
04438              25.00     2000.00
04439              25.00     1800.00
04440             -25.00     2000.00
04441             -25.00     2000.00
04442              25.00     2000.00
04443               2.00     2200.00
04444             -25.00     2200.00
04445              25.00     2200.00
04446              25.00     2200.00
04447             -25.00     2400.00
04448             -24.20     2400.00
04449              25.00     2200.00
04450               1.00     2600.00
04451             -25.00     2400.00
04452              25.00     2400.00
04453              25.00     2600.00
04454             -25.00     2800.00
04455             -15.60     2800.00
04456              25.00     2600.00
04457              -9.80     2800.00
04458             -25.00     2800.00
04459              25.00     3000.00
04460              25.00     3200.00
04461             -25.00     3000.00
04462              11.80     3200.00
04463              25.00     3000.00
04464             -25.00     3200.00
04465             -17.00     3200.00
04466              25.00     3200.00
04467               1.80     3400.00
04468             -25.00     3400.00
04469              20.60     3200.00
04470              22.40     3600.00
04471             -22.00     3400.00
04472               0.80     3400.00
04473              25.00     3600.00
04474              -5.40     3600.00
04475             -12.40     3800.00
04476              21.00     3800.00
04477              10.00     4000.00
04478             -15.80     3600.00
04479              10.00     3800.00
04480              19.00     4000.00
04481              -9.20     4000.00
04482              -1.80     4000.00
04483              18.80     4000.00
04484               2.20     4000.00
04485              -7.20     4200.00
04486              13.20     4000.00
04487              10.80     4200.00
04488              -6.20     4400.00
04489               5.80     4400.00
04490              14.60     4200.00
04491              -0.40     4200.00
04492              -0.60     4400.00
04493              13.40     4400.00
04494               7.00     4400.00
04495              -2.80     4400.00
04496               8.40     4400.00
04497              11.60     4400.00
04498               0.20     4600.00
04499               3.80     4600.00
04500              11.60     4600.00
04501               5.20     4600.00
04502               1.80     4800.00
04503              10.00     4400.00
04504               9.00     4600.00
04505               1.80     4600.00
04506               6.60     4600.00
04507              11.40     4800.00
04508               5.20     4800.00
04509               3.40     4800.00
04510              10.20     4800.00
04511               8.40     4800.00
04512               3.40     4600.00
04513               7.60     4800.00
04514              10.20     4800.00
04515               5.20     4800.00
04516               6.20     4800.00
04517              10.60     4800.00
04518               7.60     4800.00
04519               5.20     4800.00
04520               9.40     4800.00
04521               9.60     5000.00
04522               6.00     4800.00
04523               7.40     4800.00
04524               9.80     4800.00
04525               7.60     5000.00
04526               6.80     4800.00
04527               9.20     4800.00
04528               8.60     4800.00
04529               6.80     5000.00
04530               8.60     4800.00
04531               9.20     4800.00
04532               7.60     4800.00
04533               7.80     4800.00
04534               9.40     4800.00
04535               8.40     4800.00
04536               7.40     4800.00
04537               8.60     5200.00
04538               8.60     5000.00
04539               7.00     4800.00
04540               8.20     5000.00
04541               8.20     4800.00
04542               7.40     4800.00
04543               7.60     4800.00
04544               8.40     4800.00
04545               7.40     4800.00
04546               6.80     5000.00
04547               7.60     4800.00
04548               8.20     4800.00
04549               6.20     4800.00
04550               7.20     4800.00
04551               7.40     4800.00
04552               6.60     4800.00
04553               6.60     4800.00
04554               7.40     4600.00
04555               6.60     4800.00
04556               5.80     4600.00
04557               6.20     4800.00
04558               6.80     4800.00
04559               5.60     4600.00
04560               5.40     4800.00
04561               6.60     4600.00
04562               6.00     4400.00
04563               5.40     4400.00
04564               5.40     4400.00
04565               5.80     4600.00
04566               5.40     4400.00
04567               5.40     4400.00
04568               5.40     4400.00
04569               5.20     4400.00
04570               5.20     4400.00
04571               5.20     4400.00
04572               5.20     4400.00
04573               4.20     4400.00
04574               4.60     4000.00
04575               4.80     4200.00
04576               4.80     4000.00
04577               3.80     4200.00
04578               4.20     4000.00
04579               4.60     4000.00
04580               4.20     4000.00
04581               4.20     4000.00
04582               4.40     3800.00
04583               3.60     3800.00
04584               3.80     4000.00
04585               4.20     3800.00
04586               3.80     3800.00
04587               3.40     3600.00
04588               3.60     3600.00
04589               3.60     3600.00
04590               3.20     3600.00
04591               3.20     3400.00
04592               3.40     3600.00
04593               2.80     3400.00
04594               3.40     3400.00
04595               3.40     3200.00
04596               2.60     3200.00
04597               2.80     3200.00
04598               3.40     3200.00
04599               2.60     3000.00
04600               2.60     3000.00
04601               2.80     3000.00
04602               2.20     3000.00
04603               2.40     2800.00
04604               2.40     2800.00
04605               2.60     2800.00
04606               2.20     2800.00
04607               2.20     2800.00
04608               2.20     2800.00
04609               2.20     2600.00
04610               2.00     2600.00
04611               2.00     2400.00
04612               2.00     2400.00
04613               2.00     2400.00
04614               1.80     2200.00
04615               2.00     2200.00
04616               1.80     2200.00
04617               1.80     2200.00
04618               1.40     2200.00
04619               1.40     2000.00
04620               1.40     2000.00
04621               1.20     1800.00
04622               1.40     2000.00
04623               1.40     1800.00
04624               1.00     1800.00
04625               1.20     1600.00
04626               1.80     1600.00
04627               1.00     1600.00
04628               0.60     1400.00
04629               1.80     1400.00
04630               0.80     1400.00
04631               0.80     1200.00
04632               1.40     1200.00
04633               0.40     1200.00
04634               1.40     1200.00
04635               0.20     1200.00
04636               0.80     1000.00
04637               1.20      800.00
04638              -0.60      800.00
04639               0.60      800.00
04640               1.60      600.00
04641              -0.40      600.00
04642              -0.60      600.00
04643               1.80      600.00
04644               0.20      400.00
04645              -1.80      400.00
04646               1.80      400.00
04647               0.40      200.00
04648              -1.80      200.00
04649               0.20      200.00
04650               1.00        0.00
04651              -1.00        0.00
04652              -1.00        0.00
04653               1.00     -200.00
04654              -0.20     -200.00
04655              -1.20     -200.00
04656              -0.40     -400.00
04657              -0.20     -400.00
04658              -1.00     -400.00
04659               1.80     -400.00
04660              15.00     -600.00
04661              -6.60     -800.00
04662             -25.00     -400.00
04663              25.00     -800.00
04664              25.00     -800.00
04665             -25.00    -1000.00
04666             -25.00     -800.00
04667              25.00    -1000.00
04668              25.00    -1200.00
04669             -25.00    -1200.00
04670             -25.00    -1200.00
04671              25.00    -1200.00
04672              11.60    -1600.00
04673             -25.00    -1200.00
04674              25.00    -1400.00
04675              25.00    -1800.00
04676             -25.00    -1600.00
04677             -25.00    -1600.00
04678              25.00    -1800.00
04679              16.40    -1800.00
04680             -25.00    -1800.00
04681              25.00    -2000.00
04682              25.00    -2000.00
04683             -25.00    -1800.00
04684             -25.00    -2200.00
04685              25.00    -2200.00
04686             -11.60    -2400.00
04687             -25.00    -2400.00
04688              25.00    -2400.00
04689              25.00    -2600.00
04690             -25.00    -2400.00
04691             -25.00    -2600.00
04692              25.00    -2600.00
04693               7.60    -2600.00
04694             -25.00    -2800.00
04695              25.00    -2800.00
04696              25.00    -2800.00
04697             -25.00    -2800.00
04698             -21.00    -2800.00
04699              25.00    -3000.00
04700             -25.00    -3000.00
04701             -25.00    -3200.00
04702              25.00    -3200.00
04703               5.40    -3200.00
04704             -25.00    -3200.00
04705              18.60    -3200.00
04706              20.80    -3400.00
04707             -25.00    -3400.00
04708              -9.00    -3400.00
04709              18.60    -3400.00
04710              -6.00    -3600.00
04711             -23.60    -3600.00
04712               7.60    -3600.00
04713               9.80    -3600.00
04714             -23.80    -3600.00
04715              -5.20    -3800.00
04716              15.40    -3800.00
04717             -16.60    -4000.00
04718             -14.20    -4000.00
04719              13.00    -3800.00
04720              -5.40    -4000.00
04721             -19.40    -4200.00
04722               5.00    -4000.00
04723               2.60    -4000.00
04724             -17.40    -4200.00
04725              -5.00    -4200.00
04726               5.80    -4200.00
04727             -11.20    -4200.00
04728             -12.60    -4200.00
04729               4.60    -4200.00
04730              -3.80    -4200.00
04731             -16.20    -4400.00
04732              -1.80    -4400.00
04733               1.40    -4400.00
04734             -13.00    -4400.00
04735              -9.40    -4600.00
04736               1.80    -4400.00
04737              -6.80    -4400.00
04738             -13.40    -4400.00
04739              -1.80    -4400.00
04740              -2.60    -4600.00
04741             -12.80    -4600.00
04742              -7.00    -4800.00
04743              -1.20    -4600.00
04744              -9.20    -4600.00
04745             -11.00    -4600.00
04746              -2.80    -4800.00
04747              -5.00    -4600.00
04748             -12.60    -4800.00
04749              -6.80    -4600.00
04750              -3.00    -4800.00
04751             -10.00    -4800.00
04752              -9.80    -5000.00
04753              -4.40    -4800.00
04754              -7.00    -4600.00
04755             -10.60    -5000.00
04756              -6.80    -5000.00
04757              -5.40    -4800.00
04758             -10.00    -5000.00
04759              -9.20    -4800.00
04760              -6.00    -5000.00
04761              -8.60    -5000.00
04762             -10.40    -4800.00
04763              -6.80    -5000.00
04764              -7.80    -5000.00
04765              -9.60    -4800.00
04766              -7.20    -5000.00
04767              -7.40    -5000.00
04768             -11.00    -5000.00
04769              -7.20    -5000.00
04770              -9.40    -5200.00
04771             -13.20    -4600.00
04772              -6.20    -5000.00
04773             -10.60    -4800.00
04774              -3.00    -5000.00
04775              -7.60    -4800.00
04776              -9.60    -5000.00
04777              -9.20    -5000.00
04778              -9.20    -5000.00
04779             -11.40    -5000.00
04780             -11.40    -4800.00
04781              -8.40    -5000.00
04782              -6.00    -5000.00
04783              -5.00    -5000.00
04784              -8.40    -5000.00
04785              -5.80    -5000.00
04786             -10.00    -4600.00
04787              -9.40    -4800.00
04788             -11.40    -4800.00
04789              -9.80    -4800.00
04790              -3.80    -4600.00
04791              -7.60    -4800.00
04792              -5.60    -4600.00
04793              -4.20    -4600.00
04794              -8.60    -4800.00
04795             -10.20    -4600.00
04796              -8.40    -4800.00
04797              -7.40    -4600.00
04798              -6.20    -4600.00
04799              -6.80    -4600.00
04800              -5.00    -4400.00
04801              -4.20    -4600.00
04802              -7.40    -4600.00
04803              -6.80    -4400.00
04804              -7.00    -4600.00
04805              -7.40    -4400.00
04806              -6.20    -4400.00
04807              -6.00    -4400.00
04808              -5.00    -4400.00
04809              -4.60    -4400.00
04810              -5.40    -4400.00
04811              -5.20    -4400.00
04812              -5.80    -4200.00
04813              -5.80    -4200.00
04814              -5.80    -4200.00
04815              -5.00    -4200.00
04816              -4.60    -4200.00
04817              -5.40    -4000.00
04818              -4.80    -4200.00
04819              -3.80    -4200.00
04820              -4.20    -4000.00
04821              -4.80    -4000.00
04822              -5.00    -4000.00
04823              -4.60    -4000.00
04824              -4.40    -4000.00
04825              -5.00    -3800.00
04826              -4.00    -4000.00
04827              -3.60    -3600.00
04828              -3.80    -3600.00
04829              -3.80    -3600.00
04830              -3.80    -3600.00
04831              -3.80    -3600.00
04832              -4.40    -3600.00
04833              -3.80    -3600.00
04834              -3.80    -3400.00
04835              -3.60    -3400.00
04836              -3.00    -3400.00
04837              -2.80    -3200.00
04838              -3.40    -3200.00
04839              -3.40    -3200.00
04840              -3.60    -3200.00
04841              -3.80    -3200.00
04842              -2.80    -3000.00
04843              -2.80    -2800.00
04844              -2.80    -2800.00
04845              -2.80    -2800.00
04846              -2.80    -2800.00
04847              -2.80    -2600.00
04848              -3.40    -2800.00
04849              -3.00    -2600.00
04850              -2.60    -2600.00
04851              -2.80    -2600.00
04852              -2.60    -2400.00
04853              -2.00    -2400.00
04854              -2.60    -2400.00
04855              -3.00    -2400.00
04856              -2.20    -2400.00
04857              -2.60    -2000.00
04858              -2.80    -2000.00
04859              -2.00    -2200.00
04860              -2.40    -2000.00
04861              -2.00    -2000.00
04862              -1.60    -2000.00
04863              -2.20    -1800.00
04864              -2.80    -1800.00
04865              -0.60    -1800.00
04866              -2.00    -1800.00
04867              -2.20    -1600.00
04868              -1.80    -1400.00
04869              -1.20    -1600.00
04870              -1.60    -1200.00
04871              -1.80    -1400.00
04872              -1.60    -1200.00
04873              -0.60    -1200.00
04874              -1.40    -1200.00
04875              -1.80    -1000.00
04876              -0.40    -1000.00
04877              -1.40     -800.00
04878              -0.60     -800.00
04879              -0.60     -800.00
04880              -1.20     -600.00
04881              -1.20     -600.00
04882              -0.60     -800.00
04883              -0.40     -600.00
04884              -1.20     -400.00
04885              -1.20     -400.00
04886               0.00     -400.00
04887               0.00     -200.00
04888              -2.00     -200.00
04889               0.20     -200.00
04890               0.80     -200.00
04891              -1.00     -200.00
04892              -0.40        0.00
04893               1.00        0.00
04894               0.20      200.00
04895              -0.40      200.00
04896               0.40      200.00
04897               0.20        0.00
04898               0.40      400.00
04899               1.00      600.00
04900               4.40      600.00
04901              12.40      600.00
04902             -16.60      600.00
04903             -25.00      600.00
04904              25.00      800.00
04905              25.00      800.00
04906             -25.00     1000.00
04907             -25.00     1000.00
04908              25.00     1000.00
04909              25.00     1200.00
04910             -25.00     1200.00
04911              -0.60     1400.00
04912              25.00     1200.00
04913             -24.00     1400.00
04914             -25.00     1400.00
04915              25.00     1800.00
04916              25.00     1400.00
04917             -25.00     1800.00
04918               2.00     1600.00
04919              25.00     1600.00
04920             -25.00     1800.00
04921             -25.00     2000.00
04922              25.00     2000.00
04923              25.00     2000.00
04924             -25.00     2000.00
04925              17.00     2200.00
04926              25.00     2000.00
04927             -25.00     2200.00
04928             -25.00     2400.00
04929              25.00     2000.00
04930              25.00     2400.00
04931             -25.00     2400.00
04932              10.80     2400.00
04933              25.00     2400.00
04934             -25.00     2800.00
04935             -25.00     2800.00
04936              25.00     2800.00
04937              16.60     2800.00
04938             -25.00     3000.00
04939              25.00     2800.00
04940              25.00     3000.00
04941             -25.00     3000.00
04942              -7.60     3200.00
04943              25.00     3200.00
04944             -12.20     3200.00
04945             -25.00     3000.00
04946              25.00     3200.00
04947              17.00     3400.00
04948             -25.00     3200.00
04949              12.40     3400.00
04950              25.00     3600.00
04951             -17.40     3600.00
04952              -7.00     3600.00
04953              25.00     3600.00
04954               3.60     3800.00
04955             -17.80     3800.00
04956              16.60     3800.00
04957              17.20     3800.00
04958             -15.80     3800.00
04959               3.40     3800.00
04960              22.80     3800.00
04961              -4.80     3800.00
04962              -7.80     4000.00
04963              19.20     3800.00
04964               7.60     4200.00
04965             -10.20     4000.00
04966              10.60     4000.00
04967              14.60     4200.00
04968              -5.40     4000.00
04969               2.80     4200.00
04970              15.40     4200.00
04971               2.00     4400.00
04972              -2.80     4400.00
04973              12.60     4400.00
04974               9.20     4400.00
04975              -2.80     4400.00
04976               6.60     4400.00
04977              11.80     4400.00
04978               1.80     4400.00
04979               1.80     4400.00
04980              11.00     4600.00
04981               6.80     4600.00
04982               0.80     4600.00
04983               8.40     4600.00
04984              10.00     4600.00
04985               2.00     4600.00
04986               4.80     4600.00
04987              11.40     4600.00
04988               6.20     4800.00
04989               2.60     4600.00
04990               9.20     4800.00
04991               9.20     4800.00
04992               2.80     4800.00
04993               6.60     4800.00
04994              10.60     4800.00
04995               5.80     4800.00
04996               5.00     4800.00
04997              10.20     4800.00
04998               8.40     4800.00
04999               4.00     4800.00
05000               8.60     4800.00
