Unit:(mV)
                     CH1         CH2
Frequency              ? 208.301 kHz
00001              -1.20    -9600.00
00002              -0.20    -9400.00
00003               0.20    -9400.00
00004              -0.40    -9200.00
00005              -0.60    -9200.00
00006               0.20    -9200.00
00007              -0.60    -9000.00
00008              -0.40    -9000.00
00009              -0.20    -9000.00
00010              -0.20    -8800.00
00011              -1.00    -8800.00
00012              -0.40    -8800.00
00013              -0.20    -8800.00
00014              -0.40    -8600.00
00015              -0.60    -8600.00
00016              -0.60    -8600.00
00017              -0.20    -8400.00
00018              -0.40    -8400.00
00019              -0.60    -8200.00
00020              -0.40    -8200.00
00021              -0.40    -8000.00
00022              -0.60    -8000.00
00023              -0.40    -8000.00
00024              -0.20    -8000.00
00025              -0.60    -7800.00
00026              -0.60    -7600.00
00027              -0.20    -7400.00
00028              -0.60    -7400.00
00029              -1.00    -7400.00
00030              -0.20    -7400.00
00031              -0.20    -7200.00
00032              -0.40    -7200.00
00033              -0.60    -6800.00
00034               0.20    -7000.00
00035              -0.20    -6800.00
00036              -0.40    -6800.00
00037              -0.20    -6600.00
00038              -0.60    -6600.00
00039              -0.40    -6400.00
00040              -0.20    -6200.00
00041              -0.20    -6400.00
00042              -0.20    -6000.00
00043              -0.60    -6000.00
00044              -0.60    -6000.00
00045               0.40    -5800.00
00046              -0.60    -5800.00
00047              -0.60    -5800.00
00048              -0.20    -5400.00
00049              -0.20    -5400.00
00050              -0.40    -5200.00
00051              -0.40    -5200.00
00052              -0.20    -5000.00
00053              -0.20    -4600.00
00054              -0.40    -4800.00
00055               0.00    -4800.00
00056               0.00    -4600.00
00057              -0.40    -4400.00
00058              -0.80    -4200.00
00059              -0.20    -4200.00
00060               0.20    -4200.00
00061              -1.20    -4000.00
00062              -0.40    -4000.00
00063               0.40    -3800.00
00064              -0.40    -3600.00
00065              -0.60    -3400.00
00066               0.20    -3400.00
00067              -0.60    -3200.00
00068              -0.60    -3200.00
00069              -0.40    -3000.00
00070              -0.40    -2800.00
00071              -0.60    -2800.00
00072              -0.40    -2600.00
00073              -0.20    -2400.00
00074              -0.40    -2400.00
00075              -0.60    -2400.00
00076              -0.80    -2200.00
00077              -0.40    -2000.00
00078              -0.40    -2000.00
00079              -0.60    -1800.00
00080              -0.20    -1600.00
00081              -0.40    -1600.00
00082              -1.00    -1200.00
00083              -0.40    -1200.00
00084              -0.60    -1000.00
00085              -1.00    -1000.00
00086               0.20    -1000.00
00087              -0.20     -800.00
00088              -0.60     -600.00
00089              -0.40     -400.00
00090              -0.60     -200.00
00091              -0.60     -200.00
00092              -0.40        0.00
00093              -0.40      200.00
00094               0.40        0.00
00095               1.40      400.00
00096               0.00      400.00
00097              -1.20      400.00
00098               0.40      600.00
00099               0.80      800.00
00100              -0.80      800.00
00101               1.00     1000.00
00102               8.60     1200.00
00103              15.80     1400.00
00104             -19.00     1600.00
00105             -25.00     1800.00
00106              -8.60     1600.00
00107              25.00     2000.00
00108              25.00     2000.00
00109             -25.00     2200.00
00110             -17.20     2400.00
00111              25.00     2400.00
00112             -25.00     2400.00
00113             -25.00     2800.00
00114              25.00     2800.00
00115              25.00     2800.00
00116             -25.00     3200.00
00117              25.00     3200.00
00118              25.00     3200.00
00119             -25.00     3400.00
00120              -2.80     3200.00
00121              25.00     3600.00
00122              11.20     3600.00
00123             -25.00     4000.00
00124               1.20     4000.00
00125              25.00     4000.00
00126             -25.00     4400.00
00127             -25.00     4400.00
00128              25.00     4600.00
00129              -1.80     4800.00
00130             -25.00     4800.00
00131              25.00     4800.00
00132              25.00     4800.00
00133             -25.00     5200.00
00134              -0.40     5400.00
00135              25.00     5400.00
00136             -25.00     5400.00
00137             -22.00     5600.00
00138              25.00     5600.00
00139              -0.40     6000.00
00140             -25.00     6000.00
00141              13.80     6000.00
00142              18.00     6200.00
00143             -21.80     6200.00
00144              -6.80     6400.00
00145              21.80     6600.00
00146              -7.20     6600.00
00147             -14.80     6400.00
00148              14.00     6800.00
00149               4.40     6800.00
00150             -15.40     7000.00
00151               3.00     7000.00
00152              10.60     7200.00
00153             -10.00     7200.00
00154              -4.60     7200.00
00155              12.20     7400.00
00156              -3.00     7600.00
00157              -9.80     7600.00
00158               7.00     7600.00
00159               3.60     7800.00
00160              -9.20     7800.00
00161               0.60     8000.00
00162               7.40     8200.00
00163              -5.20     8200.00
00164              -3.80     8200.00
00165               6.00     8400.00
00166              -1.20     8400.00
00167              -5.40     8400.00
00168               3.60     8400.00
00169               2.20     8600.00
00170              -4.60     8800.00
00171               0.00     8800.00
00172               4.20     8800.00
00173              -2.20     8800.00
00174              -3.60     9000.00
00175               2.80     9200.00
00176               1.20     8800.00
00177              -3.00     9200.00
00178               0.40     9200.00
00179               2.00     9200.00
00180              -2.80     9400.00
00181              -1.00     9400.00
00182               3.40     9400.00
00183              -1.80     9400.00
00184              -3.20     9400.00
00185               2.60     9600.00
00186               1.20     9600.00
00187              -3.40     9600.00
00188               0.40     9600.00
00189               1.80     9600.00
00190              -1.20     9600.00
00191              -1.00     9600.00
00192               0.40     9600.00
00193              -0.20     9600.00
00194              -0.60     9800.00
00195              -0.40     9800.00
00196               0.40    10000.00
00197              -0.80     9800.00
00198              -0.60    10000.00
00199               1.00    10000.00
00200              -0.40    10000.00
00201              -1.40    10000.00
00202               0.20    10000.00
00203              -0.20    10000.00
00204              -1.00    10000.00
00205              -0.20    10000.00
00206               0.20    10200.00
00207              -0.80    10000.00
00208              -0.20    10000.00
00209               0.40    10000.00
00210              -1.00    10200.00
00211              -1.00    10200.00
00212               0.40    10000.00
00213              -0.60    10000.00
00214              -0.60    10000.00
00215              -0.20    10000.00
00216              -0.40    10000.00
00217              -0.60    10000.00
00218              -0.60    10000.00
00219              -0.60    10000.00
00220              -0.20    10000.00
00221              -0.40    10000.00
00222              -0.20    10000.00
00223               0.00     9800.00
00224              -1.00    10000.00
00225              -0.60    10000.00
00226               0.40    10000.00
00227              -0.60    10000.00
00228              -0.60     9600.00
00229              -0.20     9800.00
00230              -0.60     9800.00
00231              -0.40     9600.00
00232              -0.20     9800.00
00233              -0.60     9600.00
00234              -0.60     9600.00
00235              -0.20     9600.00
00236               0.20     9600.00
00237              -0.60     9600.00
00238              -1.00     9600.00
00239               0.20     9400.00
00240              -0.20     9400.00
00241              -0.60     9200.00
00242              -0.20     9400.00
00243              -0.20     9200.00
00244              -0.40     9200.00
00245              -0.40     9200.00
00246              -0.20     9200.00
00247              -0.40     9000.00
00248              -0.60     8800.00
00249              -0.20     8800.00
00250               0.40     8600.00
00251              -0.40     8800.00
00252              -0.60     8600.00
00253               0.00     8600.00
00254              -0.20     8600.00
00255              -0.60     8400.00
00256               0.00     8400.00
00257              -0.20     8400.00
00258              -0.40     8400.00
00259              -0.20     8400.00
00260              -0.60     8200.00
00261              -0.60     8000.00
00262              -0.20     8000.00
00263              -0.20     8000.00
00264              -0.40     7800.00
00265              -0.40     7600.00
00266              -0.20     7600.00
00267              -0.20     7600.00
00268              -0.40     7200.00
00269              -0.40     7200.00
00270              -0.60     7200.00
00271              -0.40     7200.00
00272               0.20     7000.00
00273              -0.20     6800.00
00274              -0.60     6800.00
00275              -0.60     6800.00
00276              -1.00     6600.00
00277              -1.20     6600.00
00278              -0.40     6400.00
00279              -0.60     6600.00
00280              -0.40     6200.00
00281               0.60     6200.00
00282               0.60     6200.00
00283               0.40     6000.00
00284              -0.20     5800.00
00285              -0.60     6000.00
00286              -1.00     5600.00
00287              -2.00     5600.00
00288              -2.20     5600.00
00289              -1.20     5200.00
00290               0.60     5200.00
00291               1.00     5200.00
00292               1.80     5000.00
00293               1.40     4800.00
00294              -1.00     4800.00
00295              -1.80     4600.00
00296              -1.80     4400.00
00297              -2.20     4400.00
00298              -1.00     4200.00
00299               0.40     4000.00
00300               2.20     4000.00
00301               1.60     4000.00
00302               1.20     3800.00
00303               0.20     3800.00
00304              -2.20     3600.00
00305              -2.80     3400.00
00306              -2.00     3200.00
00307              -1.00     3200.00
00308               0.40     3200.00
00309               2.60     3000.00
00310               2.20     2800.00
00311               0.20     2800.00
00312              -1.00     2600.00
00313              -1.40     2400.00
00314              -2.20     2400.00
00315              -1.80     2200.00
00316               0.20     2200.00
00317               0.40     2000.00
00318               1.40     1800.00
00319               1.80     1800.00
00320               0.00     1600.00
00321              -1.40     1400.00
00322              -1.20     1200.00
00323              -1.40     1000.00
00324              -1.20     1000.00
00325               0.40      800.00
00326               1.20      800.00
00327               0.40      600.00
00328               0.40      600.00
00329              -0.20      400.00
00330              -1.40      200.00
00331              -1.40        0.00
00332              -0.60        0.00
00333              -0.80     -200.00
00334               0.40     -400.00
00335               1.80     -400.00
00336               1.20     -600.00
00337              -1.00     -600.00
00338              -0.60     -800.00
00339              -0.40    -1000.00
00340              -1.40    -1000.00
00341               1.20    -1200.00
00342              21.20    -1400.00
00343               3.80    -1600.00
00344             -25.00    -1800.00
00345             -24.80    -1800.00
00346              25.00    -1600.00
00347              25.00    -2000.00
00348             -25.00    -2400.00
00349             -25.00    -1800.00
00350              25.00    -2400.00
00351              25.00    -2800.00
00352             -25.00    -2400.00
00353              25.00    -2800.00
00354              25.00    -3000.00
00355             -25.00    -2800.00
00356             -25.00    -3200.00
00357              25.00    -3200.00
00358             -25.00    -3200.00
00359              -4.60    -3400.00
00360              19.00    -3600.00
00361              21.80    -3600.00
00362               0.00    -3600.00
00363             -25.00    -4000.00
00364              25.00    -4200.00
00365              25.00    -4200.00
00366             -25.00    -4400.00
00367              25.00    -4600.00
00368              25.00    -4400.00
00369             -25.00    -4400.00
00370              17.20    -5000.00
00371              25.00    -4600.00
00372             -25.00    -5000.00
00373             -25.00    -5000.00
00374              25.00    -5200.00
00375              12.20    -5600.00
00376             -25.00    -5600.00
00377              25.00    -5800.00
00378              20.20    -5800.00
00379             -25.00    -5800.00
00380               2.60    -6000.00
00381              18.80    -6000.00
00382              -3.60    -6200.00
00383             -23.00    -6400.00
00384              19.60    -6400.00
00385               6.80    -6600.00
00386             -23.80    -6400.00
00387              12.00    -6600.00
00388               9.60    -6600.00
00389             -10.80    -6800.00
00390              -4.60    -7000.00
00391              12.20    -7200.00
00392              -2.00    -7200.00
00393             -13.00    -7200.00
00394              11.80    -7400.00
00395               3.20    -7400.00
00396             -12.60    -7600.00
00397               3.60    -7600.00
00398               9.20    -7600.00
00399              -9.00    -7800.00
00400              -4.60    -7800.00
00401               9.80    -8000.00
00402              -2.20    -8000.00
00403              -7.60    -8000.00
00404               4.40    -8200.00
00405               4.60    -8200.00
00406              -8.80    -8400.00
00407               0.40    -8400.00
00408               7.40    -8400.00
00409              -5.60    -8600.00
00410              -3.80    -8600.00
00411               4.60    -8800.00
00412               0.40    -8800.00
00413              -5.40    -8800.00
00414               0.60    -9000.00
00415               4.40    -9000.00
00416              -3.40    -9000.00
00417              -2.60    -9200.00
00418               3.40    -9200.00
00419              -1.20    -9200.00
00420              -3.00    -9200.00
00421               1.80    -9200.00
00422               1.40    -9400.00
00423              -2.80    -9400.00
00424              -1.20    -9600.00
00425               3.00    -9600.00
00426              -1.20    -9600.00
00427              -2.80    -9600.00
00428               2.20    -9800.00
00429               0.20    -9600.00
00430              -1.80    -9800.00
00431              -0.20    -9800.00
00432               1.00    -9800.00
00433              -0.60    -9800.00
00434              -1.00    -9800.00
00435               1.00    -9800.00
00436              -0.20    -9800.00
00437              -0.80   -10000.00
00438               0.00    -9800.00
00439               0.20   -10000.00
00440              -0.20   -10000.00
00441              -1.00   -10000.00
00442               0.40   -10000.00
00443              -0.20   -10000.00
00444              -0.60   -10000.00
00445               0.20   -10000.00
00446              -0.60   -10200.00
00447              -0.20   -10000.00
00448               1.00   -10000.00
00449              -1.00   -10000.00
00450              -0.60   -10000.00
00451               0.40   -10000.00
00452              -0.20   -10000.00
00453              -0.40   -10000.00
00454               0.20   -10000.00
00455               0.20   -10200.00
00456              -0.60   -10000.00
00457              -0.20   -10000.00
00458               0.20   -10000.00
00459              -0.80   -10000.00
00460              -0.60   -10000.00
00461               0.60   -10000.00
00462              -0.20   -10000.00
00463              -1.40   -10000.00
00464              -0.20   -10000.00
00465               0.40   -10000.00
00466              -1.00    -9800.00
00467              -0.20    -9800.00
00468              -0.40    -9800.00
00469              -0.40   -10000.00
00470               0.20    -9800.00
00471              -0.80    -9800.00
00472              -0.40    -9600.00
00473               0.20    -9600.00
00474              -0.60    -9800.00
00475              -0.60    -9600.00
00476               0.60    -9600.00
00477              -1.20    -9600.00
00478              -1.00    -9600.00
00479               0.60    -9400.00
00480              -1.00    -9600.00
00481              -0.80    -9400.00
00482               1.60    -9200.00
00483              -2.80    -9200.00
00484              -1.00    -9200.00
00485               3.40    -9200.00
00486              -0.60    -9200.00
00487              -3.60    -9000.00
00488               1.40    -8800.00
00489               1.00    -9000.00
00490              -1.80    -8800.00
00491               0.20    -8800.00
00492              -0.40    -8800.00
00493              -0.20    -8800.00
00494               1.00    -8800.00
00495              -2.00    -8400.00
00496              -1.80    -8400.00
00497               2.00    -8400.00
00498              -0.20    -8400.00
00499              -2.80    -8200.00
00500               1.80    -8000.00
00501               1.00    -8000.00
00502              -3.60    -8000.00
00503               1.00    -8000.00
00504               2.60    -8000.00
00505              -3.00    -7600.00
00506              -1.20    -7600.00
00507               2.80    -7400.00
00508              -1.20    -7600.00
00509              -2.00    -7400.00
00510               1.40    -7400.00
00511               0.40    -7200.00
00512              -2.00    -7200.00
00513              -0.60    -7200.00
00514               1.20    -6800.00
00515               0.00    -6800.00
00516              -1.00    -6600.00
00517               0.20    -6600.00
00518               0.40    -6600.00
00519              -1.20    -6400.00
00520              -0.60    -6400.00
00521               0.60    -6400.00
00522              -0.40    -6000.00
00523              -0.60    -6000.00
00524               0.40    -6000.00
00525              -0.60    -5800.00
00526              -1.20    -5800.00
00527               0.40    -5600.00
00528              -0.20    -5600.00
00529              -1.20    -5600.00
00530               0.20    -5200.00
00531               0.20    -5200.00
00532              -1.20    -5000.00
00533              -0.60    -4800.00
00534               0.20    -4800.00
00535              -0.40    -4600.00
00536              -1.20    -4400.00
00537              -0.40    -4400.00
00538               0.40    -4400.00
00539              -1.00    -4200.00
00540              -0.60    -4000.00
00541               0.40    -4000.00
00542              -0.60    -4000.00
00543              -1.00    -3800.00
00544               0.00    -3600.00
00545              -0.40    -3600.00
00546              -1.20    -3400.00
00547              -0.20    -3200.00
00548               0.00    -3200.00
00549              -0.60    -3000.00
00550              -0.40    -2800.00
00551              -0.40    -2800.00
00552              -0.60    -2600.00
00553              -0.20    -2400.00
00554              -0.40    -2400.00
00555              -0.80    -2400.00
00556              -0.40    -2000.00
00557              -0.20    -2000.00
00558              -0.20    -2000.00
00559              -0.40    -1800.00
00560              -0.40    -1600.00
00561              -0.40    -1600.00
00562              -0.40    -1400.00
00563              -0.60    -1200.00
00564              -0.60    -1000.00
00565              -0.60    -1000.00
00566              -0.20     -800.00
00567              -0.20     -600.00
00568              -0.20     -400.00
00569              -0.40     -400.00
00570              -0.60     -400.00
00571              -0.40     -200.00
00572              -0.20        0.00
00573              -0.60        0.00
00574               0.20        0.00
00575               1.40      400.00
00576               0.20      400.00
00577              -1.20      600.00
00578               0.40      600.00
00579               0.40      800.00
00580              -0.60      800.00
00581               1.00     1200.00
00582               7.40     1400.00
00583              16.60     1400.00
00584             -15.40     1800.00
00585             -25.00     1600.00
00586             -11.00     1800.00
00587              25.00     2000.00
00588              25.00     2000.00
00589             -25.00     2000.00
00590             -25.00     2400.00
00591              25.00     2600.00
00592              -8.40     2200.00
00593             -25.00     2800.00
00594              25.00     2800.00
00595              25.00     2600.00
00596             -25.00     3200.00
00597              25.00     3000.00
00598              25.00     3200.00
00599             -25.00     3200.00
00600              -8.60     3600.00
00601              25.00     3600.00
00602              14.80     3800.00
00603             -25.00     4000.00
00604              -8.60     4000.00
00605              25.00     4200.00
00606             -25.00     4400.00
00607             -25.00     4400.00
00608              25.00     4400.00
00609              10.60     4800.00
00610             -25.00     4800.00
00611              25.00     4800.00
00612              25.00     5000.00
00613             -25.00     5400.00
00614              -9.00     5200.00
00615              25.00     5200.00
00616             -19.80     5600.00
00617             -25.00     5600.00
00618              25.00     5600.00
00619               5.20     5600.00
00620             -25.00     6000.00
00621              10.00     6000.00
00622              20.20     6200.00
00623             -18.80     6200.00
00624             -10.20     6200.00
00625              20.80     6400.00
00626              -3.00     6600.00
00627             -16.40     6800.00
00628              12.00     6800.00
00629               7.00     7000.00
00630             -14.60     7000.00
00631               0.80     7000.00
00632              11.80     7000.00
00633              -8.40     7200.00
00634              -6.20     7200.00
00635              11.60     7600.00
00636              -1.40     7600.00
00637              -9.80     7600.00
00638               6.00     7800.00
00639               5.40     7800.00
00640              -8.60     7800.00
00641              -1.00     8000.00
00642               8.20     8000.00
00643              -3.60     8200.00
00644              -5.20     8400.00
00645               5.60     8200.00
00646               0.40     8400.00
00647              -6.00     8400.00
00648               2.80     8600.00
00649               3.60     8400.00
00650              -4.40     8600.00
00651              -1.40     8600.00
00652               4.20     8800.00
00653              -1.00     8800.00
00654              -4.20     8800.00
00655               2.00     9200.00
00656               2.20     8800.00
00657              -3.00     9200.00
00658              -1.20     9000.00
00659               2.60     9200.00
00660              -1.40     9200.00
00661              -2.60     9200.00
00662               2.00     9200.00
00663               0.20     9400.00
00664              -2.80     9400.00
00665               0.80     9400.00
00666               1.80     9400.00
00667              -2.20     9400.00
00668              -1.20     9600.00
00669               1.60     9600.00
00670              -0.40     9600.00
00671              -1.40     9600.00
00672               0.20     9800.00
00673               0.20     9800.00
00674              -1.20     9600.00
00675              -0.60     9800.00
00676               0.20     9600.00
00677              -1.00     9800.00
00678              -0.60     9800.00
00679               0.20    10000.00
00680              -0.20    10000.00
00681              -1.00    10000.00
00682              -0.40    10000.00
00683               0.20    10000.00
00684              -0.40    10000.00
00685              -0.60    10000.00
00686               0.20    10000.00
00687              -0.40    10000.00
00688              -0.60    10000.00
00689              -0.20    10000.00
00690              -0.40    10000.00
00691              -0.60    10000.00
00692              -0.20    10000.00
00693               0.20    10200.00
00694               0.20    10000.00
00695              -0.60    10200.00
00696              -0.60    10000.00
00697               0.40    10000.00
00698              -0.40    10000.00
00699              -0.60    10000.00
00700               0.20    10000.00
00701               0.20    10000.00
00702              -0.60    10000.00
00703              -0.60    10000.00
00704              -0.40    10000.00
00705              -0.20    10000.00
00706              -0.60    10000.00
00707               0.20    10000.00
00708              -0.20     9800.00
00709              -0.60     9600.00
00710               0.20     9800.00
00711              -0.20     9800.00
00712              -0.40     9600.00
00713              -0.40     9600.00
00714              -0.40     9600.00
00715              -0.20     9600.00
00716               0.20     9600.00
00717              -0.40     9600.00
00718              -0.20     9400.00
00719              -0.60     9400.00
00720              -0.40     9400.00
00721              -0.40     9400.00
00722              -0.60     9200.00
00723              -0.60     9200.00
00724              -0.60     9200.00
00725              -0.20     9200.00
00726              -0.40     9000.00
00727              -0.40     8800.00
00728              -0.40     8800.00
00729              -0.60     8800.00
00730              -0.20     8800.00
00731               0.00     8800.00
00732              -1.00     8600.00
00733              -0.40     8600.00
00734               0.20     8600.00
00735              -0.60     8600.00
00736              -0.60     8400.00
00737              -0.20     8400.00
00738              -0.40     8400.00
00739              -0.40     8200.00
00740              -0.20     8000.00
00741              -0.20     8000.00
00742              -0.60     8000.00
00743              -0.40     7800.00
00744               0.20     7800.00
00745              -0.60     7800.00
00746              -1.00     7800.00
00747               0.20     7600.00
00748              -0.60     7600.00
00749              -1.00     7400.00
00750               0.20     7200.00
00751              -0.60     7200.00
00752              -0.40     7000.00
00753              -0.20     7000.00
00754              -1.00     6800.00
00755               0.00     6800.00
00756              -0.40     6800.00
00757              -1.00     6800.00
00758               0.40     6400.00
00759               0.20     6400.00
00760              -2.00     6200.00
00761               0.40     6400.00
00762               0.60     6000.00
00763              -2.00     6000.00
00764              -0.20     6000.00
00765               0.60     6000.00
00766              -1.00     5600.00
00767              -0.60     5600.00
00768               0.40     5400.00
00769              -0.20     5400.00
00770              -1.00     5400.00
00771               0.20     5200.00
00772              -0.20     5200.00
00773              -0.40     4800.00
00774              -0.20     4600.00
00775              -0.20     4600.00
00776               0.40     4600.00
00777              -0.60     4400.00
00778              -0.60     4400.00
00779               0.40     4000.00
00780              -0.20     4000.00
00781              -0.60     3800.00
00782               0.00     3800.00
00783              -0.20     3600.00
00784              -1.00     3600.00
00785              -0.40     3400.00
00786               0.20     3400.00
00787              -0.80     3200.00
00788              -0.40     3000.00
00789               0.00     3000.00
00790              -0.60     2800.00
00791              -0.60     2800.00
00792              -0.20     2600.00
00793              -0.40     2400.00
00794              -0.60     2200.00
00795              -0.40     2200.00
00796              -1.00     2000.00
00797              -0.40     2000.00
00798              -0.20     1800.00
00799              -0.60     1600.00
00800              -0.60     1400.00
00801              -0.20     1400.00
00802              -0.60     1400.00
00803              -0.20     1200.00
00804              -0.20     1200.00
00805              -0.60      800.00
00806              -0.40      800.00
00807              -0.20      600.00
00808              -0.40      400.00
00809              -0.60      400.00
00810              -0.40      200.00
00811              -0.40        0.00
00812              -1.00        0.00
00813              -0.40     -200.00
00814               1.00     -200.00
00815               0.40     -400.00
00816               0.20     -400.00
00817              -0.40     -400.00
00818              -0.60     -800.00
00819               0.20     -800.00
00820               0.20    -1000.00
00821               0.80    -1000.00
00822              18.60    -1400.00
00823              10.00    -1600.00
00824             -25.00    -1800.00
00825             -25.00    -2000.00
00826              24.20    -1600.00
00827              25.00    -2000.00
00828             -25.00    -2400.00
00829             -25.00    -1800.00
00830              25.00    -2400.00
00831              25.00    -2800.00
00832             -25.00    -2400.00
00833               5.80    -2800.00
00834              25.00    -2800.00
00835             -25.00    -2800.00
00836             -25.00    -3000.00
00837              25.00    -3400.00
00838             -25.00    -3400.00
00839             -19.80    -3400.00
00840              21.20    -3800.00
00841              22.00    -3800.00
00842               6.80    -3800.00
00843             -25.00    -4000.00
00844              25.00    -4200.00
00845              25.00    -4200.00
00846             -25.00    -4200.00
00847              25.00    -4600.00
00848              25.00    -4600.00
00849             -25.00    -4600.00
00850               6.40    -5000.00
00851              25.00    -4800.00
00852             -21.40    -5000.00
00853             -25.00    -5200.00
00854              25.00    -5200.00
00855              21.20    -5600.00
00856             -25.00    -5400.00
00857              21.00    -5800.00
00858              25.00    -5600.00
00859             -25.00    -5600.00
00860              -1.40    -6000.00
00861              19.00    -6000.00
00862              -0.80    -6200.00
00863             -24.60    -6200.00
00864              16.20    -6400.00
00865              12.20    -6400.00
00866             -24.80    -6600.00
00867               8.60    -6800.00
00868              12.00    -6600.00
00869             -11.60    -6800.00
00870              -6.80    -7000.00
00871              12.20    -7200.00
00872              -0.20    -7200.00
00873             -14.00    -7200.00
00874              10.60    -7400.00
00875               5.20    -7400.00
00876             -13.20    -7400.00
00877               1.80    -7600.00
00878              10.00    -7800.00
00879              -8.60    -7600.00
00880              -5.60    -8000.00
00881              10.60    -8000.00
00882              -1.20    -8000.00
00883              -8.60    -8200.00
00884               3.40    -8200.00
00885               5.40    -8200.00
00886              -8.40    -8400.00
00887              -0.60    -8400.00
00888               8.40    -8400.00
00889              -4.60    -8600.00
00890              -4.40    -8800.00
00891               4.60    -8800.00
00892               1.00    -8800.00
00893              -5.20    -8800.00
00894               0.00    -9000.00
00895               4.60    -9000.00
00896              -2.20    -9000.00
00897              -2.80    -9200.00
00898               3.60    -9200.00
00899              -0.40    -9200.00
00900              -3.40    -9200.00
00901               1.20    -9200.00
00902               1.80    -9400.00
00903              -2.20    -9200.00
00904              -2.00    -9600.00
00905               3.00    -9600.00
00906              -0.60    -9600.00
00907              -3.40    -9600.00
00908               1.80    -9600.00
00909               1.00    -9600.00
00910              -1.40    -9800.00
00911              -0.60    -9800.00
00912               1.00    -9800.00
00913              -0.40    -9800.00
00914              -1.40    -9800.00
00915               0.40    -9800.00
00916               0.20    -9800.00
00917              -0.60    -9800.00
00918              -0.60   -10000.00
00919               0.00   -10000.00
00920              -0.20   -10000.00
00921              -1.20   -10000.00
00922              -0.40   -10000.00
00923               0.40   -10000.00
00924              -0.60   -10000.00
00925              -0.60   -10000.00
00926              -0.60   -10000.00
00927              -0.20   -10200.00
00928              -0.40   -10000.00
00929              -0.60   -10000.00
00930               0.20   -10000.00
00931              -0.40   -10000.00
00932              -0.60   -10400.00
00933               0.00   -10000.00
00934              -0.20   -10200.00
00935              -1.00   -10000.00
00936              -0.60   -10000.00
00937              -0.20   -10200.00
00938              -0.80   -10000.00
00939              -0.60   -10000.00
00940              -0.20   -10000.00
00941              -0.40   -10000.00
00942               0.00   -10000.00
00943              -0.60   -10000.00
00944              -0.60   -10000.00
00945               0.20    -9800.00
00946              -0.40   -10000.00
00947              -0.60   -10000.00
00948               0.20    -9800.00
00949              -0.40   -10000.00
00950              -0.40    -9800.00
00951              -0.40    -9600.00
00952              -0.20    -9800.00
00953              -0.40    -9600.00
00954              -0.20    -9600.00
00955              -0.20    -9800.00
00956              -0.40    -9600.00
00957              -0.20    -9600.00
00958              -0.40    -9600.00
00959              -0.20    -9400.00
00960               0.40    -9200.00
00961              -0.40    -9200.00
00962              -0.60    -9200.00
00963              -0.20    -9200.00
00964               0.20    -9200.00
00965              -0.80    -9200.00
00966              -0.40    -9000.00
00967              -0.20    -9000.00
00968               0.00    -9000.00
00969              -0.40    -8800.00
00970               0.20    -8800.00
00971              -0.40    -8800.00
00972              -0.40    -8800.00
00973              -0.40    -8800.00
00974               0.00    -8600.00
00975               0.00    -8600.00
00976              -0.20    -8400.00
00977              -0.20    -8400.00
00978               0.20    -8400.00
00979              -0.40    -8400.00
00980              -0.60    -8200.00
00981              -0.20    -8200.00
00982              -0.40    -8000.00
00983              -0.60    -8000.00
00984              -0.40    -7800.00
00985              -0.40    -7800.00
00986              -0.40    -7600.00
00987              -0.20    -7400.00
00988              -0.40    -7400.00
00989              -0.40    -7400.00
00990              -0.60    -7200.00
00991              -0.40    -7200.00
00992              -0.20    -7200.00
00993              -0.60    -7000.00
00994              -0.40    -7000.00
00995              -0.20    -6800.00
00996              -0.40    -6800.00
00997              -0.60    -6600.00
00998              -0.40    -6600.00
00999              -0.60    -6400.00
01000              -0.20    -6400.00
01001              -0.20    -6200.00
01002              -0.40    -6000.00
01003              -0.40    -6000.00
01004              -0.40    -5800.00
01005              -0.20    -5800.00
01006              -0.20    -5600.00
01007              -0.60    -5600.00
01008              -0.20    -5600.00
01009              -0.40    -5200.00
01010               0.00    -5400.00
01011               0.20    -5000.00
01012              -1.20    -5000.00
01013              -0.40    -4800.00
01014               0.60    -4800.00
01015              -1.20    -4600.00
01016              -1.00    -4400.00
01017               0.40    -4400.00
01018              -0.60    -4400.00
01019              -0.60    -4200.00
01020               0.60    -4000.00
01021              -0.20    -4000.00
01022              -0.60    -4000.00
01023              -0.20    -3800.00
01024               0.20    -3600.00
01025              -0.80    -3600.00
01026              -0.60    -3400.00
01027              -0.20    -3200.00
01028               0.40    -3200.00
01029              -0.60    -3200.00
01030              -0.40    -2800.00
01031              -0.20    -2800.00
01032              -0.60    -2600.00
01033              -0.40    -2400.00
01034              -0.20    -2400.00
01035              -0.40    -2400.00
01036              -0.20    -2000.00
01037              -0.20    -2000.00
01038              -0.60    -1800.00
01039              -0.20    -1800.00
01040              -0.40    -1600.00
01041              -0.60    -1600.00
01042              -0.40    -1200.00
01043               0.00    -1200.00
01044              -0.60    -1200.00
01045              -0.40    -1000.00
01046              -0.20     -800.00
01047              -0.20     -600.00
01048              -0.40     -600.00
01049              -0.60     -400.00
01050              -0.60     -400.00
01051               0.00     -200.00
01052              -0.60        0.00
01053              -0.60        0.00
01054               0.40        0.00
01055               1.00      400.00
01056               0.40      400.00
01057              -1.20      600.00
01058              -0.20      800.00
01059               0.40      600.00
01060              -0.60     1000.00
01061              -0.20      800.00
01062               6.60     1200.00
01063              17.20     1400.00
01064             -12.20     1600.00
01065             -25.00     1800.00
01066             -13.00     1600.00
01067              25.00     2000.00
01068              25.00     2200.00
01069             -25.00     2000.00
01070             -25.00     2400.00
01071              25.00     2800.00
01072              14.00     2400.00
01073             -25.00     2800.00
01074              25.00     2800.00
01075              25.00     2800.00
01076             -25.00     3200.00
01077              25.00     3200.00
01078              25.00     3200.00
01079             -25.00     3200.00
01080             -14.00     3600.00
01081              25.00     3600.00
01082              18.00     3800.00
01083             -25.00     4000.00
01084             -19.40     4000.00
01085              25.00     4000.00
01086             -18.80     4400.00
01087             -25.00     4400.00
01088              25.00     4400.00
01089              22.80     4800.00
01090             -25.00     4800.00
01091              19.60     4800.00
01092              25.00     5000.00
01093             -25.00     5200.00
01094             -15.60     5200.00
01095              25.00     5400.00
01096             -14.20     5400.00
01097             -25.00     5600.00
01098              25.00     5800.00
01099              10.20     5800.00
01100             -25.00     6000.00
01101               6.20     6000.00
01102              23.00     6200.00
01103             -16.60     6200.00
01104             -14.00     6400.00
01105              21.20     6400.00
01106              -0.60     6400.00
01107             -17.40     6600.00
01108              10.20     6800.00
01109               9.00     6800.00
01110             -14.20     6800.00
01111              -1.20     7000.00
01112              12.40     7200.00
01113              -7.40     7200.00
01114              -8.20     7200.00
01115              12.20     7400.00
01116              -1.00     7600.00
01117             -11.00     7600.00
01118               5.40     7600.00
01119               5.60     7800.00
01120              -9.00     7800.00
01121              -1.40     7800.00
01122               7.60     8000.00
01123              -3.60     8200.00
01124              -5.40     8200.00
01125               5.20     8400.00
01126               0.20     8400.00
01127              -5.80     8400.00
01128               2.20     8600.00
01129               3.20     8600.00
01130              -4.20     8600.00
01131              -1.80     8800.00
01132               3.40     8800.00
01133              -1.00     8800.00
01134              -3.60     8800.00
01135               1.00     8800.00
01136               2.40     8800.00
01137              -2.40     9200.00
01138              -1.80     9200.00
01139               2.20     9200.00
01140              -0.60     9200.00
01141              -2.20     9200.00
01142               1.80     9400.00
01143               0.40     9400.00
01144              -2.60     9400.00
01145               0.20     9600.00
01146               1.80     9400.00
01147              -1.80     9400.00
01148              -1.80     9600.00
01149               1.40     9800.00
01150               0.20     9600.00
01151              -1.60     9600.00
01152               0.20     9800.00
01153               0.40     9600.00
01154              -0.60     9600.00
01155              -0.40     9800.00
01156               0.40     9800.00
01157              -0.60    10000.00
01158              -0.60    10000.00
01159               0.40     9800.00
01160               0.40    10000.00
01161              -0.80    10000.00
01162              -0.40    10000.00
01163               0.40    10000.00
01164               0.20    10000.00
01165              -0.80    10200.00
01166               0.20    10200.00
01167               0.20    10000.00
01168              -0.80    10000.00
01169               0.40    10000.00
01170               0.20    10200.00
01171              -1.00    10000.00
01172              -0.20    10200.00
01173               0.40    10000.00
01174              -0.40    10000.00
01175              -0.60    10200.00
01176               0.20    10200.00
01177               0.00    10000.00
01178              -0.60    10000.00
01179              -0.40    10000.00
01180              -0.40    10000.00
01181              -0.60    10000.00
01182              -0.40    10000.00
01183               0.20    10000.00
01184              -1.00    10000.00
01185              -0.60    10000.00
01186              -0.20     9800.00
01187              -0.20    10000.00
01188              -0.60    10000.00
01189              -0.40     9800.00
01190              -0.20     9600.00
01191              -0.60     9800.00
01192              -0.20     9600.00
01193              -0.40     9600.00
01194              -0.60     9600.00
01195              -0.60     9600.00
01196               0.20     9400.00
01197              -0.20     9400.00
01198              -1.80     9400.00
01199               0.20     9400.00
01200               0.40     9400.00
01201              -1.00     9400.00
01202              -0.20     9400.00
01203              -0.20     9200.00
01204              -1.00     9200.00
01205              -0.20     9200.00
01206              -0.20     9200.00
01207              -0.60     9000.00
01208              -0.20     8800.00
01209              -0.60     8800.00
01210               0.00     8600.00
01211              -0.20     8800.00
01212              -1.00     8600.00
01213              -0.40     8600.00
01214               0.40     8600.00
01215              -0.40     8600.00
01216              -1.00     8400.00
01217               0.20     8400.00
01218              -0.20     8400.00
01219              -0.60     8000.00
01220               0.20     8200.00
01221              -0.20     8200.00
01222              -0.60     8000.00
01223              -0.20     8000.00
01224               0.00     7800.00
01225              -0.60     7600.00
01226              -0.40     7600.00
01227               0.20     7600.00
01228              -0.20     7600.00
01229              -0.60     7200.00
01230              -0.20     7400.00
01231              -0.40     7200.00
01232              -0.20     7200.00
01233              -0.20     7000.00
01234              -0.20     6800.00
01235              -0.60     6800.00
01236              -0.40     6800.00
01237              -0.20     6600.00
01238              -0.60     6400.00
01239              -0.20     6400.00
01240              -0.60     6400.00
01241              -0.60     6200.00
01242              -0.40     6000.00
01243              -0.60     6000.00
01244              -0.40     6000.00
01245              -0.40     5800.00
01246              -0.60     5600.00
01247              -0.20     5600.00
01248              -0.40     5400.00
01249              -0.80     5400.00
01250              -0.40     5200.00
01251               0.20     5200.00
01252              -0.60     5200.00
01253              -0.60     4800.00
01254              -0.40     4800.00
01255              -0.20     4600.00
01256              -0.60     4400.00
01257              -0.60     4400.00
01258              -0.20     4200.00
01259              -0.60     4000.00
01260              -0.60     4000.00
01261              -0.20     4000.00
01262              -0.60     3800.00
01263              -0.60     3600.00
01264              -0.20     3600.00
01265              -0.60     3600.00
01266              -0.60     3400.00
01267               0.00     3200.00
01268               0.00     3200.00
01269              -0.60     3000.00
01270              -0.40     3000.00
01271               0.20     2800.00
01272              -1.00     2600.00
01273              -0.60     2400.00
01274               0.20     2400.00
01275              -0.60     2200.00
01276              -1.00     2000.00
01277               0.20     2000.00
01278              -0.40     2000.00
01279              -0.60     1800.00
01280              -0.20     1600.00
01281              -0.20     1400.00
01282              -0.60     1200.00
01283               0.00     1200.00
01284              -0.20     1200.00
01285              -0.60      800.00
01286              -0.40      800.00
01287              -0.40      600.00
01288              -0.60      600.00
01289              -0.40      400.00
01290              -0.40      400.00
01291               0.20      200.00
01292              -0.40        0.00
01293              -1.00        0.00
01294               0.20     -200.00
01295               1.20     -200.00
01296               0.40     -400.00
01297              -1.00     -400.00
01298              -0.20     -800.00
01299               0.40     -800.00
01300              -0.40     -800.00
01301               0.80    -1000.00
01302              16.40    -1200.00
01303              14.20    -1600.00
01304             -25.00    -1800.00
01305             -25.00    -1800.00
01306              14.80    -1600.00
01307              25.00    -1800.00
01308             -21.60    -2400.00
01309             -25.00    -1800.00
01310              25.00    -2200.00
01311              25.00    -2800.00
01312             -25.00    -2400.00
01313             -19.40    -2800.00
01314              25.00    -2800.00
01315             -25.00    -2800.00
01316             -25.00    -2800.00
01317              25.00    -3200.00
01318             -25.00    -3200.00
01319             -25.00    -3400.00
01320              23.60    -3600.00
01321              18.80    -3600.00
01322              13.80    -4000.00
01323             -25.00    -4000.00
01324              25.00    -4000.00
01325              25.00    -4200.00
01326             -25.00    -4200.00
01327              25.00    -4600.00
01328              25.00    -4400.00
01329             -25.00    -4400.00
01330              -6.60    -5000.00
01331              25.00    -4800.00
01332             -15.00    -5000.00
01333             -25.00    -5200.00
01334              25.00    -5200.00
01335              25.00    -5400.00
01336             -25.00    -5200.00
01337              14.00    -5800.00
01338              25.00    -5800.00
01339             -25.00    -5600.00
01340              -4.40    -6000.00
01341              18.80    -6000.00
01342               1.40    -6000.00
01343             -24.40    -6200.00
01344              12.20    -6400.00
01345              16.20    -6600.00
01346             -24.20    -6400.00
01347               5.80    -6800.00
01348              14.20    -6800.00
01349             -10.60    -6800.00
01350              -7.60    -7000.00
01351              11.00    -7200.00
01352               1.80    -7200.00
01353             -14.20    -7200.00
01354               8.60    -7200.00
01355               7.40    -7400.00
01356             -12.40    -7400.00
01357               0.20    -7600.00
01358              11.00    -7800.00
01359              -6.80    -7600.00
01360              -7.00    -8000.00
01361               9.60    -8000.00
01362               0.80    -8000.00
01363              -8.20    -8200.00
01364               2.20    -8200.00
01365               6.80    -8400.00
01366              -8.00    -8400.00
01367              -2.80    -8400.00
01368               9.40    -8400.00
01369              -4.40    -8600.00
01370              -5.20    -8800.00
01371               4.80    -8800.00
01372               1.80    -8800.00
01373              -5.40    -8800.00
01374              -0.60    -9000.00
01375               5.00    -9000.00
01376              -2.60    -9000.00
01377              -3.40    -9000.00
01378               3.60    -9200.00
01379              -0.20    -9200.00
01380              -3.60    -9200.00
01381               1.00    -9200.00
01382               1.80    -9200.00
01383              -2.20    -9600.00
01384              -2.00    -9400.00
01385               2.40    -9600.00
01386              -0.20    -9600.00
01387              -3.60    -9600.00
01388               1.20    -9600.00
01389               1.40    -9800.00
01390              -1.80    -9600.00
01391              -1.20    -9600.00
01392               0.80    -9800.00
01393              -0.40    -9800.00
01394              -1.20    -9800.00
01395               0.20    -9800.00
01396               0.00   -10000.00
01397              -1.00    -9800.00
01398              -0.60    -9800.00
01399               0.40    -9800.00
01400               0.40   -10000.00
01401              -1.80    -9800.00
01402              -0.20   -10000.00
01403               0.60   -10000.00
01404              -1.20   -10000.00
01405              -0.40   -10000.00
01406               0.40   -10000.00
01407              -0.60   -10000.00
01408              -0.60   -10000.00
01409               0.20   -10000.00
01410              -0.20   -10200.00
01411              -1.00   -10000.00
01412               0.20   -10000.00
01413               0.20   -10000.00
01414              -0.60   -10000.00
01415              -0.40   -10000.00
01416              -0.20   -10000.00
01417              -0.20   -10000.00
01418              -0.40   -10000.00
01419              -0.20   -10000.00
01420              -0.20   -10000.00
01421               0.00   -10000.00
01422               0.40   -10000.00
01423              -0.80    -9800.00
01424              -1.00   -10000.00
01425               0.40   -10000.00
01426              -0.40    -9800.00
01427              -0.40    -9800.00
01428               0.20    -9800.00
01429              -0.40    -9800.00
01430              -0.40    -9800.00
01431              -0.20    -9800.00
01432              -0.40    -9600.00
01433              -0.60    -9600.00
01434              -0.20    -9600.00
01435              -0.20    -9800.00
01436               0.00    -9600.00
01437              -0.60    -9600.00
01438              -0.40    -9600.00
01439              -0.40    -9600.00
01440               0.40    -9600.00
01441              -1.00    -9400.00
01442              -0.60    -9200.00
01443              -0.20    -9200.00
01444              -0.20    -9200.00
01445              -0.60    -9200.00
01446              -0.40    -9000.00
01447              -0.40    -9000.00
01448              -0.20    -9000.00
01449              -0.60    -9000.00
01450              -0.20    -8800.00
01451              -0.60    -8800.00
01452              -1.20    -8800.00
01453              -0.20    -8800.00
01454               0.20    -8600.00
01455              -1.00    -8600.00
01456              -0.60    -8400.00
01457              -0.20    -8400.00
01458              -0.60    -8400.00
01459              -0.60    -8200.00
01460              -0.40    -8000.00
01461              -0.60    -8200.00
01462              -0.60    -8000.00
01463              -0.20    -8000.00
01464              -0.40    -8000.00
01465              -0.60    -7600.00
01466              -0.20    -7600.00
01467              -0.40    -7600.00
01468              -0.40    -7600.00
01469              -0.20    -7400.00
01470              -0.40    -7400.00
01471              -0.40    -7200.00
01472               0.20    -7200.00
01473              -0.60    -7000.00
01474              -0.60    -7200.00
01475               0.00    -6800.00
01476              -0.40    -6600.00
01477              -0.60    -6600.00
01478              -0.20    -6600.00
01479              -0.60    -6400.00
01480               0.00    -6400.00
01481              -0.20    -6200.00
01482              -0.20    -6200.00
01483              -0.40    -6000.00
01484              -0.40    -5800.00
01485               0.20    -6000.00
01486              -0.40    -5600.00
01487              -0.40    -5600.00
01488              -0.40    -5600.00
01489              -0.20    -5400.00
01490              -0.40    -5200.00
01491              -0.40    -5000.00
01492              -0.20    -5000.00
01493               0.20    -5000.00
01494              -1.00    -4600.00
01495               0.40    -4600.00
01496               0.60    -4600.00
01497              -1.80    -4400.00
01498              -0.20    -4200.00
01499               1.00    -4200.00
01500              -1.60    -4200.00
01501              -0.60    -4000.00
01502               1.00    -4000.00
01503              -1.20    -3600.00
01504              -0.80    -3600.00
01505               0.20    -3600.00
01506              -0.60    -3200.00
01507              -0.40    -3200.00
01508              -1.00    -3400.00
01509               0.20    -3000.00
01510              -0.40    -3000.00
01511              -1.20    -2800.00
01512              -0.20    -2600.00
01513               0.40    -2400.00
01514              -1.20    -2400.00
01515              -0.60    -2400.00
01516               1.00    -2200.00
01517              -1.80    -2000.00
01518              -0.40    -2000.00
01519               0.60    -1800.00
01520              -1.40    -1600.00
01521              -0.20    -1600.00
01522              -0.60    -1400.00
01523              -0.60    -1400.00
01524               0.40    -1000.00
01525              -1.20    -1000.00
01526              -0.60     -800.00
01527               0.60     -600.00
01528              -1.00     -600.00
01529              -0.60     -400.00
01530               1.00     -200.00
01531              -1.00     -200.00
01532              -0.80     -200.00
01533               0.80        0.00
01534              -0.60        0.00
01535               0.40      400.00
01536               1.80      400.00
01537              -2.00      600.00
01538              -0.60      600.00
01539               2.60      800.00
01540              -1.20     1000.00
01541              -1.20     1200.00
01542               6.80     1400.00
01543              17.20     1400.00
01544              -9.20     1400.00
01545             -25.00     1800.00
01546             -14.80     1600.00
01547              23.60     2000.00
01548              25.00     2200.00
01549             -25.00     2000.00
01550             -25.00     2400.00
01551              25.00     2400.00
01552              25.00     2200.00
01553             -25.00     2800.00
01554              25.00     2800.00
01555              25.00     2800.00
01556             -25.00     3000.00
01557              22.00     3200.00
01558              25.00     3200.00
01559             -25.00     3200.00
01560             -19.80     3400.00
01561              25.00     3600.00
01562              20.60     3600.00
01563             -25.00     4000.00
01564             -25.00     4000.00
01565              25.00     4000.00
01566              -6.00     4200.00
01567             -25.00     4400.00
01568              25.00     4600.00
01569              25.00     4600.00
01570             -25.00     4800.00
01571              10.80     4800.00
01572              25.00     5200.00
01573             -25.00     5400.00
01574             -22.20     5200.00
01575              25.00     5200.00
01576              -8.40     5400.00
01577             -25.00     5600.00
01578              25.00     5600.00
01579              14.80     5600.00
01580             -25.00     6000.00
01581               2.00     6000.00
01582              24.60     6000.00
01583             -14.60     6200.00
01584             -17.20     6200.00
01585              20.60     6400.00
01586               2.00     6400.00
01587             -18.80     6800.00
01588               8.40     6800.00
01589              10.80     6800.00
01590             -13.80     7000.00
01591              -3.40     7000.00
01592              13.20     7200.00
01593              -6.20     7000.00
01594              -9.40     7200.00
01595              10.60     7200.00
01596               1.80     7600.00
01597             -10.60     7600.00
01598               3.20     7800.00
01599               7.40     7600.00
01600              -7.60     7800.00
01601              -3.80     7800.00
01602               8.40     8000.00
01603              -1.80     8000.00
01604              -6.80     8200.00
01605               4.60     8400.00
01606               2.20     8400.00
01607              -6.20     8400.00
01608               1.00     8400.00
01609               4.60     8600.00
01610              -3.80     8600.00
01611              -2.60     8600.00
01612               3.80     8800.00
01613              -0.40     8800.00
01614              -3.80     8800.00
01615               1.00     8800.00
01616               2.60     8800.00
01617              -2.20     9200.00
01618              -1.80     9200.00
01619               2.60     9200.00
01620              -0.60     9200.00
01621              -2.20     9200.00
01622               1.80     9400.00
01623               0.60     9200.00
01624              -2.60     9400.00
01625               0.20     9400.00
01626               1.80     9600.00
01627              -1.60     9600.00
01628              -2.00     9600.00
01629               1.20     9600.00
01630              -0.20     9600.00
01631              -1.40     9600.00
01632              -0.40     9600.00
01633              -0.20     9800.00
01634              -0.60     9600.00
01635              -0.60     9800.00
01636               0.20    10000.00
01637              -0.60     9800.00
01638              -1.00    10000.00
01639               0.20    10000.00
01640              -0.40    10000.00
01641              -1.00    10000.00
01642              -0.60    10000.00
01643               0.00     9800.00
01644              -0.60    10000.00
01645              -0.60    10000.00
01646               0.20    10000.00
01647              -0.60    10200.00
01648              -1.00    10000.00
01649               0.40    10000.00
01650              -0.20    10000.00
01651              -1.40    10200.00
01652               0.00    10000.00
01653               0.60    10200.00
01654              -0.60    10200.00
01655              -0.40    10000.00
01656               0.20    10000.00
01657              -0.60    10000.00
01658              -0.40    10000.00
01659               0.20    10000.00
01660              -0.60    10000.00
01661              -0.20    10000.00
01662              -0.20    10000.00
01663              -0.60    10000.00
01664              -0.40    10000.00
01665              -0.20    10000.00
01666              -0.60     9800.00
01667               0.00     9800.00
01668              -0.40     9800.00
01669              -0.40     9800.00
01670              -0.20     9600.00
01671               0.20     9600.00
01672              -0.40     9600.00
01673              -0.20     9600.00
01674              -0.40     9600.00
01675              -0.40     9600.00
01676              -0.20     9400.00
01677              -0.20     9400.00
01678              -0.40     9400.00
01679              -0.60     9400.00
01680               0.00     9400.00
01681              -0.20     9200.00
01682              -0.40     9400.00
01683               0.20     9200.00
01684              -0.40     9200.00
01685               0.20     9200.00
01686               0.20     9200.00
01687              -0.40     9200.00
01688              -0.40     9000.00
01689              -0.20     9000.00
01690              -0.20     8800.00
01691              -0.20     8800.00
01692              -0.20     8600.00
01693              -0.40     8600.00
01694               0.00     8400.00
01695              -0.20     8400.00
01696              -0.60     8400.00
01697               0.00     8400.00
01698               0.20     8200.00
01699              -0.60     8000.00
01700              -0.40     8200.00
01701              -0.20     8000.00
01702              -0.40     7800.00
01703              -0.60     8000.00
01704               0.20     7800.00
01705              -0.40     7600.00
01706              -0.60     7600.00
01707              -0.40     7600.00
01708              -0.40     7400.00
01709              -0.40     7200.00
01710              -0.60     7200.00
01711              -0.40     7000.00
01712              -0.40     7000.00
01713              -0.20     7200.00
01714              -0.40     6800.00
01715              -0.60     6800.00
01716              -0.40     6800.00
01717              -0.40     6600.00
01718              -0.40     6400.00
01719              -0.60     6400.00
01720              -0.60     6400.00
01721              -0.40     6200.00
01722              -0.20     6200.00
01723              -0.60     6000.00
01724              -0.60     6000.00
01725              -0.40     5600.00
01726              -0.40     5800.00
01727              -0.20     5600.00
01728              -0.20     5400.00
01729              -0.60     5400.00
01730              -0.20     5200.00
01731               0.00     5200.00
01732              -0.60     5000.00
01733              -0.60     4800.00
01734              -0.40     4800.00
01735              -0.60     4600.00
01736              -0.20     4600.00
01737              -0.20     4600.00
01738              -0.40     4400.00
01739              -0.20     4000.00
01740              -0.40     4000.00
01741              -0.20     4000.00
01742              -0.40     3800.00
01743              -0.40     3800.00
01744               0.00     3600.00
01745              -0.40     3400.00
01746              -0.40     3200.00
01747              -0.40     3200.00
01748              -0.20     3000.00
01749              -0.20     3000.00
01750              -0.20     2800.00
01751              -0.60     2800.00
01752              -0.40     2800.00
01753              -0.20     2400.00
01754              -0.40     2400.00
01755              -0.20     2200.00
01756              -0.40     2000.00
01757              -0.60     2000.00
01758              -0.20     2000.00
01759              -0.40     1600.00
01760              -0.80     1800.00
01761              -0.40     1400.00
01762              -0.20     1400.00
01763              -0.40     1200.00
01764              -0.60     1000.00
01765              -0.40      800.00
01766              -0.40      800.00
01767              -0.60      600.00
01768              -0.40      400.00
01769              -0.40      400.00
01770              -0.60      200.00
01771              -0.40      200.00
01772               0.20        0.00
01773              -0.80     -200.00
01774              -0.20     -200.00
01775               1.00     -200.00
01776               0.60     -400.00
01777              -1.20     -600.00
01778              -0.60     -800.00
01779               0.40     -800.00
01780              -0.40     -800.00
01781               0.20    -1000.00
01782              13.80    -1200.00
01783              18.60    -1600.00
01784             -25.00    -1800.00
01785             -25.00    -1800.00
01786               6.60    -1600.00
01787              25.00    -1800.00
01788              -4.80    -2400.00
01789             -25.00    -1800.00
01790              25.00    -2200.00
01791              25.00    -2600.00
01792             -25.00    -2400.00
01793             -25.00    -2800.00
01794              25.00    -2800.00
01795             -13.80    -2800.00
01796             -25.00    -2800.00
01797              25.00    -3400.00
01798             -22.00    -3200.00
01799             -25.00    -3400.00
01800              24.80    -3600.00
01801              17.80    -3600.00
01802              19.60    -4000.00
01803             -25.00    -4000.00
01804              25.00    -4000.00
01805              25.00    -4400.00
01806             -25.00    -4000.00
01807              10.60    -4400.00
01808              25.00    -4600.00
01809             -25.00    -4400.00
01810             -19.40    -5000.00
01811              25.00    -4800.00
01812              -7.00    -5000.00
01813             -25.00    -5200.00
01814              25.00    -5000.00
01815              25.00    -5600.00
01816             -25.00    -5400.00
01817               5.00    -5600.00
01818              25.00    -5800.00
01819             -25.00    -5600.00
01820              -8.40    -6000.00
01821              18.80    -5800.00
01822               4.40    -6000.00
01823             -24.20    -6200.00
01824               7.40    -6400.00
01825              20.00    -6400.00
01826             -23.40    -6400.00
01827               1.20    -6800.00
01828              16.20    -6800.00
01829              -9.00    -6800.00
01830              -9.20    -7000.00
01831               9.60    -7200.00
01832               4.20    -7200.00
01833             -14.60    -7200.00
01834               6.20    -7200.00
01835               9.80    -7400.00
01836             -12.00    -7400.00
01837              -2.40    -7600.00
01838              11.00    -7800.00
01839              -5.20    -7800.00
01840              -8.60    -7800.00
01841               9.00    -8000.00
01842               2.20    -8000.00
01843              -8.60    -8200.00
01844               0.40    -8200.00
01845               7.40    -8200.00
01846              -7.00    -8400.00
01847              -3.80    -8400.00
01848               8.60    -8400.00
01849              -2.80    -8400.00
01850              -5.60    -8600.00
01851               3.60    -8600.00
01852               2.80    -8800.00
01853              -4.60    -8800.00
01854              -2.20    -9000.00
01855               5.00    -9000.00
01856              -1.20    -9000.00
01857              -3.80    -9000.00
01858               2.80    -9000.00
01859               0.60    -9200.00
01860              -3.60    -9200.00
01861               0.40    -9200.00
01862               2.60    -9400.00
01863              -1.60    -9400.00
01864              -2.20    -9400.00
01865               2.60    -9600.00
01866               0.60    -9600.00
01867              -3.40    -9600.00
01868               1.00    -9600.00
01869               1.60    -9600.00
01870              -2.00    -9600.00
01871              -0.60    -9800.00
01872               1.40    -9600.00
01873              -0.20    -9800.00
01874              -1.40    -9800.00
01875               0.60   -10000.00
01876               0.80    -9800.00
01877              -1.00   -10000.00
01878              -0.60    -9800.00
01879               0.60    -9800.00
01880               0.20   -10000.00
01881              -1.20   -10000.00
01882               0.20   -10000.00
01883               0.60   -10000.00
01884              -0.60    -9800.00
01885              -0.20   -10000.00
01886               0.20   -10000.00
01887              -0.60   -10200.00
01888               0.20   -10000.00
01889               0.00   -10000.00
01890              -0.60   -10000.00
01891              -0.60   -10200.00
01892              -0.20   -10000.00
01893              -0.20   -10000.00
01894              -0.60   -10000.00
01895              -0.40   -10000.00
01896              -0.20   -10000.00
01897               0.20   -10000.00
01898              -0.60   -10000.00
01899              -0.60   -10000.00
01900              -0.20   -10000.00
01901              -0.40   -10000.00
01902              -0.20    -9800.00
01903              -0.60   -10000.00
01904              -0.80    -9800.00
01905               0.00    -9800.00
01906               0.20   -10000.00
01907              -0.60   -10000.00
01908              -0.40    -9800.00
01909              -0.20   -10000.00
01910              -0.40    -9800.00
01911              -0.60    -9600.00
01912              -0.40    -9600.00
01913              -0.40    -9800.00
01914              -0.60    -9800.00
01915              -0.40    -9600.00
01916               0.20    -9600.00
01917              -0.20    -9600.00
01918              -0.60    -9600.00
01919              -0.40    -9400.00
01920               0.40    -9600.00
01921              -0.60    -9200.00
01922              -0.40    -9400.00
01923              -0.60    -9200.00
01924               0.20    -9200.00
01925              -0.40    -9200.00
01926              -0.60    -9000.00
01927              -0.40    -9000.00
01928               0.00    -9000.00
01929              -0.40    -8800.00
01930              -0.20    -8800.00
01931              -0.40    -8800.00
01932              -0.60    -8800.00
01933              -0.40    -8800.00
01934               0.40    -8600.00
01935              -0.40    -8400.00
01936              -0.60    -8400.00
01937              -0.20    -8400.00
01938              -0.20    -8400.00
01939              -0.40    -8200.00
01940              -0.40    -8200.00
01941               0.20    -8000.00
01942              -0.40    -8000.00
01943              -0.20    -8000.00
01944               0.00    -8000.00
01945              -0.20    -7800.00
01946              -0.40    -7600.00
01947               0.20    -7600.00
01948              -0.20    -7600.00
01949              -0.40    -7400.00
01950              -0.40    -7200.00
01951              -0.40    -7400.00
01952               0.20    -7200.00
01953              -0.40    -7000.00
01954              -0.60    -6800.00
01955               0.20    -6800.00
01956              -0.40    -6800.00
01957              -0.60    -6600.00
01958               0.20    -6600.00
01959              -0.60    -6400.00
01960              -1.00    -6400.00
01961              -0.20    -6200.00
01962              -0.20    -6200.00
01963              -0.60    -6000.00
01964              -0.40    -6000.00
01965              -0.20    -6000.00
01966              -0.40    -5600.00
01967              -0.40    -5600.00
01968              -1.00    -5600.00
01969              -0.40    -5600.00
01970               0.20    -5200.00
01971              -1.40    -5200.00
01972              -0.40    -5000.00
01973               0.20    -5000.00
01974              -1.40    -4600.00
01975              -0.20    -4600.00
01976               0.60    -4400.00
01977              -1.80    -4400.00
01978              -0.60    -4400.00
01979               0.40    -4200.00
01980              -0.60    -4200.00
01981              -1.00    -4000.00
01982               0.00    -4000.00
01983              -0.40    -3800.00
01984              -0.60    -3600.00
01985              -0.20    -3600.00
01986              -0.20    -3400.00
01987              -0.60    -3400.00
01988              -0.40    -3200.00
01989              -0.40    -3200.00
01990              -0.40    -2800.00
01991              -0.40    -2800.00
01992              -0.20    -2600.00
01993              -0.20    -2400.00
01994              -0.20    -2400.00
01995              -0.40    -2400.00
01996              -0.60    -2000.00
01997              -0.40    -2000.00
01998              -0.20    -1800.00
01999               0.00    -1800.00
02000              -0.20    -1600.00
02001              -0.40    -1600.00
02002              -0.20    -1400.00
02003              -0.40    -1200.00
02004              -0.60    -1000.00
02005               0.20    -1000.00
02006              -0.20     -800.00
02007              -0.20     -800.00
02008               0.20     -600.00
02009              -0.40     -400.00
02010              -0.60     -200.00
02011               0.20     -200.00
02012              -0.40     -200.00
02013              -0.60        0.00
02014               0.40      200.00
02015               1.00      400.00
02016               0.60      400.00
02017              -1.00      600.00
02018              -0.40      400.00
02019               0.80      800.00
02020              -0.40      800.00
02021              -0.40      800.00
02022               5.20     1200.00
02023              17.00     1600.00
02024              -4.60     1600.00
02025             -25.00     1600.00
02026             -17.20     1600.00
02027              18.00     1800.00
02028              25.00     2200.00
02029             -25.00     2000.00
02030             -25.00     2400.00
02031              25.00     2400.00
02032              25.00     2200.00
02033             -25.00     2800.00
02034              25.00     2800.00
02035              25.00     2800.00
02036             -25.00     3000.00
02037               5.20     3200.00
02038              25.00     3200.00
02039             -25.00     3200.00
02040             -25.00     3600.00
02041              25.00     3600.00
02042              23.40     3600.00
02043             -25.00     4000.00
02044             -25.00     4000.00
02045              25.00     4200.00
02046               8.40     4400.00
02047             -25.00     4400.00
02048              25.00     4600.00
02049              25.00     4600.00
02050             -25.00     4800.00
02051               0.40     4800.00
02052              25.00     5000.00
02053             -25.00     5400.00
02054             -25.00     5200.00
02055              25.00     5400.00
02056              -0.60     5600.00
02057             -25.00     5600.00
02058              22.20     5600.00
02059              19.40     5800.00
02060             -25.00     6000.00
02061              -3.00     6000.00
02062              25.00     6200.00
02063              -9.80     6200.00
02064             -19.80     6400.00
02065              18.40     6400.00
02066               6.20     6400.00
02067             -18.60     6600.00
02068               5.20     6600.00
02069              13.00     6800.00
02070             -11.60     6800.00
02071              -6.00     6800.00
02072              13.60     7200.00
02073              -3.40     7200.00
02074             -10.80     7200.00
02075               9.60     7200.00
02076               4.20     7400.00
02077             -10.80     7600.00
02078               1.40     7800.00
02079               8.40     7800.00
02080              -6.60     7800.00
02081              -5.00     8000.00
02082               8.40     8000.00
02083              -0.60     8000.00
02084              -7.00     8200.00
02085               3.80     8200.00
02086               3.00     8200.00
02087              -6.20     8400.00
02088               0.20     8400.00
02089               4.60     8400.00
02090              -3.40     8600.00
02091              -3.00     8800.00
02092               3.40     8600.00
02093               0.20     8800.00
02094              -4.20     8600.00
02095               0.20     8800.00
02096               2.60     8800.00
02097              -2.00     9000.00
02098              -2.20     9000.00
02099               2.20     9200.00
02100              -0.60     9200.00
02101              -2.80     9200.00
02102               1.00     9400.00
02103               1.00     9200.00
02104              -2.60     9400.00
02105              -0.60     9400.00
02106               1.80     9600.00
02107              -1.00     9600.00
02108              -2.20     9600.00
02109               1.00     9600.00
02110               0.40     9600.00
02111              -1.60     9600.00
02112              -0.60     9800.00
02113               0.20     9600.00
02114              -0.40     9800.00
02115              -0.60     9800.00
02116               0.40     9800.00
02117              -0.60    10000.00
02118              -1.00     9800.00
02119               0.20     9800.00
02120               0.20    10000.00
02121              -0.60    10000.00
02122              -0.60    10000.00
02123              -0.40    10000.00
02124               0.20    10000.00
02125               0.20    10000.00
02126              -1.00    10000.00
02127              -0.60    10000.00
02128               0.40    10000.00
02129              -0.40    10000.00
02130              -0.60    10200.00
02131               0.20    10200.00
02132              -0.40    10000.00
02133              -0.40    10000.00
02134              -0.20    10000.00
02135              -0.40    10200.00
02136              -0.60    10200.00
02137              -0.40    10000.00
02138              -0.20    10000.00
02139              -0.60    10000.00
02140              -0.80    10000.00
02141               0.00    10000.00
02142               0.20    10000.00
02143              -0.20     9800.00
02144              -0.40    10000.00
02145              -0.40    10000.00
02146              -0.40    10000.00
02147              -0.20    10000.00
02148               0.20     9600.00
02149              -0.40     9800.00
02150              -0.60     9600.00
02151               0.00     9600.00
02152               0.00     9600.00
02153              -0.80     9600.00
02154              -0.60     9600.00
02155               0.00     9600.00
02156              -0.40     9400.00
02157              -0.60     9400.00
02158              -0.40     9400.00
02159              -0.20     9400.00
02160              -0.60     9400.00
02161              -0.60     9400.00
02162               0.60     9200.00
02163              -0.80     9200.00
02164              -1.20     9200.00
02165               0.60     9200.00
02166              -0.40     9000.00
02167              -1.80     8800.00
02168               0.40     8800.00
02169               0.20     9000.00
02170              -1.80     8800.00
02171               0.20     8800.00
02172               0.20     8800.00
02173              -1.40     8800.00
02174              -0.20     8600.00
02175               0.60     8400.00
02176              -1.00     8600.00
02177              -0.80     8400.00
02178               0.40     8200.00
02179              -0.40     8400.00
02180              -0.80     8200.00
02181               0.20     8000.00
02182              -0.60     8000.00
02183              -0.40     8000.00
02184              -0.20     7800.00
02185              -0.40     7800.00
02186              -0.60     7600.00
02187              -0.60     7600.00
02188              -0.20     7400.00
02189              -0.20     7600.00
02190              -0.40     7200.00
02191              -0.20     7200.00
02192               0.20     7200.00
02193              -0.20     7000.00
02194              -0.20     7000.00
02195              -0.20     6800.00
02196              -0.40     6800.00
02197              -0.40     6600.00
02198              -0.20     6600.00
02199              -0.40     6400.00
02200              -0.40     6200.00
02201              -0.20     6200.00
02202              -0.20     6200.00
02203              -0.20     6000.00
02204              -0.40     5800.00
02205              -0.20     5800.00
02206              -0.20     5600.00
02207              -0.40     5600.00
02208              -0.20     5400.00
02209              -0.20     5400.00
02210              -0.40     5200.00
02211              -0.20     5200.00
02212              -0.20     5200.00
02213               0.00     4800.00
02214              -0.60     4800.00
02215              -0.60     4800.00
02216               0.40     4600.00
02217              -0.60     4400.00
02218              -1.00     4400.00
02219               0.40     4200.00
02220              -0.20     4000.00
02221              -1.00     4000.00
02222               0.20     3800.00
02223              -0.20     3800.00
02224              -1.20     3600.00
02225               0.00     3600.00
02226               0.00     3200.00
02227              -0.60     3200.00
02228              -0.60     3000.00
02229              -0.20     3000.00
02230              -0.40     2800.00
02231              -1.00     2800.00
02232              -0.40     2800.00
02233              -0.20     2400.00
02234              -0.40     2400.00
02235              -0.60     2200.00
02236              -0.20     2000.00
02237              -0.40     2000.00
02238              -0.60     2000.00
02239              -0.40     1600.00
02240              -0.40     1800.00
02241              -0.60     1400.00
02242              -0.20     1200.00
02243              -0.40     1000.00
02244              -0.60     1200.00
02245              -0.40      800.00
02246              -0.60      800.00
02247              -0.40      600.00
02248              -0.40      600.00
02249              -0.20      400.00
02250              -0.20      200.00
02251              -0.60        0.00
02252              -0.40        0.00
02253              -0.40        0.00
02254              -0.40     -200.00
02255               0.60     -400.00
02256               1.40     -400.00
02257              -1.00     -400.00
02258              -1.00     -800.00
02259               0.80     -800.00
02260               0.20    -1000.00
02261              -0.60    -1200.00
02262              11.40    -1200.00
02263              22.60    -1600.00
02264             -25.00    -1600.00
02265             -25.00    -1800.00
02266              -0.60    -1600.00
02267              25.00    -1800.00
02268              10.80    -2400.00
02269             -25.00    -1800.00
02270              25.00    -2200.00
02271              25.00    -2600.00
02272             -25.00    -2600.00
02273             -25.00    -2400.00
02274              25.00    -3000.00
02275              12.40    -3000.00
02276             -25.00    -2800.00
02277              25.00    -3400.00
02278               3.40    -3400.00
02279             -25.00    -3200.00
02280              25.00    -3800.00
02281              17.40    -3600.00
02282              23.40    -4000.00
02283             -25.00    -3600.00
02284              21.60    -4000.00
02285              25.00    -4400.00
02286             -25.00    -4200.00
02287             -11.80    -4400.00
02288              25.00    -4600.00
02289             -25.00    -4400.00
02290             -25.00    -5000.00
02291              25.00    -4600.00
02292               0.60    -5000.00
02293             -25.00    -5000.00
02294              17.40    -5200.00
02295              25.00    -5600.00
02296             -25.00    -5400.00
02297              -4.00    -5800.00
02298              25.00    -5800.00
02299             -24.00    -5800.00
02300             -12.20    -6000.00
02301              18.60    -6000.00
02302               6.60    -6200.00
02303             -23.20    -6400.00
02304               3.00    -6400.00
02305              22.80    -6600.00
02306             -21.80    -6400.00
02307              -3.00    -6800.00
02308              17.40    -6600.00
02309              -7.60    -6800.00
02310             -10.20    -6800.00
02311               8.40    -7200.00
02312               6.20    -7200.00
02313             -14.20    -7200.00
02314               3.60    -7400.00
02315              11.40    -7400.00
02316             -10.80    -7400.00
02317              -4.20    -7600.00
02318              11.20    -7800.00
02319              -3.60    -7600.00
02320              -9.60    -7600.00
02321               7.80    -8000.00
02322               3.80    -8000.00
02323              -8.60    -8200.00
02324              -0.60    -8200.00
02325               8.20    -8200.00
02326              -5.40    -8400.00
02327              -5.60    -8400.00
02328               9.00    -8400.00
02329              -1.40    -8600.00
02330              -6.00    -8400.00
02331               3.20    -8800.00
02332               3.40    -8800.00
02333              -4.20    -8800.00
02334              -2.60    -9000.00
02335               5.00    -9000.00
02336              -0.60    -9000.00
02337              -3.80    -9200.00
02338               2.60    -9200.00
02339               1.20    -9200.00
02340              -3.60    -9200.00
02341               0.20    -9200.00
02342               2.60    -9200.00
02343              -1.40    -9200.00
02344              -2.80    -9600.00
02345               2.40    -9400.00
02346               1.40    -9600.00
02347              -3.40    -9600.00
02348               0.40    -9800.00
02349               2.00    -9600.00
02350              -1.20    -9800.00
02351              -1.80    -9800.00
02352               1.00    -9600.00
02353               0.20    -9800.00
02354              -2.00    -9800.00
02355               0.40   -10000.00
02356               0.60    -9800.00
02357              -1.40   -10000.00
02358              -0.20   -10000.00
02359               0.60   -10000.00
02360              -0.40   -10000.00
02361              -1.20   -10000.00
02362              -0.20   -10000.00
02363               0.20   -10000.00
02364              -1.00   -10000.00
02365              -0.40   -10000.00
02366               0.20   -10200.00
02367              -0.40   -10000.00
02368              -0.40   -10000.00
02369               0.40   -10000.00
02370              -1.00   -10000.00
02371              -0.60   -10200.00
02372               0.40   -10000.00
02373              -0.60   -10400.00
02374              -0.60   -10000.00
02375               0.20   -10200.00
02376              -0.60   -10200.00
02377              -0.40   -10000.00
02378               0.40   -10000.00
02379              -0.40   -10000.00
02380              -0.40   -10000.00
02381              -0.20   -10000.00
02382              -0.40   -10000.00
02383               0.20   -10000.00
02384              -1.00    -9800.00
02385              -0.60    -9800.00
02386               0.40   -10000.00
02387              -0.60    -9800.00
02388              -1.20    -9800.00
02389               0.80    -9800.00
02390               0.20   -10000.00
02391              -1.40    -9800.00
02392               0.60    -9600.00
02393               0.40    -9800.00
02394              -1.60    -9600.00
02395               0.20    -9800.00
02396               0.80    -9600.00
02397              -1.00    -9800.00
02398              -0.20    -9600.00
02399               0.20    -9600.00
02400               0.00    -9400.00
02401              -0.40    -9600.00
02402              -0.60    -9200.00
02403              -0.80    -9200.00
02404               0.40    -9200.00
02405               0.00    -9200.00
02406              -0.80    -9000.00
02407               0.20    -9200.00
02408               0.40    -9000.00
02409              -0.80    -9000.00
02410               0.00    -9000.00
02411               0.40    -9000.00
02412              -1.20    -8800.00
02413              -0.80    -8600.00
02414               0.80    -8800.00
02415              -0.40    -8600.00
02416              -1.20    -8400.00
02417               0.20    -8600.00
02418               0.20    -8400.00
02419              -1.00    -8200.00
02420              -0.60    -8200.00
02421               0.40    -8200.00
02422              -0.60    -8200.00
02423              -0.60    -8000.00
02424               0.00    -8000.00
02425               0.00    -8000.00
02426              -1.00    -7600.00
02427              -0.40    -7600.00
02428               0.20    -7400.00
02429              -0.60    -7400.00
02430              -1.00    -7200.00
02431              -0.40    -7200.00
02432              -0.20    -7200.00
02433              -0.40    -7000.00
02434              -0.80    -6800.00
02435              -0.20    -6800.00
02436               0.60    -6800.00
02437              -0.60    -6600.00
02438              -1.20    -6600.00
02439               0.60    -6400.00
02440              -0.20    -6400.00
02441              -2.00    -6400.00
02442               1.00    -6000.00
02443               1.20    -6000.00
02444              -3.00    -6000.00
02445              -0.20    -5800.00
02446               3.40    -5800.00
02447              -2.20    -5600.00
02448              -3.00    -5600.00
02449               2.20    -5400.00
02450               0.60    -5200.00
02451              -3.00    -5200.00
02452               1.00    -5000.00
02453               1.40    -5000.00
02454              -2.20    -4600.00
02455              -0.40    -4600.00
02456               1.40    -4600.00
02457              -0.60    -4400.00
02458              -1.00    -4400.00
02459               0.60    -4200.00
02460               0.20    -4200.00
02461              -1.20    -4000.00
02462              -0.60    -3800.00
02463               0.40    -4000.00
02464              -0.40    -3600.00
02465              -0.60    -3600.00
02466               0.40    -3400.00
02467               0.20    -3400.00
02468              -1.20    -3200.00
02469              -0.20    -3000.00
02470               0.40    -3000.00
02471              -1.20    -2600.00
02472              -0.40    -2600.00
02473               0.60    -2600.00
02474              -0.60    -2400.00
02475              -1.20    -2400.00
02476               0.60    -2200.00
02477              -0.20    -2000.00
02478              -1.40    -1800.00
02479               0.20    -1800.00
02480               0.20    -1800.00
02481              -1.00    -1600.00
02482              -0.60    -1200.00
02483               0.20    -1200.00
02484              -0.60    -1200.00
02485              -1.00    -1000.00
02486               0.20     -800.00
02487              -0.20     -800.00
02488              -1.00     -800.00
02489              -0.20     -400.00
02490              -0.60     -400.00
02491              -0.60     -200.00
02492               0.40        0.00
02493              -1.20        0.00
02494              -0.20        0.00
02495               1.40      400.00
02496               0.20      400.00
02497              -1.40      400.00
02498               0.20      600.00
02499               0.00      800.00
02500              -0.40      800.00
02501               0.00     1000.00
02502               3.80     1200.00
02503              16.00     1400.00
02504              -0.20     1600.00
02505             -25.00     1800.00
02506             -20.00     1600.00
02507              13.20     1800.00
02508              25.00     2000.00
02509             -25.00     2000.00
02510             -25.00     2200.00
02511              25.00     2400.00
02512              25.00     2200.00
02513             -25.00     2600.00
02514              25.00     2800.00
02515              25.00     2800.00
02516             -25.00     3000.00
02517             -11.60     3200.00
02518              25.00     3200.00
02519             -25.00     3200.00
02520             -25.00     3600.00
02521              25.00     3600.00
02522              25.00     3600.00
02523             -22.80     4000.00
02524             -25.00     4000.00
02525              25.00     4000.00
02526              22.20     4200.00
02527             -25.00     4200.00
02528              25.00     4600.00
02529              25.00     4600.00
02530             -25.00     4800.00
02531             -10.20     4800.00
02532              25.00     4800.00
02533             -20.20     5200.00
02534             -25.00     5000.00
02535              25.00     5200.00
02536               6.60     5400.00
02537             -25.00     5600.00
02538              17.00     5600.00
02539              23.60     5600.00
02540             -25.00     6000.00
02541              -7.60     6000.00
02542              25.00     6000.00
02543              -5.60     6200.00
02544             -22.00     6200.00
02545              15.80     6400.00
02546               9.40     6400.00
02547             -18.80     6600.00
02548               2.00     6800.00
02549              14.80     6800.00
02550             -10.20     6800.00
02551              -8.60     6800.00
02552              13.20     7000.00
02553              -1.80     7000.00
02554             -11.80     7200.00
02555               8.20     7400.00
02556               5.20     7600.00
02557             -10.60     7600.00
02558              -0.20     7600.00
02559               9.00     7800.00
02560              -5.80     7800.00
02561              -6.20     7800.00
02562               8.20     8000.00
02563               1.20     8000.00
02564              -8.20     8200.00
02565               2.60     8200.00
02566               4.20     8400.00
02567              -6.60     8400.00
02568              -1.00     8400.00
02569               5.80     8600.00
02570              -2.80     8600.00
02571              -3.80     8600.00
02572               4.40     8800.00
02573               0.60     8800.00
02574              -5.20     8800.00
02575               1.20     8800.00
02576               3.60     9000.00
02577              -2.80     9000.00
02578              -1.40     9200.00
02579               2.60     9200.00
02580              -0.60     9200.00
02581              -2.20     9200.00
02582               1.60     9200.00
02583               1.20     9400.00
02584              -2.60     9400.00
02585              -0.40     9400.00
02586               2.00     9400.00
02587              -0.80     9600.00
02588              -1.80     9600.00
02589               1.00     9600.00
02590               0.60     9600.00
02591              -1.40     9600.00
02592              -0.20     9600.00
02593               1.00     9800.00
02594              -0.40     9800.00
02595              -0.40     9800.00
02596               0.60     9800.00
02597              -0.80     9800.00
02598              -1.40    10000.00
02599               1.00     9800.00
02600               0.40    10000.00
02601              -1.20    10000.00
02602              -0.20     9800.00
02603               0.40    10000.00
02604              -0.60    10000.00
02605              -0.20    10000.00
02606               0.60    10000.00
02607              -0.60    10000.00
02608              -0.40    10000.00
02609               0.40    10000.00
02610              -0.60    10200.00
02611              -1.00    10000.00
02612              -0.20    10000.00
02613               0.20    10000.00
02614              -0.60    10000.00
02615              -0.40    10000.00
02616              -0.40    10000.00
02617              -0.20    10000.00
02618              -0.20    10000.00
02619              -0.40    10000.00
02620              -1.20    10000.00
02621              -0.20    10000.00
02622              -0.40    10000.00
02623              -0.40    10000.00
02624              -0.60    10000.00
02625              -0.40    10000.00
02626              -0.60    10000.00
02627               0.00     9800.00
02628               0.20     9800.00
02629              -0.40     9800.00
02630              -0.60     9600.00
02631               0.20     9800.00
02632              -0.60     9600.00
02633              -0.60     9600.00
02634              -0.60     9600.00
02635              -0.20     9600.00
02636              -0.20     9400.00
02637              -0.60     9400.00
02638              -0.40     9400.00
02639              -0.20     9400.00
02640              -0.40     9400.00
02641              -0.20     9400.00
02642              -0.20     9200.00
02643              -0.40     9200.00
02644              -0.60     9200.00
02645              -0.20     9200.00
02646              -0.20     9200.00
02647              -0.60     9000.00
02648              -0.40     8800.00
02649              -0.20     8800.00
02650              -0.20     8800.00
02651              -0.20     8800.00
02652              -0.20     8800.00
02653              -0.40     8600.00
02654              -0.20     8600.00
02655              -0.20     8600.00
02656              -0.60     8400.00
02657              -0.60     8400.00
02658              -0.20     8400.00
02659              -0.40     8400.00
02660              -0.60     8200.00
02661              -0.20     8000.00
02662              -0.40     8000.00
02663              -0.60     8000.00
02664               0.20     7800.00
02665              -0.20     7800.00
02666              -0.40     7600.00
02667               0.00     7600.00
02668              -0.20     7600.00
02669              -0.60     7200.00
02670              -0.60     7400.00
02671              -0.20     7200.00
02672              -0.40     7000.00
02673              -0.40     7000.00
02674              -0.40     6800.00
02675              -0.40     6800.00
02676              -0.60     6800.00
02677              -0.20     6600.00
02678              -0.40     6600.00
02679              -0.60     6400.00
02680              -0.60     6200.00
02681              -0.60     6400.00
02682              -0.40     6000.00
02683              -0.40     6000.00
02684              -0.40     6000.00
02685              -0.40     6000.00
02686              -0.20     5600.00
02687              -0.40     5600.00
02688              -0.40     5400.00
02689              -0.40     5400.00
02690              -0.60     5200.00
02691              -0.40     5200.00
02692              -0.60     5000.00
02693              -0.60     4800.00
02694              -0.60     4800.00
02695              -0.40     4600.00
02696              -0.40     4600.00
02697              -0.20     4400.00
02698              -0.60     4400.00
02699              -0.20     4200.00
02700              -0.20     4000.00
02701              -0.40     4000.00
02702              -0.40     3800.00
02703              -0.20     3600.00
02704              -0.20     3600.00
02705              -0.60     3400.00
02706              -0.40     3200.00
02707              -0.40     3200.00
02708              -0.60     3000.00
02709              -0.20     3000.00
02710               0.00     2800.00
02711              -0.40     2800.00
02712              -0.20     2600.00
02713              -0.20     2400.00
02714              -0.20     2400.00
02715              -0.20     2200.00
02716              -0.40     2200.00
02717              -0.20     2000.00
02718              -0.20     1800.00
02719              -0.20     1800.00
02720              -0.20     1600.00
02721              -0.20     1400.00
02722              -0.40     1400.00
02723              -0.60     1200.00
02724               0.60     1000.00
02725              -0.60      800.00
02726              -1.00      800.00
02727               0.40      800.00
02728              -0.20      600.00
02729              -1.20      400.00
02730               0.60      400.00
02731              -0.40      200.00
02732              -0.60        0.00
02733               0.20        0.00
02734               0.20     -200.00
02735               0.40     -400.00
02736               1.00     -400.00
02737              -1.00     -600.00
02738              -0.40     -800.00
02739               0.40     -800.00
02740              -1.00    -1000.00
02741               0.20    -1000.00
02742              10.00    -1000.00
02743              23.80    -1600.00
02744             -25.00    -1800.00
02745             -25.00    -2000.00
02746              -8.20    -1600.00
02747              25.00    -1800.00
02748              25.00    -2400.00
02749             -25.00    -2000.00
02750              25.00    -2200.00
02751              25.00    -2600.00
02752             -25.00    -2600.00
02753             -25.00    -2600.00
02754              25.00    -3000.00
02755              25.00    -3000.00
02756             -25.00    -2800.00
02757              25.00    -3400.00
02758              25.00    -3200.00
02759             -25.00    -3400.00
02760              25.00    -3800.00
02761              16.60    -3600.00
02762              25.00    -4000.00
02763             -25.00    -3800.00
02764               4.20    -4000.00
02765              25.00    -4200.00
02766             -25.00    -4000.00
02767             -25.00    -4400.00
02768              25.00    -4400.00
02769             -25.00    -4400.00
02770             -25.00    -5000.00
02771              25.00    -4800.00
02772               9.00    -5000.00
02773             -25.00    -5200.00
02774               9.40    -5200.00
02775              25.00    -5600.00
02776             -25.00    -5600.00
02777             -13.20    -5600.00
02778              25.00    -5800.00
02779             -19.80    -5600.00
02780             -15.60    -6000.00
02781              17.40    -6000.00
02782               9.00    -6000.00
02783             -21.40    -6200.00
02784              -1.80    -6400.00
02785              25.00    -6400.00
02786             -19.00    -6400.00
02787              -6.60    -6800.00
02788              18.60    -6800.00
02789              -5.60    -6800.00
02790             -11.00    -7000.00
02791               6.20    -7200.00
02792               8.40    -7200.00
02793             -13.20    -7200.00
02794               1.00    -7200.00
02795              13.20    -7400.00
02796              -9.40    -7400.00
02797              -6.00    -7600.00
02798              10.80    -7600.00
02799              -1.20    -7600.00
02800             -10.20    -8000.00
02801               6.20    -8000.00
02802               5.40    -8000.00
02803              -8.20    -8200.00
02804              -2.20    -8200.00
02805               8.40    -8400.00
02806              -4.20    -8200.00
02807              -7.00    -8400.00
02808               8.60    -8400.00
02809               0.00    -8600.00
02810              -7.00    -8600.00
02811               2.40    -8800.00
02812               3.80    -8800.00
02813              -4.00    -8800.00
02814              -3.40    -9000.00
02815               4.40    -8800.00
02816               0.00    -9000.00
02817              -4.20    -9000.00
02818               1.40    -9000.00
02819               1.80    -9200.00
02820              -3.40    -9200.00
02821              -0.60    -9200.00
02822               2.60    -9200.00
02823              -1.20    -9400.00
02824              -3.00    -9600.00
02825               2.00    -9600.00
02826               1.20    -9600.00
02827              -3.40    -9600.00
02828               0.20    -9600.00
02829               1.40    -9600.00
02830              -0.80    -9600.00
02831              -1.20    -9600.00
02832               0.40    -9800.00
02833               0.40    -9800.00
02834              -1.20    -9800.00
02835              -0.40    -9800.00
02836               0.40   -10000.00
02837              -0.60    -9800.00
02838              -0.40   -10000.00
02839               0.00   -10000.00
02840              -0.20   -10000.00
02841              -0.60   -10000.00
02842              -0.20   -10000.00
02843               0.40   -10000.00
02844              -0.40   -10000.00
02845              -0.60   -10000.00
02846              -0.40   -10000.00
02847              -0.40   -10000.00
02848              -0.20   -10000.00
02849              -0.40   -10000.00
02850              -0.40   -10000.00
02851              -0.60   -10200.00
02852              -0.40   -10000.00
02853               0.40    -9800.00
02854              -0.20   -10000.00
02855              -0.60   -10000.00
02856              -0.20   -10000.00
02857              -0.20   -10000.00
02858              -0.20   -10000.00
02859              -0.60   -10000.00
02860              -0.20   -10000.00
02861              -0.20   -10000.00
02862               0.00   -10000.00
02863               0.00   -10000.00
02864              -0.60   -10000.00
02865              -0.20   -10000.00
02866               0.20   -10000.00
02867              -0.60    -9800.00
02868              -0.20    -9800.00
02869              -0.40    -9800.00
02870              -0.20    -9800.00
02871              -0.40    -9800.00
02872              -0.20    -9600.00
02873              -1.00    -9600.00
02874              -0.40    -9600.00
02875               0.20    -9600.00
02876              -0.40    -9600.00
02877              -0.60    -9600.00
02878              -0.40    -9600.00
02879              -0.60    -9600.00
02880               0.20    -9400.00
02881               0.00    -9400.00
02882              -1.20    -9200.00
02883              -0.20    -9200.00
02884               0.20    -9200.00
02885              -1.00    -9200.00
02886              -0.40    -9200.00
02887               0.00    -9000.00
02888              -0.60    -9000.00
02889               0.20    -8800.00
02890              -0.20    -8800.00
02891              -0.60    -9000.00
02892              -0.80    -8800.00
02893              -0.40    -8800.00
02894              -0.20    -8800.00
02895              -0.60    -8400.00
02896              -0.60    -8400.00
02897              -0.20    -8400.00
02898              -0.20    -8400.00
02899              -0.20    -8200.00
02900              -0.40    -8200.00
02901               0.20    -8000.00
02902              -0.40    -8000.00
02903              -0.40    -8000.00
02904               0.00    -8000.00
02905              -0.40    -8000.00
02906              -0.60    -7600.00
02907              -0.20    -7600.00
02908               0.20    -7600.00
02909              -0.60    -7400.00
02910              -0.60    -7400.00
02911               0.20    -7200.00
02912               0.00    -7200.00
02913              -0.40    -7200.00
02914              -0.20    -7000.00
02915               0.20    -6800.00
02916              -0.40    -6800.00
02917              -0.20    -6800.00
02918               0.20    -6600.00
02919              -0.60    -6400.00
02920              -0.20    -6400.00
02921               0.20    -6400.00
02922              -0.20    -6200.00
02923              -0.60    -6200.00
02924              -0.20    -6000.00
02925              -0.40    -6000.00
02926              -0.20    -5800.00
02927               0.00    -5600.00
02928              -0.60    -5600.00
02929              -0.40    -5400.00
02930               0.20    -5400.00
02931              -0.20    -5200.00
02932              -0.60    -5000.00
02933               0.00    -5000.00
02934              -0.40    -5000.00
02935              -0.40    -4800.00
02936              -0.40    -4600.00
02937              -0.60    -4400.00
02938              -0.40    -4400.00
02939              -0.40    -4200.00
02940              -0.40    -4200.00
02941              -0.40    -4200.00
02942              -0.40    -4000.00
02943              -0.60    -4000.00
02944               0.00    -3600.00
02945              -0.20    -3600.00
02946              -0.60    -3400.00
02947              -0.40    -3400.00
02948              -0.20    -3200.00
02949              -0.60    -3200.00
02950              -0.40    -2800.00
02951              -0.20    -2800.00
02952              -0.60    -2600.00
02953              -0.60    -2600.00
02954              -0.20    -2400.00
02955              -0.40    -2400.00
02956              -0.60    -2400.00
02957              -0.60    -2000.00
02958              -0.20    -2000.00
02959              -0.40    -1800.00
02960              -1.00    -1800.00
02961              -0.40    -1600.00
02962               0.40    -1200.00
02963              -0.60    -1200.00
02964              -0.40    -1000.00
02965              -0.20    -1000.00
02966              -0.60     -800.00
02967              -0.60     -800.00
02968              -0.40     -800.00
02969              -0.60     -400.00
02970              -0.60     -200.00
02971               0.20     -200.00
02972              -0.40     -200.00
02973              -0.60     -200.00
02974              -0.20      200.00
02975               0.60      200.00
02976               1.00      400.00
02977              -0.60      600.00
02978              -0.40      800.00
02979               0.40      600.00
02980               0.20      800.00
02981              -0.40      800.00
02982               3.40     1200.00
02983              15.40     1600.00
02984               3.40     1600.00
02985             -25.00     1800.00
02986             -21.20     1600.00
02987               9.00     1800.00
02988              25.00     2200.00
02989             -11.80     2000.00
02990             -25.00     2200.00
02991              25.00     2400.00
02992              25.00     2400.00
02993             -25.00     2400.00
02994               8.40     2800.00
02995              25.00     2800.00
02996             -25.00     2800.00
02997             -25.00     3200.00
02998              25.00     3200.00
02999             -25.00     3200.00
03000             -25.00     3600.00
03001              22.00     3400.00
03002              25.00     3600.00
03003             -17.00     4000.00
03004             -25.00     3800.00
03005              25.00     4200.00
03006              25.00     4000.00
03007             -25.00     4400.00
03008              21.00     4400.00
03009              25.00     4400.00
03010             -25.00     4800.00
03011             -19.80     4800.00
03012              25.00     4800.00
03013             -13.00     5200.00
03014             -25.00     5400.00
03015              25.00     5200.00
03016              13.80     5400.00
03017             -25.00     5600.00
03018              10.80     5600.00
03019              25.00     5600.00
03020             -22.80     6000.00
03021             -12.40     6000.00
03022              25.00     6200.00
03023              -2.20     6200.00
03024             -23.60     6200.00
03025              13.80     6400.00
03026              12.00     6600.00
03027             -18.80     6800.00
03028              -0.80     6800.00
03029              15.60     6800.00
03030              -7.80     6800.00
03031              -9.80     7000.00
03032              12.40     7200.00
03033               0.20     7200.00
03034             -12.60     7200.00
03035               6.60     7200.00
03036               7.00     7400.00
03037              -9.80     7600.00
03038              -1.60     7600.00
03039               9.40     7800.00
03040              -4.40     7800.00
03041              -7.40     8000.00
03042               7.40     8000.00
03043               2.00     8000.00
03044              -7.00     8200.00
03045               1.80     8200.00
03046               5.00     8400.00
03047              -5.00     8400.00
03048              -2.20     8400.00
03049               5.20     8400.00
03050              -1.60     8600.00
03051              -3.80     8600.00
03052               3.00     8800.00
03053               1.80     8800.00
03054              -3.80     8800.00
03055              -1.00     8800.00
03056               3.60     9000.00
03057              -1.00     9000.00
03058              -2.80     9200.00
03059               2.00     9200.00
03060               0.40     9200.00
03061              -2.60     9200.00
03062               0.40     9200.00
03063               1.40     9400.00
03064              -2.00     9400.00
03065              -1.40     9400.00
03066               2.00     9400.00
03067              -0.40     9400.00
03068              -2.00     9400.00
03069               0.60     9600.00
03070               0.60     9600.00
03071              -1.20     9400.00
03072              -0.60     9600.00
03073               0.40     9600.00
03074              -0.60     9600.00
03075              -0.60     9600.00
03076               0.20     9800.00
03077              -0.60    10000.00
03078              -1.00    10000.00
03079               0.40    10000.00
03080               0.20    10000.00
03081              -1.00    10000.00
03082              -0.60    10000.00
03083               0.00    10000.00
03084               0.20    10000.00
03085              -1.00    10000.00
03086              -0.60    10000.00
03087               0.20    10000.00
03088              -0.40    10200.00
03089              -0.20    10000.00
03090              -0.20    10200.00
03091              -0.60    10200.00
03092              -0.60    10000.00
03093               0.20    10200.00
03094               0.20    10000.00
03095              -1.00    10000.00
03096              -0.40    10000.00
03097              -0.20    10000.00
03098              -0.60    10000.00
03099              -0.60    10000.00
03100              -0.60    10000.00
03101               0.20    10000.00
03102              -0.20    10000.00
03103               0.20    10000.00
03104              -0.20    10000.00
03105              -0.60    10000.00
03106              -0.40     9800.00
03107               0.00    10000.00
03108              -0.20     9800.00
03109              -0.60    10000.00
03110               0.00     9600.00
03111               0.20     9800.00
03112              -0.40     9800.00
03113               0.20     9800.00
03114              -0.60     9600.00
03115              -0.60     9400.00
03116               0.40     9600.00
03117               0.40     9400.00
03118              -1.20     9400.00
03119              -0.20     9400.00
03120               0.20     9400.00
03121              -0.40     9400.00
03122              -0.40     9200.00
03123              -0.20     9400.00
03124              -0.20     9400.00
03125              -0.60     9200.00
03126               0.20     9200.00
03127              -0.20     9200.00
03128              -1.00     8800.00
03129               0.00     8800.00
03130               0.40     8800.00
03131              -0.80     8800.00
03132              -0.60     8800.00
03133               0.20     8600.00
03134              -0.20     8600.00
03135              -0.60     8400.00
03136              -0.20     8600.00
03137               0.00     8400.00
03138              -1.00     8400.00
03139              -0.40     8200.00
03140               0.20     8200.00
03141              -1.00     8200.00
03142              -0.80     8000.00
03143               0.20     8200.00
03144              -0.40     7800.00
03145              -1.00     7600.00
03146               0.00     7800.00
03147              -0.40     7600.00
03148              -0.80     7600.00
03149              -0.20     7600.00
03150              -0.60     7200.00
03151              -0.60     7200.00
03152               0.00     7200.00
03153               0.00     7000.00
03154              -0.80     7000.00
03155              -0.60     6800.00
03156              -0.60     6800.00
03157              -0.60     6800.00
03158               0.00     6600.00
03159              -0.60     6400.00
03160              -0.40     6400.00
03161               0.20     6200.00
03162              -0.40     6200.00
03163              -0.20     6000.00
03164              -0.40     6000.00
03165              -0.60     5800.00
03166              -0.20     5800.00
03167               0.20     5600.00
03168              -0.60     5400.00
03169              -0.40     5400.00
03170               0.20     5400.00
03171               0.20     5200.00
03172              -0.40     5000.00
03173              -0.40     4800.00
03174              -0.20     4800.00
03175              -0.60     4800.00
03176              -0.40     4600.00
03177               0.20     4400.00
03178              -0.20     4400.00
03179              -0.60     4200.00
03180               0.20     4000.00
03181              -0.40     4000.00
03182              -0.60     3800.00
03183               0.00     3800.00
03184              -0.20     3600.00
03185              -0.60     3600.00
03186              -0.20     3400.00
03187               0.00     3200.00
03188              -0.60     3200.00
03189              -0.40     3000.00
03190               0.20     3000.00
03191              -0.40     2800.00
03192              -0.60     2600.00
03193               0.00     2400.00
03194              -0.20     2400.00
03195              -0.60     2200.00
03196              -0.60     2200.00
03197              -0.60     2000.00
03198              -0.40     1800.00
03199              -0.20     1800.00
03200              -0.40     1600.00
03201              -0.40     1400.00
03202              -0.40     1200.00
03203              -0.40     1400.00
03204              -0.40     1200.00
03205              -0.40      800.00
03206              -0.60      800.00
03207              -0.60      600.00
03208               0.20      600.00
03209              -0.60      400.00
03210              -0.20      400.00
03211              -0.60      200.00
03212              -1.40        0.00
03213               0.40     -200.00
03214               0.40     -200.00
03215               0.20     -400.00
03216               1.20     -400.00
03217              -1.20     -600.00
03218              -1.40     -800.00
03219               0.60    -1000.00
03220               0.00     -800.00
03221              -0.60    -1000.00
03222               8.40    -1200.00
03223              25.00    -1600.00
03224             -25.00    -1800.00
03225             -25.00    -2000.00
03226             -12.40    -1600.00
03227              25.00    -1800.00
03228              25.00    -2400.00
03229             -25.00    -2000.00
03230              22.80    -2000.00
03231              25.00    -2400.00
03232             -25.00    -2800.00
03233             -25.00    -2400.00
03234              25.00    -3000.00
03235              25.00    -3000.00
03236             -25.00    -2600.00
03237              25.00    -3400.00
03238              25.00    -3200.00
03239             -25.00    -3400.00
03240              25.00    -3600.00
03241              17.80    -3600.00
03242              25.00    -4000.00
03243             -25.00    -4000.00
03244             -12.20    -4000.00
03245              25.00    -4400.00
03246             -25.00    -4000.00
03247             -25.00    -4400.00
03248              25.00    -4400.00
03249             -25.00    -4400.00
03250             -25.00    -5000.00
03251              25.00    -4800.00
03252              17.40    -5000.00
03253             -25.00    -5000.00
03254               1.00    -5200.00
03255              25.00    -5600.00
03256             -25.00    -5200.00
03257             -21.80    -5600.00
03258              25.00    -5600.00
03259             -14.80    -5800.00
03260             -18.80    -6000.00
03261              15.60    -6000.00
03262              10.80    -6000.00
03263             -18.80    -6200.00
03264              -6.60    -6400.00
03265              25.00    -6400.00
03266             -15.60    -6400.00
03267             -11.00    -6600.00
03268              18.60    -6800.00
03269              -2.80    -6800.00
03270             -11.60    -7200.00
03271               4.20    -7200.00
03272              10.40    -7200.00
03273             -12.40    -7400.00
03274              -2.20    -7400.00
03275              14.80    -7200.00
03276              -8.40    -7400.00
03277              -7.40    -7800.00
03278              12.00    -7600.00
03279              -5.00    -7800.00
03280              -5.40    -8000.00
03281               1.00    -8000.00
03282               1.00    -8000.00
03283              -1.00    -8000.00
03284              -3.80    -8200.00
03285              15.00    -8200.00
03286              -5.80    -8200.00
03287              -8.40    -8400.00
03288               7.80    -8400.00
03289              -1.20    -8400.00
03290              -9.00    -8400.00
03291               1.80    -8800.00
03292               2.80    -8800.00
03293               1.80    -8800.00
03294              -2.20    -9000.00
03295               6.80    -9000.00
03296               1.40    -9000.00
03297              -9.60    -9200.00
03298               1.80    -9200.00
03299              -3.80    -9200.00
03300              -2.00    -9200.00
03301               4.00    -9200.00
03302               4.20    -9200.00
03303              -2.00    -9400.00
03304               0.60    -9400.00
03305               1.20    -9400.00
03306              -3.60    -9600.00
03307              -2.20    -9600.00
03308              -1.00    -9600.00
03309               1.80    -9600.00
03310              -1.40    -9600.00
03311               2.00    -9800.00
03312               2.60    -9800.00
03313              -0.40    -9800.00
03314              -2.60    -9800.00
03315              -1.00    -9800.00
03316              -1.00    -9800.00
03317              -0.40    -9800.00
03318               1.00   -10000.00
03319               0.40    -9800.00
03320               0.40   -10000.00
03321              -0.60   -10000.00
03322               0.40   -10000.00
03323              -0.60   -10000.00
03324              -0.80   -10000.00
03325              -2.60   -10000.00
03326              -0.80   -10000.00
03327               1.20   -10000.00
03328              -0.40   -10000.00
03329               0.40   -10000.00
03330              -0.40   -10000.00
03331              -0.60   -10000.00
03332              -0.40   -10000.00
03333              -0.20   -10000.00
03334              -0.60   -10000.00
03335              -0.80   -10000.00
03336              -0.60   -10000.00
03337              -0.20   -10000.00
03338               0.40   -10200.00
03339              -0.40   -10000.00
03340              -0.60   -10000.00
03341              -0.40   -10000.00
03342              -0.40   -10000.00
03343              -1.20   -10000.00
03344              -1.00   -10000.00
03345               0.00    -9800.00
03346               0.80   -10000.00
03347              -0.40    -9800.00
03348              -0.60    -9800.00
03349               0.40    -9800.00
03350              -0.40    -9800.00
03351              -0.60    -9600.00
03352              -0.40    -9600.00
03353               0.00    -9800.00
03354              -1.00    -9600.00
03355               0.40    -9600.00
03356               0.60    -9800.00
03357              -0.60    -9600.00
03358              -1.00    -9600.00
03359              -0.60    -9600.00
03360               0.20    -9600.00
03361              -0.20    -9200.00
03362              -1.20    -9400.00
03363               0.40    -9200.00
03364               0.40    -9200.00
03365              -0.40    -9200.00
03366               0.20    -9000.00
03367              -0.20    -9200.00
03368              -0.60    -9000.00
03369               0.20    -9000.00
03370              -0.40    -8800.00
03371              -0.40    -8800.00
03372              -0.20    -8800.00
03373              -0.20    -8800.00
03374               0.60    -8600.00
03375              -0.40    -8400.00
03376              -0.40    -8400.00
03377               0.00    -8400.00
03378              -0.20    -8400.00
03379              -0.40    -8400.00
03380               0.20    -8200.00
03381               0.00    -8200.00
03382              -0.60    -8200.00
03383               0.00    -8000.00
03384              -0.20    -8000.00
03385              -0.40    -8000.00
03386              -0.40    -7800.00
03387              -0.40    -7600.00
03388               0.20    -7600.00
03389              -0.40    -7400.00
03390              -0.40    -7400.00
03391              -0.20    -7200.00
03392               0.20    -7200.00
03393              -0.60    -7200.00
03394              -0.40    -7000.00
03395               0.40    -6800.00
03396              -0.60    -6800.00
03397              -0.60    -6600.00
03398               0.60    -6600.00
03399              -0.60    -6600.00
03400              -1.40    -6400.00
03401               1.00    -6400.00
03402               0.20    -6200.00
03403              -2.20    -6000.00
03404              -0.20    -6000.00
03405               1.00    -6000.00
03406              -1.40    -5600.00
03407              -0.40    -5800.00
03408               0.20    -5600.00
03409              -0.20    -5600.00
03410              -0.60    -5400.00
03411              -0.40    -5200.00
03412               0.00    -5000.00
03413              -1.00    -5000.00
03414              -0.60    -4800.00
03415               1.00    -4800.00
03416              -0.40    -4600.00
03417              -2.00    -4400.00
03418               0.80    -4400.00
03419               0.60    -4400.00
03420              -1.80    -4200.00
03421              -0.20    -4000.00
03422              -0.20    -4000.00
03423              -0.60    -3600.00
03424               0.20    -3600.00
03425              -0.40    -3600.00
03426              -0.40    -3400.00
03427               0.20    -3400.00
03428              -1.00    -3200.00
03429               0.00    -3200.00
03430               0.20    -3000.00
03431              -2.00    -2800.00
03432               0.60    -2800.00
03433               1.40    -2600.00
03434              -2.00    -2400.00
03435              -0.60    -2400.00
03436               0.60    -2200.00
03437              -2.00    -2200.00
03438              -0.20    -2000.00
03439               2.00    -1800.00
03440              -1.00    -1800.00
03441              -1.00    -1600.00
03442               1.20    -1400.00
03443              -0.60    -1200.00
03444              -1.80    -1200.00
03445               0.40    -1000.00
03446               0.40    -1000.00
03447              -0.60     -800.00
03448               0.20     -800.00
03449              -0.20     -600.00
03450              -1.20     -400.00
03451              -0.20     -200.00
03452               0.40        0.00
03453              -0.60        0.00
03454              -0.20        0.00
03455               1.20        0.00
03456               1.00      400.00
03457              -1.20      400.00
03458              -0.60      800.00
03459               0.60      800.00
03460               0.40      800.00
03461              -0.60     1000.00
03462               2.40     1400.00
03463              14.20     1400.00
03464               6.60     1600.00
03465             -25.00     1600.00
03466             -22.80     1800.00
03467               5.00     1600.00
03468              25.00     2200.00
03469              -0.20     2000.00
03470             -25.00     2200.00
03471              25.00     2400.00
03472              25.00     2400.00
03473             -25.00     2600.00
03474             -15.60     2600.00
03475              25.00     2800.00
03476             -25.00     2800.00
03477             -25.00     3200.00
03478              25.00     3200.00
03479             -19.60     3200.00
03480             -25.00     3600.00
03481              18.60     3400.00
03482              25.00     3600.00
03483             -10.20     3800.00
03484             -25.00     4000.00
03485              25.00     4000.00
03486              25.00     4200.00
03487             -25.00     4400.00
03488               7.80     4400.00
03489              25.00     4400.00
03490             -25.00     4800.00
03491             -25.00     4800.00
03492              25.00     4800.00
03493              -3.60     5000.00
03494             -25.00     5200.00
03495              25.00     5400.00
03496              20.40     5400.00
03497             -25.00     5600.00
03498               5.20     5600.00
03499              25.00     5600.00
03500             -19.40     6000.00
03501             -16.00     6000.00
03502              25.00     6000.00
03503               1.80     6200.00
03504             -24.40     6200.00
03505              10.60     6200.00
03506              14.60     6400.00
03507             -16.80     6600.00
03508              -3.00     6400.00
03509              15.60     6800.00
03510              -6.20     6800.00
03511             -11.40     6800.00
03512              11.00     7000.00
03513               2.80     7200.00
03514             -12.20     7200.00
03515               4.00     7200.00
03516               8.60     7400.00
03517              -8.40     7600.00
03518              -4.20     7600.00
03519               9.20     7800.00
03520              -2.00     7800.00
03521              -7.80     7800.00
03522               5.60     7800.00
03523               3.40     8000.00
03524              -7.00     8200.00
03525              -0.20     8200.00
03526               5.00     8200.00
03527              -4.20     8400.00
03528              -2.80     8200.00
03529               4.80     8600.00
03530              -1.20     8600.00
03531              -4.20     8600.00
03532               2.00     8800.00
03533               2.20     8800.00
03534              -3.40     8800.00
03535              -2.20     8800.00
03536               3.40     8800.00
03537              -0.40     8800.00
03538              -3.20     9200.00
03539               1.20     9200.00
03540               1.00     9000.00
03541              -2.80     9200.00
03542              -0.40     9200.00
03543               1.80     9200.00
03544              -1.60     9400.00
03545              -1.80     9400.00
03546               1.80     9400.00
03547               0.20     9400.00
03548              -2.20     9400.00
03549              -0.20     9600.00
03550               1.20     9800.00
03551              -0.60     9600.00
03552              -1.40     9800.00
03553               0.40     9600.00
03554               0.20     9800.00
03555              -1.20     9800.00
03556               0.20     9800.00
03557               0.00    10000.00
03558              -0.80     9800.00
03559              -0.40    10000.00
03560               0.60    10000.00
03561              -0.40    10000.00
03562              -1.20    10000.00
03563               0.20    10000.00
03564               0.20    10000.00
03565              -0.60    10000.00
03566              -0.20    10000.00
03567               0.20    10200.00
03568              -0.40    10000.00
03569              -0.20    10000.00
03570               0.20    10000.00
03571              -0.60    10000.00
03572              -0.60    10000.00
03573               0.20    10000.00
03574               0.20    10000.00
03575              -0.40    10000.00
03576              -0.60    10000.00
03577               0.00    10000.00
03578               0.20    10000.00
03579              -0.60    10000.00
03580              -0.60    10000.00
03581               0.20    10000.00
03582              -0.20    10000.00
03583               0.20    10000.00
03584              -0.40    10000.00
03585              -0.60    10000.00
03586              -0.20    10000.00
03587              -0.20    10000.00
03588              -0.60     9800.00
03589              -0.20     9800.00
03590              -0.60     9600.00
03591              -0.20     9800.00
03592              -0.20     9600.00
03593              -0.40     9600.00
03594              -0.60     9600.00
03595              -0.40     9600.00
03596              -0.20     9600.00
03597              -0.20     9600.00
03598              -1.00     9400.00
03599              -0.40     9600.00
03600              -0.20     9200.00
03601              -0.20     9200.00
03602              -0.60     9400.00
03603              -0.60     9200.00
03604              -0.60     9200.00
03605              -0.40     9200.00
03606              -0.40     9000.00
03607              -0.20     9000.00
03608              -0.60     8800.00
03609              -0.60     8800.00
03610              -0.20     8800.00
03611               0.20     8600.00
03612              -0.60     8800.00
03613              -0.60     8600.00
03614               0.20     8600.00
03615              -0.20     8600.00
03616              -0.80     8400.00
03617              -0.40     8400.00
03618              -0.40     8200.00
03619              -0.60     8200.00
03620              -0.20     8200.00
03621              -0.20     8200.00
03622               0.00     8000.00
03623              -0.20     8000.00
03624               0.20     7800.00
03625              -0.20     7800.00
03626              -0.40     7600.00
03627              -0.40     7600.00
03628               0.00     7400.00
03629              -0.40     7400.00
03630              -0.40     7200.00
03631              -0.20     7200.00
03632               0.20     7200.00
03633              -0.20     7000.00
03634              -0.40     7000.00
03635              -0.20     6800.00
03636              -0.20     6800.00
03637              -0.40     6800.00
03638               0.20     6600.00
03639              -0.40     6400.00
03640              -0.20     6200.00
03641              -0.20     6200.00
03642              -0.20     6200.00
03643              -0.40     6000.00
03644              -0.40     6000.00
03645              -0.40     5800.00
03646              -0.20     5800.00
03647               0.20     5600.00
03648              -0.60     5400.00
03649              -0.60     5400.00
03650              -0.20     5200.00
03651              -0.60     5400.00
03652              -0.60     5000.00
03653              -0.20     5000.00
03654              -0.60     4800.00
03655              -0.60     4600.00
03656              -0.20     4600.00
03657              -0.20     4400.00
03658              -1.00     4400.00
03659              -0.60     4400.00
03660              -0.20     4200.00
03661              -0.60     4000.00
03662              -1.00     4000.00
03663              -0.40     3800.00
03664              -0.40     3800.00
03665              -0.40     3600.00
03666              -0.60     3200.00
03667              -0.40     3200.00
03668              -0.40     3000.00
03669              -0.60     3000.00
03670              -0.40     3000.00
03671              -0.40     2800.00
03672              -0.60     2800.00
03673              -0.80     2400.00
03674               0.20     2400.00
03675              -0.40     2200.00
03676              -1.20     2200.00
03677               0.00     2000.00
03678               0.00     2000.00
03679              -1.00     1600.00
03680              -0.20     1800.00
03681               0.00     1600.00
03682              -1.00     1400.00
03683              -0.20     1200.00
03684               0.20     1200.00
03685              -0.60      800.00
03686              -0.60      800.00
03687               0.20      800.00
03688              -0.20      600.00
03689              -0.20      400.00
03690               0.00      400.00
03691              -0.40        0.00
03692              -0.20        0.00
03693              -0.40        0.00
03694              -0.40        0.00
03695               0.80     -400.00
03696               1.00     -400.00
03697              -0.40     -600.00
03698              -0.60     -600.00
03699               0.20     -800.00
03700               0.40    -1000.00
03701              -0.60    -1000.00
03702               5.80    -1000.00
03703              25.00    -1600.00
03704             -20.60    -1800.00
03705             -25.00    -1800.00
03706             -16.20    -1800.00
03707              25.00    -1800.00
03708              25.00    -2000.00
03709             -25.00    -2000.00
03710              -0.40    -2000.00
03711              25.00    -2600.00
03712             -20.60    -2600.00
03713             -25.00    -2400.00
03714              25.00    -3000.00
03715              25.00    -2800.00
03716             -25.00    -2800.00
03717              25.00    -3400.00
03718              25.00    -3200.00
03719             -25.00    -3200.00
03720              25.00    -3600.00
03721              17.00    -3400.00
03722              25.00    -4000.00
03723             -25.00    -4000.00
03724             -25.00    -4000.00
03725              25.00    -4400.00
03726             -25.00    -4000.00
03727             -25.00    -4400.00
03728              25.00    -4400.00
03729             -16.80    -4400.00
03730             -25.00    -4800.00
03731              25.00    -4800.00
03732              25.00    -5000.00
03733             -25.00    -5200.00
03734              -7.60    -5200.00
03735              25.00    -5600.00
03736             -25.00    -5400.00
03737             -25.00    -5800.00
03738              25.00    -5800.00
03739              -9.20    -5600.00
03740             -22.00    -6000.00
03741              13.40    -6000.00
03742              13.20    -6200.00
03743             -16.60    -6400.00
03744             -11.00    -6400.00
03745              25.00    -6400.00
03746             -11.80    -6400.00
03747             -14.80    -6600.00
03748              19.40    -6800.00
03749              -0.80    -6800.00
03750             -12.40    -6800.00
03751               2.40    -7000.00
03752              11.20    -7200.00
03753             -10.80    -7200.00
03754              -4.60    -7400.00
03755              15.40    -7200.00
03756              -6.60    -7600.00
03757              -9.40    -7400.00
03758              10.20    -7600.00
03759               2.60    -7800.00
03760             -11.00    -8000.00
03761               3.40    -8000.00
03762               7.80    -8000.00
03763              -6.80    -8200.00
03764              -4.20    -8200.00
03765               8.40    -8400.00
03766              -1.40    -8200.00
03767              -8.40    -8400.00
03768               6.60    -8400.00
03769               2.80    -8400.00
03770              -7.00    -8600.00
03771               1.00    -8800.00
03772               5.00    -8800.00
03773              -3.00    -8800.00
03774              -4.40    -8800.00
03775               4.20    -9000.00
03776               1.40    -9000.00
03777              -4.20    -9000.00
03778               1.00    -9200.00
03779               2.80    -9200.00
03780              -2.80    -9200.00
03781              -1.60    -9400.00
03782               2.80    -9200.00
03783              -0.60    -9200.00
03784              -3.00    -9600.00
03785               1.00    -9600.00
03786               2.00    -9600.00
03787              -3.00    -9600.00
03788              -1.00    -9600.00
03789               2.20    -9800.00
03790              -1.00    -9800.00
03791              -1.80    -9800.00
03792               0.60    -9600.00
03793               0.60    -9800.00
03794              -1.40    -9800.00
03795              -0.40    -9800.00
03796               0.40   -10000.00
03797              -1.00    -9800.00
03798              -0.60   -10000.00
03799               0.20   -10000.00
03800               0.20   -10000.00
03801              -0.80   -10000.00
03802              -1.00   -10000.00
03803               0.20   -10000.00
03804              -0.60   -10000.00
03805              -0.60   -10000.00
03806              -0.20   -10000.00
03807              -0.40   -10000.00
03808              -0.40   -10000.00
03809              -0.40   -10000.00
03810              -0.60   -10000.00
03811              -0.20   -10000.00
03812              -0.40   -10000.00
03813               0.40   -10000.00
03814              -0.40   -10000.00
03815              -0.60   -10000.00
03816              -0.40   -10000.00
03817              -0.40   -10000.00
03818              -0.20   -10000.00
03819              -0.40   -10000.00
03820              -0.60   -10000.00
03821              -0.20    -9800.00
03822               0.20   -10000.00
03823              -0.20   -10000.00
03824              -1.00   -10000.00
03825               0.20   -10000.00
03826               0.20   -10000.00
03827              -0.60   -10000.00
03828              -0.20    -9800.00
03829              -0.20   -10000.00
03830              -0.40    -9800.00
03831              -0.40    -9600.00
03832              -0.20    -9800.00
03833              -0.40    -9600.00
03834              -0.60    -9800.00
03835               0.20    -9800.00
03836              -0.20    -9600.00
03837              -0.80    -9600.00
03838              -0.40    -9600.00
03839              -0.40    -9600.00
03840               0.20    -9600.00
03841               0.20    -9400.00
03842              -1.00    -9200.00
03843              -0.20    -9200.00
03844              -0.20    -9200.00
03845              -0.60    -9200.00
03846              -1.00    -9200.00
03847               0.20    -9000.00
03848              -0.60    -9000.00
03849              -0.40    -9000.00
03850              -0.20    -9000.00
03851              -0.20    -8800.00
03852              -1.20    -8800.00
03853              -0.40    -8800.00
03854               0.40    -8600.00
03855              -0.60    -8400.00
03856              -0.60    -8400.00
03857               0.20    -8600.00
03858               0.20    -8400.00
03859              -1.00    -8200.00
03860              -0.60    -8200.00
03861               0.40    -8200.00
03862              -1.00    -8000.00
03863              -1.20    -8000.00
03864               0.60    -8000.00
03865              -0.40    -8000.00
03866              -1.20    -7600.00
03867               0.40    -7600.00
03868              -0.20    -7600.00
03869              -1.20    -7400.00
03870              -0.40    -7400.00
03871               0.20    -7400.00
03872              -0.60    -7200.00
03873               0.20    -7200.00
03874               0.40    -7000.00
03875              -0.60    -6800.00
03876              -1.00    -7000.00
03877               0.40    -6800.00
03878              -0.60    -6400.00
03879              -1.00    -6600.00
03880               0.20    -6400.00
03881              -0.20    -6400.00
03882              -0.60    -6200.00
03883               0.00    -6000.00
03884              -0.40    -6000.00
03885              -0.60    -6000.00
03886              -0.20    -5800.00
03887               0.20    -5800.00
03888              -0.60    -5600.00
03889              -0.40    -5400.00
03890              -0.40    -5000.00
03891               0.00    -5200.00
03892              -0.60    -5000.00
03893               0.40    -4800.00
03894              -0.60    -4800.00
03895              -0.60    -4600.00
03896               0.40    -4400.00
03897              -0.60    -4400.00
03898              -1.40    -4400.00
03899               0.40    -4200.00
03900               0.20    -4200.00
03901              -1.00    -4200.00
03902               0.00    -4000.00
03903               0.40    -3800.00
03904              -1.00    -3600.00
03905              -0.20    -3400.00
03906               0.20    -3400.00
03907              -0.60    -3400.00
03908              -0.40    -3400.00
03909               0.20    -3000.00
03910              -0.60    -3000.00
03911              -0.60    -2800.00
03912              -0.20    -2800.00
03913              -0.60    -2600.00
03914              -0.40    -2400.00
03915              -0.20    -2400.00
03916              -0.60    -2200.00
03917              -0.20    -2000.00
03918              -0.40    -1800.00
03919              -0.60    -1800.00
03920              -0.40    -1800.00
03921              -0.40    -1600.00
03922              -0.60    -1600.00
03923              -0.40    -1400.00
03924              -0.40    -1200.00
03925              -1.00    -1000.00
03926              -0.40     -800.00
03927               0.20     -800.00
03928              -0.60     -600.00
03929              -0.60     -600.00
03930               0.00     -400.00
03931              -0.80     -200.00
03932              -0.60     -200.00
03933              -0.20     -200.00
03934              -0.40        0.00
03935               0.20      400.00
03936               1.60      400.00
03937              -1.00      400.00
03938              -1.20      800.00
03939               0.80      600.00
03940               0.40     1000.00
03941              -0.80     1000.00
03942               2.60     1200.00
03943              13.00     1400.00
03944               9.00     1600.00
03945             -25.00     1600.00
03946             -24.60     1600.00
03947               0.80     1800.00
03948              25.00     2200.00
03949              11.60     2000.00
03950             -25.00     2000.00
03951              25.00     2400.00
03952              25.00     2400.00
03953             -25.00     2600.00
03954             -25.00     2800.00
03955              25.00     2800.00
03956             -25.00     2800.00
03957             -25.00     3200.00
03958              25.00     3000.00
03959              -6.20     3200.00
03960             -25.00     3600.00
03961              14.40     3200.00
03962              25.00     3600.00
03963              -5.20     4000.00
03964             -25.00     3800.00
03965              25.00     4000.00
03966              25.00     4200.00
03967             -25.00     4400.00
03968              -5.00     4400.00
03969              25.00     4600.00
03970             -25.00     4800.00
03971             -25.00     4600.00
03972              25.00     4800.00
03973               5.00     5000.00
03974             -25.00     5200.00
03975              23.40     5200.00
03976              25.00     5400.00
03977             -25.00     5600.00
03978              -1.20     5600.00
03979              25.00     5800.00
03980             -16.00     6000.00
03981             -19.60     6000.00
03982              23.40     6000.00
03983               5.40     6200.00
03984             -24.60     6400.00
03985               6.80     6400.00
03986              16.40     6400.00
03987             -15.60     6800.00
03988              -6.00     6600.00
03989              15.40     6800.00
03990              -4.20     6800.00
03991             -12.40     7000.00
03992               9.40     7000.00
03993               4.40     7000.00
03994             -12.20     7200.00
03995               2.40     7200.00
03996               9.40     7600.00
03997              -7.80     7600.00
03998              -5.80     7600.00
03999               9.40     7600.00
04000              -1.20     7800.00
04001              -8.60     8000.00
04002               5.20     7800.00
04003               3.60     8200.00
04004              -7.60     8000.00
04005               0.40     8200.00
04006               6.00     8400.00
04007              -5.80     8400.00
04008              -3.00     8400.00
04009               6.80     8400.00
04010              -1.60     8600.00
04011              -5.80     8600.00
04012               3.00     8800.00
04013               3.00     8800.00
04014              -4.40     8800.00
04015              -2.20     9000.00
04016               3.80     8800.00
04017              -0.40     9000.00
04018              -3.40     9000.00
04019               1.60     9000.00
04020               1.20     9200.00
04021              -2.60     9200.00
04022               0.20     9400.00
04023               1.80     9400.00
04024              -1.80     9400.00
04025              -1.80     9400.00
04026               2.60     9400.00
04027               0.00     9400.00
04028              -2.40     9400.00
04029               0.60     9600.00
04030               1.40     9600.00
04031              -1.80     9600.00
04032              -0.60     9600.00
04033               1.00     9800.00
04034              -1.20     9600.00
04035              -0.60     9600.00
04036               1.00     9800.00
04037              -1.00    10000.00
04038              -1.20    10000.00
04039               1.20    10000.00
04040               0.60    10000.00
04041              -2.00    10000.00
04042              -0.40    10000.00
04043               1.00    10000.00
04044              -1.00    10000.00
04045              -1.00    10000.00
04046               0.60    10000.00
04047              -0.40    10000.00
04048              -1.20    10000.00
04049              -0.40    10000.00
04050               0.40    10000.00
04051              -0.60    10000.00
04052              -1.00    10000.00
04053               0.20    10000.00
04054               0.00    10000.00
04055              -1.00    10000.00
04056              -0.60    10200.00
04057               0.20    10200.00
04058              -0.20    10000.00
04059              -0.60    10000.00
04060              -0.40    10000.00
04061              -0.20    10000.00
04062              -0.40    10000.00
04063               0.20    10000.00
04064              -0.60    10000.00
04065              -0.60    10000.00
04066               0.20     9800.00
04067              -0.60     9800.00
04068              -0.40     9800.00
04069              -0.20     9600.00
04070              -0.40     9600.00
04071              -1.00     9600.00
04072               0.20     9800.00
04073               0.20     9600.00
04074              -0.60     9600.00
04075              -0.20     9600.00
04076               0.20     9600.00
04077              -0.20     9400.00
04078              -1.00     9400.00
04079              -0.40     9400.00
04080              -0.20     9400.00
04081              -0.60     9400.00
04082              -0.40     9400.00
04083              -0.20     9200.00
04084              -0.20     9200.00
04085              -0.40     9200.00
04086               0.00     9000.00
04087              -0.20     8800.00
04088              -0.60     8800.00
04089              -0.20     8800.00
04090               0.20     8800.00
04091              -0.40     8800.00
04092              -0.40     8800.00
04093              -0.20     8600.00
04094              -0.20     8600.00
04095              -0.20     8400.00
04096              -0.20     8400.00
04097              -0.20     8400.00
04098              -0.40     8400.00
04099               0.00     8200.00
04100              -0.40     8200.00
04101              -0.20     8000.00
04102              -0.40     8000.00
04103              -0.40     8000.00
04104              -0.40     7800.00
04105              -0.40     7800.00
04106              -0.40     7600.00
04107              -0.40     7600.00
04108              -0.20     7600.00
04109              -0.20     7200.00
04110              -0.60     7200.00
04111              -0.40     7200.00
04112              -0.40     7200.00
04113              -0.40     7000.00
04114              -0.40     6800.00
04115              -0.60     6800.00
04116              -0.40     6800.00
04117              -0.40     6600.00
04118              -0.20     6800.00
04119              -0.40     6400.00
04120              -0.60     6400.00
04121              -0.40     6200.00
04122              -0.40     6200.00
04123              -0.40     6200.00
04124              -0.40     6000.00
04125              -0.40     6000.00
04126              -0.40     5600.00
04127              -0.40     5600.00
04128              -0.20     5600.00
04129              -0.60     5400.00
04130              -0.60     5200.00
04131              -0.20     5200.00
04132              -0.40     5200.00
04133              -0.40     5000.00
04134              -0.40     4800.00
04135              -0.40     4800.00
04136               0.20     4600.00
04137              -0.40     4400.00
04138              -0.60     4200.00
04139              -0.40     4000.00
04140              -0.20     4000.00
04141              -0.60     4000.00
04142              -0.20     3800.00
04143              -0.40     3800.00
04144              -0.20     3600.00
04145              -0.20     3600.00
04146              -0.20     3400.00
04147              -0.40     3200.00
04148              -0.40     3200.00
04149               0.00     3000.00
04150              -0.20     2800.00
04151              -0.40     2800.00
04152               0.20     2800.00
04153              -0.60     2400.00
04154              -0.20     2400.00
04155               0.20     2400.00
04156              -0.60     2000.00
04157              -0.60     2000.00
04158               0.20     2000.00
04159              -0.40     2000.00
04160              -0.40     1600.00
04161              -0.40     1600.00
04162              -0.40     1400.00
04163               0.20     1400.00
04164              -0.20     1200.00
04165              -0.40      800.00
04166              -0.40      800.00
04167              -0.20      600.00
04168              -0.20      600.00
04169              -0.40      600.00
04170              -0.40      400.00
04171              -0.60      200.00
04172              -0.40        0.00
04173              -0.40        0.00
04174              -0.60     -200.00
04175               0.40     -400.00
04176               1.20     -400.00
04177              -0.60     -400.00
04178              -1.20     -600.00
04179               0.40     -800.00
04180               0.00     -800.00
04181              -1.00    -1000.00
04182               5.00    -1200.00
04183              25.00    -1600.00
04184             -16.00    -1600.00
04185             -25.00    -1800.00
04186             -18.80    -1800.00
04187              25.00    -1800.00
04188              25.00    -2200.00
04189             -25.00    -2200.00
04190             -24.80    -2000.00
04191              25.00    -2600.00
04192               3.00    -2800.00
04193             -25.00    -2400.00
04194              25.00    -3200.00
04195              25.00    -2800.00
04196             -25.00    -2600.00
04197              25.00    -3400.00
04198              25.00    -3200.00
04199             -25.00    -3400.00
04200              22.00    -3600.00
04201              16.60    -3600.00
04202              25.00    -3800.00
04203             -25.00    -3600.00
04204             -25.00    -4000.00
04205              25.00    -4400.00
04206             -22.00    -4000.00
04207             -25.00    -4600.00
04208              25.00    -4600.00
04209               3.00    -4400.00
04210             -25.00    -4800.00
04211              25.00    -4600.00
04212              25.00    -5000.00
04213             -25.00    -5000.00
04214             -15.80    -5200.00
04215              25.00    -5400.00
04216             -19.00    -5200.00
04217             -25.00    -5600.00
04218              25.00    -5600.00
04219              -2.00    -5600.00
04220             -23.80    -5800.00
04221              10.20    -6000.00
04222              15.60    -6000.00
04223             -12.80    -6400.00
04224             -16.20    -6400.00
04225              25.00    -6400.00
04226              -6.80    -6400.00
04227             -18.00    -6600.00
04228              17.80    -6800.00
04229               2.20    -6600.00
04230             -12.40    -6800.00
04231               0.20    -7200.00
04232              12.20    -7200.00
04233              -8.60    -7200.00
04234              -7.40    -7400.00
04235              15.00    -7400.00
04236              -4.60    -7400.00
04237             -10.60    -7600.00
04238               9.20    -7600.00
04239               3.60    -7600.00
04240             -10.80    -7800.00
04241               1.80    -8000.00
04242               7.80    -8000.00
04243              -5.80    -8000.00
04244              -4.40    -8200.00
04245               7.00    -8400.00
04246              -0.40    -8400.00
04247              -8.40    -8400.00
04248               5.00    -8400.00
04249               3.40    -8800.00
04250              -6.20    -8600.00
04251              -0.40    -8800.00
04252               4.40    -8800.00
04253              -1.40    -8800.00
04254              -5.20    -8800.00
04255               2.60    -8800.00
04256               2.60    -9000.00
04257              -4.40    -9000.00
04258              -0.40    -9200.00
04259               3.40    -9200.00
04260              -2.60    -9200.00
04261              -2.20    -9200.00
04262               2.80    -9200.00
04263              -0.20    -9400.00
04264              -3.00    -9200.00
04265               0.60    -9400.00
04266               2.60    -9600.00
04267              -3.00    -9600.00
04268              -1.40    -9600.00
04269               2.00    -9600.00
04270              -0.60    -9600.00
04271              -1.40    -9800.00
04272               0.80    -9600.00
04273               0.80    -9800.00
04274              -1.00    -9800.00
04275              -0.40    -9800.00
04276               0.80    -9800.00
04277              -0.60   -10000.00
04278              -0.60    -9800.00
04279               0.20    -9800.00
04280               0.40   -10000.00
04281              -0.60    -9800.00
04282              -0.60   -10000.00
04283               0.60   -10000.00
04284              -0.20   -10000.00
04285              -0.60   -10000.00
04286               0.20   -10000.00
04287               0.00   -10000.00
04288              -0.20   -10000.00
04289               0.20   -10000.00
04290              -0.20   -10000.00
04291              -0.60   -10000.00
04292              -0.60   -10000.00
04293               0.60   -10000.00
04294              -0.20   -10000.00
04295              -1.20   -10000.00
04296               0.40   -10000.00
04297               0.20   -10200.00
04298              -0.60   -10000.00
04299              -0.20   -10000.00
04300               0.20   -10000.00
04301              -1.00   -10000.00
04302               0.20   -10000.00
04303               0.20   -10000.00
04304              -1.00   -10000.00
04305              -0.60   -10000.00
04306              -0.20   -10000.00
04307              -0.40   -10000.00
04308              -0.20   -10000.00
04309              -1.00    -9800.00
04310               0.20    -9800.00
04311               0.40    -9600.00
04312              -1.40    -9800.00
04313              -0.40    -9800.00
04314               0.60    -9800.00
04315              -1.20    -9800.00
04316              -0.80    -9600.00
04317               0.80    -9600.00
04318              -1.00    -9600.00
04319              -1.20    -9600.00
04320               1.20    -9600.00
04321               0.00    -9600.00
04322              -1.80    -9200.00
04323               0.60    -9200.00
04324              -0.40    -9200.00
04325              -1.00    -9200.00
04326              -0.40    -9200.00
04327              -0.40    -9200.00
04328              -0.80    -9000.00
04329               0.60    -8800.00
04330               0.20    -8800.00
04331              -0.60    -8800.00
04332              -0.40    -8800.00
04333              -0.40    -8800.00
04334              -0.40    -8600.00
04335               0.20    -8400.00
04336              -0.40    -8400.00
04337              -0.60    -8400.00
04338               0.20    -8400.00
04339               0.20    -8400.00
04340              -1.20    -8200.00
04341              -0.20    -8200.00
04342               0.00    -8000.00
04343              -0.40    -8000.00
04344               0.40    -8000.00
04345              -0.60    -7800.00
04346              -0.60    -8000.00
04347               0.40    -7600.00
04348              -0.60    -7600.00
04349              -1.20    -7400.00
04350               1.00    -7400.00
04351              -0.20    -7200.00
04352              -2.00    -7200.00
04353               0.80    -7200.00
04354               1.20    -6800.00
04355              -1.80    -6800.00
04356              -0.80    -6800.00
04357               2.20    -6800.00
04358              -1.40    -6600.00
04359              -2.80    -6400.00
04360               2.60    -6400.00
04361               0.60    -6400.00
04362              -3.80    -6200.00
04363               0.40    -6000.00
04364               2.60    -6000.00
04365              -2.80    -6000.00
04366              -1.00    -5800.00
04367               2.60    -5800.00
04368              -1.20    -5600.00
04369              -2.20    -5400.00
04370               1.20    -5400.00
04371               0.40    -5200.00
04372              -2.00    -5200.00
04373              -0.60    -5000.00
04374               0.60    -5000.00
04375              -0.60    -4600.00
04376              -1.20    -4600.00
04377               0.40    -4600.00
04378               0.40    -4400.00
04379              -1.40    -4200.00
04380               0.00    -4200.00
04381               0.60    -4000.00
04382              -1.80    -4000.00
04383              -1.00    -3800.00
04384               1.20    -3600.00
04385              -0.60    -3600.00
04386              -1.40    -3600.00
04387               0.20    -3400.00
04388               0.00    -3200.00
04389              -1.20    -3200.00
04390              -0.20    -3000.00
04391               0.40    -2800.00
04392              -1.20    -2800.00
04393              -0.40    -2600.00
04394               0.40    -2400.00
04395              -0.40    -2400.00
04396              -1.20    -2200.00
04397               0.00    -2000.00
04398              -0.20    -2000.00
04399              -0.20    -2000.00
04400              -0.80    -1600.00
04401              -0.40    -1600.00
04402              -0.20    -1600.00
04403              -0.40    -1200.00
04404              -0.60    -1200.00
04405              -0.40    -1000.00
04406              -0.60    -1000.00
04407              -0.20     -800.00
04408              -0.60     -800.00
04409              -0.60     -400.00
04410               0.00     -400.00
04411               0.00     -400.00
04412               0.20        0.00
04413              -0.80        0.00
04414              -0.20      200.00
04415               1.00      200.00
04416               1.00      400.00
04417              -0.60      600.00
04418              -0.60      600.00
04419               0.60      800.00
04420              -0.20      800.00
04421              -0.40      800.00
04422               1.80     1200.00
04423              11.60     1400.00
04424              12.20     1600.00
04425             -25.00     1600.00
04426             -25.00     1800.00
04427              -2.60     1800.00
04428              25.00     2000.00
04429              21.00     2000.00
04430             -25.00     2200.00
04431              25.00     2400.00
04432              25.00     2400.00
04433             -25.00     2400.00
04434             -25.00     2800.00
04435              25.00     2800.00
04436             -23.60     2800.00
04437             -25.00     3200.00
04438              25.00     3000.00
04439               7.00     3200.00
04440             -25.00     3600.00
04441               9.80     3400.00
04442              25.00     3400.00
04443              -0.20     4000.00
04444             -25.00     4000.00
04445              25.00     4000.00
04446              25.00     4000.00
04447             -25.00     4400.00
04448             -17.40     4400.00
04449              25.00     4400.00
04450             -25.00     4800.00
04451             -25.00     4600.00
04452              25.00     4800.00
04453              12.20     4800.00
04454             -25.00     5200.00
04455              18.00     5400.00
04456              25.00     5400.00
04457             -25.00     5400.00
04458              -6.40     5600.00
04459              25.00     5600.00
04460             -12.20     6000.00
04461             -21.40     6000.00
04462              21.00     6000.00
04463               9.00     6200.00
04464             -23.80     6400.00
04465               3.00     6400.00
04466              18.60     6400.00
04467             -13.40     6600.00
04468              -8.20     6800.00
04469              15.60     6600.00
04470              -1.40     6800.00
04471             -13.40     6800.00
04472               8.40     7000.00
04473               6.60     7200.00
04474             -12.00     7200.00
04475               0.80     7200.00
04476              10.60     7400.00
04477              -6.80     7600.00
04478              -6.60     7600.00
04479               9.20     7600.00
04480               0.40     7800.00
04481              -9.00     7800.00
04482               4.00     7800.00
04483               5.40     8000.00
04484              -6.20     8200.00
04485              -2.00     8200.00
04486               6.20     8400.00
04487              -2.80     8400.00
04488              -4.40     8400.00
04489               5.00     8600.00
04490               0.60     8600.00
04491              -4.60     8600.00
04492               1.40     8600.00
04493               3.40     8800.00
04494              -3.40     8800.00
04495              -2.80     8800.00
04496               3.20     9000.00
04497               0.40     8800.00
04498              -3.60     9200.00
04499               1.00     9200.00
04500               1.40     9200.00
04501              -2.80     9200.00
04502              -0.60     9200.00
04503               2.60     9400.00
04504              -1.40     9200.00
04505              -2.20     9400.00
04506               2.00     9400.00
04507               0.20     9400.00
04508              -2.60     9600.00
04509              -0.40     9600.00
04510               1.00     9600.00
04511              -1.00     9600.00
04512              -0.80     9600.00
04513               0.20     9600.00
04514              -0.40     9800.00
04515              -1.00     9600.00
04516               0.00     9800.00
04517              -0.20     9800.00
04518              -1.00     9600.00
04519              -0.20    10000.00
04520               0.40    10000.00
04521              -0.60    10000.00
04522              -1.00    10000.00
04523               0.20    10000.00
04524              -0.20    10000.00
04525              -0.40    10000.00
04526              -0.40    10000.00
04527              -0.20    10200.00
04528              -0.40    10000.00
04529              -0.40    10200.00
04530              -0.40    10000.00
04531              -0.60    10000.00
04532              -0.60    10000.00
04533              -0.20    10000.00
04534              -0.20    10200.00
04535               0.20    10000.00
04536              -0.40    10000.00
04537              -0.60    10000.00
04538               0.40    10000.00
04539              -0.40    10000.00
04540              -0.80    10000.00
04541               0.20    10000.00
04542               0.20    10000.00
04543              -0.40    10000.00
04544              -0.20    10000.00
04545              -0.40    10000.00
04546               0.20    10000.00
04547              -0.20    10000.00
04548              -0.20     9800.00
04549              -0.40     9800.00
04550              -0.40     9800.00
04551              -0.40     9800.00
04552               0.20     9600.00
04553              -0.20     9600.00
04554              -0.60     9600.00
04555              -0.40     9600.00
04556               0.40     9600.00
04557              -0.20     9600.00
04558              -1.00     9400.00
04559              -0.20     9400.00
04560               0.20     9400.00
04561              -0.60     9200.00
04562              -0.40     9200.00
04563              -0.20     9200.00
04564              -0.60     9200.00
04565              -0.60     9200.00
04566               0.20     9200.00
04567              -0.40     9000.00
04568              -0.80     8800.00
04569              -0.20     8800.00
04570               0.20     8800.00
04571              -0.60     8800.00
04572              -0.60     8600.00
04573              -0.40     8600.00
04574              -0.40     8600.00
04575              -0.60     8400.00
04576              -0.60     8400.00
04577              -0.60     8400.00
04578              -0.60     8400.00
04579              -0.20     8000.00
04580              -0.40     8200.00
04581              -0.60     8000.00
04582              -0.60     8200.00
04583              -0.40     7800.00
04584              -0.40     7800.00
04585              -0.40     7800.00
04586              -0.60     7600.00
04587              -0.40     7600.00
04588              -0.60     7400.00
04589              -0.40     7400.00
04590              -0.60     7200.00
04591              -0.40     7200.00
04592              -0.40     7200.00
04593              -0.40     7000.00
04594              -0.20     7000.00
04595              -0.60     6800.00
04596              -0.40     6800.00
04597              -0.20     6400.00
04598              -0.40     6600.00
04599              -0.40     6400.00
04600              -0.20     6400.00
04601              -0.40     6200.00
04602              -0.20     6200.00
04603              -0.20     6000.00
04604              -0.40     6000.00
04605              -0.40     5800.00
04606              -0.20     6000.00
04607              -0.20     5600.00
04608              -0.40     5600.00
04609              -0.40     5400.00
04610              -0.40     5200.00
04611              -0.20     5200.00
04612              -0.20     5200.00
04613              -0.40     4800.00
04614              -0.40     4800.00
04615              -0.20     4800.00
04616              -0.20     4600.00
04617              -0.20     4600.00
04618              -0.60     4400.00
04619               0.00     4200.00
04620               0.20     4000.00
04621              -0.40     4000.00
04622              -0.20     3800.00
04623               0.00     3800.00
04624              -0.60     3600.00
04625              -0.60     3400.00
04626               0.20     3400.00
04627              -0.60     3200.00
04628              -0.60     3000.00
04629              -0.20     3000.00
04630              -0.40     2800.00
04631              -0.40     2800.00
04632              -0.40     2800.00
04633              -0.40     2600.00
04634               0.20     2400.00
04635              -0.40     2200.00
04636              -1.20     2200.00
04637               0.20     2000.00
04638              -0.20     2000.00
04639              -1.80     1800.00
04640               0.40     1600.00
04641               0.60     1400.00
04642              -1.80     1400.00
04643               0.00     1400.00
04644               0.40      800.00
04645              -1.80      800.00
04646              -0.40      800.00
04647               1.00      600.00
04648              -1.20      400.00
04649              -0.60      400.00
04650               0.20      400.00
04651              -1.00      200.00
04652              -0.60        0.00
04653               0.40        0.00
04654              -0.40     -200.00
04655               0.40     -400.00
04656               1.20     -400.00
04657              -0.40     -600.00
04658              -0.60     -800.00
04659               0.20     -800.00
04660               0.20    -1000.00
04661              -0.60    -1000.00
04662               3.40    -1200.00
04663              25.00    -1600.00
04664              -9.80    -1600.00
04665             -25.00    -1800.00
04666             -21.20    -1800.00
04667              25.00    -1800.00
04668              25.00    -2000.00
04669             -25.00    -2400.00
04670             -25.00    -1800.00
04671              25.00    -2600.00
04672              25.00    -2600.00
04673             -25.00    -2200.00
04674              25.00    -3000.00
04675              25.00    -2800.00
04676             -25.00    -2800.00
04677              25.00    -3400.00
04678              25.00    -3200.00
04679             -25.00    -3400.00
04680              17.80    -3600.00
04681              17.20    -3600.00
04682              25.00    -3800.00
04683             -25.00    -3800.00
04684             -25.00    -4000.00
04685              25.00    -4200.00
04686              -0.40    -4000.00
04687             -25.00    -4400.00
04688              25.00    -4600.00
04689              21.40    -4400.00
04690             -25.00    -4800.00
04691              25.00    -4800.00
04692              25.00    -5000.00
04693             -25.00    -5200.00
04694             -23.00    -5200.00
04695              25.00    -5200.00
04696             -10.80    -5400.00
04697             -25.00    -5600.00
04698              25.00    -5800.00
04699               3.60    -5800.00
04700             -25.00    -5800.00
04701               8.60    -6200.00
04702              16.20    -6000.00
04703             -10.80    -6200.00
04704             -18.20    -6400.00
04705              25.00    -6400.00
04706              -3.60    -6600.00
04707             -20.80    -6800.00
04708              17.00    -6800.00
04709               3.80    -6800.00
04710             -12.60    -6800.00
04711              -1.60    -7200.00
04712              12.60    -7200.00
04713              -7.20    -7000.00
04714              -9.60    -7400.00
04715              15.00    -7400.00
04716              -2.20    -7600.00
04717             -11.80    -7600.00
04718               7.40    -7800.00
04719               6.00    -7800.00
04720             -10.80    -7800.00
04721              -0.40    -8000.00
04722               9.80    -8000.00
04723              -4.60    -8200.00
04724              -6.20    -8200.00
04725               6.80    -8200.00
04726               1.40    -8400.00
04727              -9.40    -8400.00
04728               3.80    -8400.00
04729               5.40    -8400.00
04730              -6.60    -8400.00
04731              -1.40    -8800.00
04732               5.20    -8800.00
04733              -1.00    -9000.00
04734              -5.40    -8800.00
04735               2.80    -9000.00
04736               3.00    -9000.00
04737              -4.20    -9000.00
04738              -0.60    -9000.00
04739               3.60    -9200.00
04740              -2.20    -9200.00
04741              -2.20    -9200.00
04742               2.60    -9400.00
04743               0.20    -9600.00
04744              -3.00    -9400.00
04745               0.20    -9400.00
04746               2.80    -9600.00
04747              -2.20    -9600.00
04748              -2.00    -9600.00
04749               2.20    -9600.00
04750              -0.20    -9600.00
04751              -1.80    -9800.00
04752               0.20    -9800.00
04753               0.60    -9800.00
04754              -0.80    -9800.00
04755              -0.40    -9800.00
04756               0.60    -9800.00
04757              -1.20    -9800.00
04758              -0.60    -9800.00
04759               0.40   -10000.00
04760              -0.20   -10000.00
04761              -0.60   -10000.00
04762              -0.60   -10000.00
04763               0.20   -10000.00
04764              -0.40   -10000.00
04765              -0.80   -10000.00
04766              -0.20   -10000.00
04767              -0.40   -10000.00
04768              -0.40   -10000.00
04769              -0.20   -10000.00
04770              -0.60   -10000.00
04771              -0.40   -10000.00
04772              -0.60   -10000.00
04773              -0.20   -10000.00
04774              -0.40   -10000.00
04775              -0.60   -10000.00
04776              -0.60   -10000.00
04777              -0.60   -10000.00
04778              -0.20   -10000.00
04779              -0.60   -10000.00
04780              -0.60   -10000.00
04781              -0.20   -10000.00
04782               0.00   -10000.00
04783               0.20   -10000.00
04784              -0.80   -10000.00
04785              -0.40    -9800.00
04786               0.40   -10000.00
04787              -0.40    -9800.00
04788              -0.20   -10000.00
04789              -0.60    -9800.00
04790              -0.20   -10000.00
04791              -0.40    -9800.00
04792              -0.60    -9600.00
04793               0.00    -9800.00
04794              -0.40    -9600.00
04795               0.00    -9600.00
04796              -0.40    -9600.00
04797               0.00    -9600.00
04798              -0.20    -9600.00
04799              -0.40    -9600.00
04800              -0.20    -9400.00
04801               0.60    -9600.00
04802              -0.80    -9200.00
04803              -0.60    -9200.00
04804               0.00    -9200.00
04805               0.20    -9200.00
04806              -1.00    -9200.00
04807               0.20    -9000.00
04808               0.20    -9000.00
04809              -0.20    -9000.00
04810               0.20    -8800.00
04811               0.20    -9000.00
04812              -0.40    -8800.00
04813              -0.20    -8800.00
04814              -0.20    -8800.00
04815               0.20    -8600.00
04816              -0.40    -8400.00
04817              -0.60    -8400.00
04818               0.40    -8400.00
04819               0.00    -8400.00
04820              -1.00    -8400.00
04821               0.20    -8200.00
04822               0.20    -8200.00
04823              -1.00    -8000.00
04824              -0.20    -8000.00
04825               0.20    -7800.00
04826              -1.20    -7800.00
04827              -0.20    -7600.00
04828               0.40    -7600.00
04829              -1.00    -7600.00
04830              -0.60    -7400.00
04831               0.20    -7400.00
04832              -0.60    -7200.00
04833              -0.60    -7200.00
04834              -0.20    -7000.00
04835              -0.60    -7000.00
04836              -0.60    -6800.00
04837              -0.20    -6600.00
04838              -0.40    -6600.00
04839              -0.60    -6400.00
04840              -0.20    -6600.00
04841              -0.20    -6400.00
04842              -0.60    -6200.00
04843              -0.60    -6200.00
04844              -0.40    -6000.00
04845              -0.40    -6000.00
04846              -0.40    -6000.00
04847              -0.20    -5600.00
04848              -0.40    -5800.00
04849              -0.60    -5600.00
04850              -0.40    -5600.00
04851              -0.40    -5200.00
04852              -0.40    -5200.00
04853              -0.40    -5000.00
04854              -0.20    -5000.00
04855              -0.20    -4800.00
04856              -0.40    -4600.00
04857              -0.40    -4600.00
04858              -0.40    -4400.00
04859              -0.20    -4400.00
04860              -0.20    -4200.00
04861              -0.60    -4000.00
04862              -0.40    -4000.00
04863              -0.20    -4000.00
04864              -0.20    -3600.00
04865              -0.20    -3600.00
04866              -0.20    -3600.00
04867              -0.20    -3200.00
04868              -0.40    -3400.00
04869              -0.20    -3200.00
04870              -0.40    -3000.00
04871              -0.60    -2800.00
04872              -0.40    -2800.00
04873               0.00    -2600.00
04874              -0.20    -2400.00
04875              -0.60    -2400.00
04876              -0.20    -2400.00
04877              -0.20    -2200.00
04878              -0.60    -1800.00
04879               0.00    -1800.00
04880              -0.20    -1800.00
04881              -0.60    -1600.00
04882              -0.40    -1600.00
04883              -0.20    -1400.00
04884              -0.60    -1200.00
04885              -0.60    -1000.00
04886              -0.20    -1000.00
04887              -0.40     -800.00
04888              -0.60     -600.00
04889              -0.40     -600.00
04890              -0.40     -400.00
04891              -0.60     -200.00
04892              -0.40     -200.00
04893              -0.40        0.00
04894              -0.60        0.00
04895               0.20      400.00
04896               1.80      400.00
04897              -0.40      400.00
04898              -1.40      600.00
04899               0.40      600.00
04900               0.60      800.00
04901              -1.20      800.00
04902               1.20     1200.00
04903              10.40     1400.00
04904              13.40     1400.00
04905             -23.80     1800.00
04906             -25.00     1600.00
04907              -5.00     1600.00
04908              25.00     2000.00
04909              25.00     2000.00
04910             -25.00     2200.00
04911              13.80     2400.00
04912              25.00     2400.00
04913             -25.00     2400.00
04914             -25.00     2800.00
04915              25.00     2800.00
04916              -1.60     2800.00
04917             -25.00     3200.00
04918              25.00     3200.00
04919              19.60     3200.00
04920             -25.00     3600.00
04921               4.60     3400.00
04922              25.00     3600.00
04923               5.80     3800.00
04924             -25.00     4000.00
04925              17.00     4000.00
04926              25.00     4200.00
04927             -25.00     4400.00
04928             -25.00     4400.00
04929              25.00     4600.00
04930             -18.80     4600.00
04931             -25.00     4800.00
04932              25.00     4800.00
04933              22.20     5000.00
04934             -25.00     5400.00
04935              10.00     5400.00
04936              25.00     5200.00
04937             -25.00     5600.00
04938             -14.00     5600.00
04939              25.00     5600.00
04940              -6.80     6000.00
04941             -25.00     6000.00
04942              18.20     6000.00
04943              13.00     6200.00
04944             -23.60     6200.00
04945              -0.60     6400.00
04946              20.20     6400.00
04947             -11.00     6600.00
04948             -10.80     6600.00
04949              15.00     6800.00
04950               0.40     6800.00
04951             -13.80     6800.00
04952               6.40     7000.00
04953               7.80     7000.00
04954             -10.80     7200.00
04955              -1.20     7200.00
04956              10.20     7400.00
04957              -5.40     7400.00
04958              -7.80     7600.00
04959               8.00     7600.00
04960               1.60     7800.00
04961              -9.20     8000.00
04962               2.20     7800.00
04963               6.20     8000.00
04964              -6.00     8200.00
04965              -3.00     8400.00
04966               6.20     8200.00
04967              -2.20     8400.00
04968              -4.60     8400.00
04969               4.40     8600.00
04970               1.00     8400.00
04971              -4.60     8600.00
04972               0.40     8600.00
04973               3.20     8600.00
04974              -2.80     8800.00
04975              -3.00     8800.00
04976               2.60     8800.00
04977               0.60     8800.00
04978              -3.40     9000.00
04979               0.20     9000.00
04980               2.00     9200.00
04981              -2.20     9200.00
04982              -1.40     9200.00
04983               2.60     9400.00
04984              -0.80     9400.00
04985              -2.40     9600.00
04986               1.40     9600.00
04987               1.00     9400.00
04988              -2.20     9600.00
04989              -0.60     9600.00
04990               1.40     9600.00
04991              -0.60     9800.00
04992              -1.20     9600.00
04993               0.40     9600.00
04994               0.20     9800.00
04995              -0.60     9800.00
04996               0.20     9600.00
04997               0.20    10000.00
04998              -0.60    10000.00
04999              -0.20     9800.00
05000               0.60    10000.00
