Unit:(mV)
                     CH1         CH2
Frequency              ? 208.249 kHz
00001              -5.40    -4600.00
00002              -6.60    -4400.00
00003              -6.00    -4400.00
00004              -5.40    -4400.00
00005              -6.00    -4400.00
00006              -6.60    -4400.00
00007              -5.20    -4400.00
00008              -5.20    -4200.00
00009              -6.00    -4200.00
00010              -5.20    -4200.00
00011              -4.80    -4200.00
00012              -5.40    -4200.00
00013              -5.20    -4000.00
00014              -4.80    -4200.00
00015              -5.00    -4200.00
00016              -5.00    -4000.00
00017              -4.60    -4000.00
00018              -4.40    -4000.00
00019              -4.60    -4000.00
00020              -5.00    -3800.00
00021              -4.00    -3800.00
00022              -4.20    -3800.00
00023              -4.60    -3800.00
00024              -4.20    -3800.00
00025              -4.00    -3600.00
00026              -3.80    -3600.00
00027              -3.80    -3600.00
00028              -3.80    -3600.00
00029              -4.00    -3600.00
00030              -3.80    -3400.00
00031              -3.60    -3400.00
00032              -3.60    -3400.00
00033              -3.60    -3400.00
00034              -3.80    -3200.00
00035              -3.40    -3200.00
00036              -3.20    -3200.00
00037              -3.00    -3200.00
00038              -3.40    -3200.00
00039              -3.00    -3000.00
00040              -2.80    -3000.00
00041              -2.80    -2800.00
00042              -2.80    -2800.00
00043              -2.80    -2800.00
00044              -2.60    -2600.00
00045              -3.00    -2800.00
00046              -2.60    -2600.00
00047              -2.20    -2600.00
00048              -2.80    -2400.00
00049              -2.60    -2600.00
00050              -1.40    -2600.00
00051              -2.80    -2400.00
00052              -2.60    -2400.00
00053              -1.60    -2200.00
00054              -2.20    -2200.00
00055              -2.60    -2000.00
00056              -2.00    -2200.00
00057              -1.80    -2000.00
00058              -2.20    -2000.00
00059              -2.20    -2000.00
00060              -1.40    -1800.00
00061              -2.00    -2000.00
00062              -1.80    -1800.00
00063              -1.80    -1800.00
00064              -2.00    -1600.00
00065              -1.40    -1600.00
00066              -1.80    -1600.00
00067              -2.00    -1600.00
00068              -1.20    -1200.00
00069              -1.40    -1200.00
00070              -2.00    -1200.00
00071              -1.20    -1200.00
00072              -0.60    -1000.00
00073              -1.40    -1000.00
00074              -1.20    -1000.00
00075              -1.00    -1000.00
00076              -1.00     -800.00
00077              -1.40     -800.00
00078              -1.00     -800.00
00079              -0.60     -600.00
00080              -1.20     -800.00
00081              -1.00     -600.00
00082              -0.40     -400.00
00083              -0.60     -400.00
00084              -1.00     -400.00
00085              -0.80     -200.00
00086              -0.60     -200.00
00087              -0.60     -200.00
00088              -0.40     -200.00
00089              -0.20     -200.00
00090               0.00        0.00
00091              -0.20        0.00
00092               0.20      400.00
00093               0.40      200.00
00094              -0.40      400.00
00095               0.20      400.00
00096               0.60      400.00
00097               1.40      400.00
00098               9.00      600.00
00099               5.00      800.00
00100             -25.00      400.00
00101              -8.20      600.00
00102              25.00      800.00
00103              10.60     1200.00
00104             -25.00      800.00
00105              13.20     1200.00
00106              25.00      800.00
00107             -25.00     1400.00
00108             -25.00     1000.00
00109              25.00     1400.00
00110              25.00     1200.00
00111             -25.00     1400.00
00112             -25.00     1600.00
00113              25.00     1400.00
00114              -4.20     1800.00
00115             -25.00     1600.00
00116              25.00     2000.00
00117              25.00     1600.00
00118             -25.00     2000.00
00119              -8.40     2000.00
00120              25.00     1800.00
00121             -25.00     2200.00
00122             -25.00     2200.00
00123              25.00     2200.00
00124              25.00     2000.00
00125             -25.00     2200.00
00126               0.20     2400.00
00127              25.00     2200.00
00128             -25.00     2600.00
00129             -25.00     2400.00
00130              25.00     2400.00
00131              25.00     2400.00
00132             -25.00     2600.00
00133               6.00     2800.00
00134              25.00     2800.00
00135             -25.00     3000.00
00136             -25.00     3000.00
00137              25.00     2800.00
00138              11.40     3000.00
00139             -25.00     3000.00
00140              25.00     3000.00
00141              25.00     3000.00
00142             -25.00     3200.00
00143              -4.80     3200.00
00144              25.00     3200.00
00145             -10.20     3200.00
00146             -24.60     3200.00
00147              25.00     3400.00
00148              16.40     3600.00
00149             -24.60     3400.00
00150               7.00     3600.00
00151              25.00     3600.00
00152             -12.00     3600.00
00153              -9.00     3600.00
00154              24.20     3600.00
00155               4.20     3800.00
00156             -15.80     3800.00
00157              14.80     3800.00
00158              16.40     4000.00
00159             -12.60     4000.00
00160               2.80     4000.00
00161              19.60     4000.00
00162              -2.20     4000.00
00163              -5.00     4000.00
00164              15.60     4000.00
00165               7.80     4400.00
00166              -7.00     4200.00
00167               8.80     4400.00
00168              13.20     4400.00
00169              -3.20     4000.00
00170               2.00     4400.00
00171              14.20     4400.00
00172               4.00     4400.00
00173              -1.80     4400.00
00174              10.20     4400.00
00175               9.80     4400.00
00176              -0.60     4400.00
00177               6.00     4600.00
00178              11.60     4600.00
00179               2.80     4600.00
00180               3.00     4600.00
00181              10.60     4600.00
00182               7.00     4600.00
00183               1.40     4800.00
00184               8.40     4600.00
00185              10.60     4800.00
00186               3.00     4800.00
00187               5.00     4800.00
00188              10.60     4600.00
00189               6.80     4800.00
00190               3.60     4800.00
00191               9.00     4800.00
00192               9.00     4800.00
00193               4.60     4800.00
00194               7.40     4800.00
00195               9.60     4800.00
00196               6.20     4800.00
00197               6.20     4800.00
00198               9.00     4800.00
00199               8.40     4800.00
00200               6.20     4800.00
00201               7.60     4800.00
00202               8.60     4800.00
00203               7.60     4800.00
00204               7.40     5000.00
00205               8.20     4800.00
00206               8.40     4800.00
00207               7.80     4800.00
00208               7.60     5000.00
00209               8.60     5000.00
00210               8.40     4800.00
00211               7.40     4800.00
00212               8.60     4800.00
00213               8.60     4800.00
00214               7.60     4800.00
00215               7.80     4800.00
00216               8.20     5000.00
00217               8.20     4800.00
00218               8.20     4800.00
00219               7.60     4800.00
00220               7.60     4800.00
00221               7.40     4800.00
00222               7.40     4800.00
00223               7.80     4800.00
00224               7.00     4800.00
00225               7.40     4800.00
00226               7.40     5000.00
00227               7.40     4800.00
00228               6.80     4800.00
00229               6.60     4800.00
00230               6.80     4600.00
00231               7.40     4600.00
00232               6.00     4800.00
00233               6.00     4800.00
00234               6.60     4600.00
00235               6.20     4600.00
00236               5.80     4600.00
00237               6.00     4400.00
00238               6.00     4600.00
00239               5.80     4600.00
00240               6.00     4600.00
00241               6.20     4400.00
00242               5.80     4600.00
00243               5.40     4400.00
00244               5.80     4400.00
00245               5.00     4400.00
00246               4.60     4400.00
00247               5.40     4400.00
00248               4.60     4400.00
00249               4.60     4200.00
00250               5.40     4200.00
00251               4.40     4200.00
00252               4.40     4200.00
00253               5.20     4000.00
00254               4.60     4000.00
00255               3.80     4000.00
00256               5.20     4000.00
00257               4.20     4000.00
00258               3.40     3800.00
00259               4.40     4000.00
00260               4.20     3800.00
00261               3.00     3800.00
00262               4.20     3800.00
00263               4.20     3800.00
00264               3.00     3600.00
00265               3.40     3600.00
00266               3.80     3600.00
00267               3.00     3600.00
00268               3.00     3400.00
00269               3.40     3400.00
00270               3.20     3200.00
00271               2.80     3200.00
00272               3.00     3200.00
00273               3.40     3200.00
00274               2.60     3200.00
00275               2.20     3200.00
00276               3.40     3200.00
00277               3.00     3200.00
00278               1.60     3000.00
00279               2.60     3000.00
00280               2.80     2800.00
00281               2.00     2800.00
00282               2.20     2800.00
00283               2.60     2800.00
00284               1.80     2800.00
00285               2.00     2600.00
00286               2.60     2800.00
00287               2.00     2600.00
00288               1.60     2400.00
00289               2.20     2400.00
00290               2.20     2400.00
00291               1.60     2200.00
00292               1.40     2200.00
00293               2.20     2200.00
00294               1.80     2200.00
00295               1.20     2000.00
00296               1.40     2200.00
00297               1.80     2000.00
00298               1.20     1800.00
00299               1.40     1800.00
00300               1.40     2000.00
00301               1.80     1600.00
00302               1.00     1800.00
00303               1.00     1600.00
00304               1.80     1600.00
00305               1.20     1400.00
00306               0.40     1400.00
00307               1.80     1400.00
00308               1.40     1400.00
00309               0.40     1200.00
00310               1.00     1200.00
00311               1.20     1000.00
00312               0.20      800.00
00313               0.40      800.00
00314               1.00      800.00
00315               0.40      800.00
00316               0.20      800.00
00317               0.60      800.00
00318               0.60      600.00
00319               0.20      600.00
00320               0.40      600.00
00321               0.60      600.00
00322              -0.20      400.00
00323               0.20      400.00
00324               0.40      400.00
00325              -0.60      200.00
00326              -0.40        0.00
00327               0.20        0.00
00328              -0.20        0.00
00329              -0.40        0.00
00330              -0.20        0.00
00331               0.20     -200.00
00332               0.20     -200.00
00333              -0.40     -200.00
00334              -0.40     -400.00
00335              -0.60     -400.00
00336              -1.00     -400.00
00337               3.60     -400.00
00338              15.20     -600.00
00339             -18.60     -800.00
00340             -25.00     -600.00
00341              25.00     -800.00
00342              25.00     -800.00
00343             -25.00    -1000.00
00344             -25.00     -800.00
00345              25.00    -1000.00
00346              25.00    -1400.00
00347             -25.00    -1000.00
00348               3.00    -1200.00
00349              25.00    -1400.00
00350             -25.00    -1400.00
00351             -25.00    -1200.00
00352              25.00    -1600.00
00353              25.00    -1600.00
00354             -25.00    -1600.00
00355             -13.40    -1600.00
00356              25.00    -1800.00
00357             -25.00    -1800.00
00358             -25.00    -1800.00
00359              25.00    -1800.00
00360              25.00    -2200.00
00361             -25.00    -2000.00
00362               8.20    -2000.00
00363              25.00    -2400.00
00364             -25.00    -2000.00
00365             -25.00    -2400.00
00366              25.00    -2400.00
00367              25.00    -2400.00
00368             -25.00    -2400.00
00369              -4.60    -2600.00
00370              25.00    -2800.00
00371             -25.00    -2400.00
00372             -25.00    -2800.00
00373              25.00    -2800.00
00374              25.00    -2800.00
00375             -25.00    -2800.00
00376               8.60    -2800.00
00377              25.00    -3200.00
00378             -25.00    -3000.00
00379             -25.00    -3000.00
00380              25.00    -3200.00
00381             -16.20    -3000.00
00382             -25.00    -3400.00
00383              25.00    -3200.00
00384              10.60    -3200.00
00385             -25.00    -3400.00
00386               2.00    -3400.00
00387              19.80    -3600.00
00388             -15.80    -3400.00
00389             -19.40    -3600.00
00390              14.80    -3600.00
00391               2.00    -3600.00
00392             -25.00    -3600.00
00393               4.40    -3600.00
00394              11.80    -3800.00
00395             -23.00    -3800.00
00396              -6.80    -4000.00
00397              13.80    -4000.00
00398             -12.60    -4000.00
00399             -15.60    -4000.00
00400               7.80    -4200.00
00401              -2.00    -4000.00
00402             -17.80    -4000.00
00403              -0.80    -4000.00
00404               4.60    -4200.00
00405             -15.00    -4200.00
00406              -9.20    -4200.00
00407               6.00    -4200.00
00408              -8.20    -4200.00
00409             -15.00    -4400.00
00410               2.20    -4400.00
00411              -1.40    -4400.00
00412             -14.80    -4400.00
00413              -5.40    -4600.00
00414               1.20    -4400.00
00415              -9.60    -4600.00
00416             -11.20    -4400.00
00417              -0.40    -4600.00
00418              -5.00    -4600.00
00419             -12.40    -4600.00
00420              -4.40    -4400.00
00421              -2.20    -4800.00
00422             -10.80    -4600.00
00423              -9.00    -4800.00
00424              -2.00    -4600.00
00425              -7.00    -4800.00
00426             -11.40    -4600.00
00427              -5.00    -4800.00
00428              -4.40    -4800.00
00429             -10.20    -4600.00
00430              -8.00    -4600.00
00431              -4.80    -4800.00
00432              -7.80    -5000.00
00433              -9.80    -4800.00
00434              -6.40    -5000.00
00435              -6.60    -5000.00
00436             -10.00    -5000.00
00437              -8.40    -5000.00
00438              -6.60    -4600.00
00439              -8.40    -5000.00
00440              -8.80    -4800.00
00441              -7.80    -5000.00
00442              -7.40    -4800.00
00443              -8.40    -4800.00
00444              -9.00    -5000.00
00445              -8.60    -4600.00
00446              -8.20    -5000.00
00447              -9.00    -5000.00
00448              -8.60    -5000.00
00449              -8.20    -4800.00
00450              -8.80    -5000.00
00451              -9.20    -5000.00
00452              -8.40    -4600.00
00453              -8.40    -5000.00
00454              -8.60    -5000.00
00455              -9.00    -5000.00
00456              -7.80    -5000.00
00457              -8.20    -5000.00
00458              -9.80    -4600.00
00459              -8.40    -5000.00
00460              -7.40    -4800.00
00461              -8.60    -4600.00
00462              -8.60    -5000.00
00463              -7.60    -4600.00
00464              -7.60    -4800.00
00465              -7.80    -4800.00
00466              -8.40    -4800.00
00467              -7.00    -4600.00
00468              -7.60    -5000.00
00469              -7.60    -4600.00
00470              -7.00    -4600.00
00471              -6.40    -4600.00
00472              -8.20    -4600.00
00473              -7.00    -4600.00
00474              -6.00    -4800.00
00475              -7.40    -4600.00
00476              -7.40    -4600.00
00477              -6.00    -4400.00
00478              -6.20    -4400.00
00479              -6.80    -4600.00
00480              -6.20    -4400.00
00481              -5.40    -4400.00
00482              -6.80    -4400.00
00483              -6.20    -4400.00
00484              -4.80    -4400.00
00485              -5.80    -4400.00
00486              -7.00    -4400.00
00487              -4.60    -4400.00
00488              -4.60    -4200.00
00489              -6.00    -4400.00
00490              -5.40    -4200.00
00491              -4.60    -4200.00
00492              -5.40    -4200.00
00493              -5.40    -4200.00
00494              -4.60    -4200.00
00495              -5.00    -4000.00
00496              -5.20    -4000.00
00497              -4.60    -4000.00
00498              -4.20    -4000.00
00499              -4.60    -4000.00
00500              -4.80    -4000.00
00501              -3.80    -4000.00
00502              -4.00    -3800.00
00503              -4.60    -3800.00
00504              -4.40    -3600.00
00505              -3.60    -3600.00
00506              -4.20    -3600.00
00507              -4.20    -3600.00
00508              -3.60    -3400.00
00509              -3.80    -3600.00
00510              -3.80    -3400.00
00511              -3.60    -3400.00
00512              -3.40    -3200.00
00513              -3.60    -3400.00
00514              -3.60    -3400.00
00515              -3.20    -3200.00
00516              -3.40    -3200.00
00517              -3.00    -3200.00
00518              -2.80    -3000.00
00519              -3.00    -3200.00
00520              -3.00    -3000.00
00521              -2.80    -2800.00
00522              -3.00    -2800.00
00523              -3.00    -2800.00
00524              -2.80    -2800.00
00525              -2.80    -2800.00
00526              -2.80    -2600.00
00527              -3.00    -2600.00
00528              -2.80    -2600.00
00529              -2.80    -2600.00
00530              -2.60    -2400.00
00531              -2.20    -2400.00
00532              -2.20    -2400.00
00533              -2.60    -2200.00
00534              -2.20    -2400.00
00535              -1.80    -2000.00
00536              -2.80    -2000.00
00537              -2.20    -2000.00
00538              -1.40    -2000.00
00539              -2.20    -2000.00
00540              -2.20    -2000.00
00541              -1.80    -1800.00
00542              -1.80    -1800.00
00543              -2.20    -1600.00
00544              -1.80    -1600.00
00545              -1.40    -1600.00
00546              -2.00    -1600.00
00547              -1.80    -1400.00
00548              -0.60    -1200.00
00549              -1.20    -1400.00
00550              -2.20    -1200.00
00551              -1.00    -1000.00
00552              -0.40    -1200.00
00553              -1.80    -1000.00
00554              -1.40    -1000.00
00555              -0.40     -800.00
00556              -1.00     -800.00
00557              -1.20     -800.00
00558              -0.60     -600.00
00559              -0.60     -800.00
00560              -1.20     -600.00
00561              -0.60     -400.00
00562              -0.20     -400.00
00563              -0.60     -400.00
00564              -0.60     -400.00
00565              -0.40     -400.00
00566               0.20        0.00
00567              -0.40     -200.00
00568              -0.60     -200.00
00569              -0.60        0.00
00570              -0.40        0.00
00571               0.40        0.00
00572               1.20      200.00
00573               0.40        0.00
00574              -0.60      400.00
00575               0.40      400.00
00576               0.40      400.00
00577               1.00      400.00
00578               6.80      600.00
00579              10.80      800.00
00580             -25.00      600.00
00581             -23.60      600.00
00582              25.00      800.00
00583              24.20      800.00
00584             -25.00      800.00
00585             -20.40     1200.00
00586              25.00     1200.00
00587               9.40     1000.00
00588             -25.00      800.00
00589              25.00     1400.00
00590              25.00     1200.00
00591             -25.00     1600.00
00592             -25.00     1200.00
00593              25.00     1600.00
00594              25.00     1400.00
00595             -25.00     1600.00
00596              25.00     1800.00
00597              25.00     1400.00
00598             -25.00     2000.00
00599             -25.00     1800.00
00600              25.00     1800.00
00601              10.20     2000.00
00602             -25.00     2200.00
00603              25.00     2200.00
00604              25.00     2000.00
00605             -25.00     2400.00
00606             -25.00     2400.00
00607              25.00     2200.00
00608               3.00     2400.00
00609             -25.00     2400.00
00610              25.00     2400.00
00611              25.00     2800.00
00612             -25.00     2600.00
00613             -17.20     2800.00
00614              25.00     2800.00
00615             -10.00     3000.00
00616             -25.00     2800.00
00617              25.00     2800.00
00618              25.00     3000.00
00619             -25.00     3000.00
00620              10.20     3200.00
00621              25.00     3000.00
00622             -25.00     3200.00
00623             -20.20     3200.00
00624              25.00     3200.00
00625               4.60     3200.00
00626             -25.00     3200.00
00627              19.40     3400.00
00628              25.00     3600.00
00629             -22.00     3400.00
00630              -2.60     3600.00
00631              25.00     3600.00
00632              -3.40     3600.00
00633             -15.80     3800.00
00634              21.00     3600.00
00635              13.20     3600.00
00636             -17.80     3800.00
00637               8.40     3800.00
00638              21.80     3800.00
00639              -9.00     4000.00
00640              -3.80     4000.00
00641              20.20     3800.00
00642               3.80     4000.00
00643              -8.60     4000.00
00644              12.60     4000.00
00645              12.40     4200.00
00646              -6.80     4000.00
00647               5.00     4200.00
00648              15.40     4200.00
00649              -0.40     4400.00
00650              -1.80     4400.00
00651              13.80     4400.00
00652               7.40     4400.00
00653              -3.60     4400.00
00654               8.40     4400.00
00655              12.20     4400.00
00656               0.20     4400.00
00657               3.20     4400.00
00658              11.80     4600.00
00659               5.20     4600.00
00660               1.00     4600.00
00661               9.00     4600.00
00662               9.00     4600.00
00663               1.20     4800.00
00664               6.00     4600.00
00665              11.00     4800.00
00666               4.60     4800.00
00667               3.60     4800.00
00668               9.40     4800.00
00669               8.20     4800.00
00670               3.80     4800.00
00671               7.40     4800.00
00672               9.00     4800.00
00673               5.80     4800.00
00674               6.60     4800.00
00675               8.60     4800.00
00676               7.60     4800.00
00677               5.80     4800.00
00678               7.40     4800.00
00679               8.60     5000.00
00680               7.40     4800.00
00681               7.80     4800.00
00682               7.60     5000.00
00683               8.40     4800.00
00684               8.60     4800.00
00685               7.40     5000.00
00686               7.60     5000.00
00687               9.00     5000.00
00688               8.60     5000.00
00689               7.60     5200.00
00690               8.40     4800.00
00691               9.20     4800.00
00692               7.80     4800.00
00693               8.00     5000.00
00694               9.00     4800.00
00695               8.20     4800.00
00696               7.60     4800.00
00697               9.00     5000.00
00698               8.60     5000.00
00699               7.00     4800.00
00700               7.60     4800.00
00701               8.40     4800.00
00702               7.00     4800.00
00703               7.80     4800.00
00704               7.80     4800.00
00705               7.40     4800.00
00706               7.00     4800.00
00707               8.20     4800.00
00708               7.00     4800.00
00709               6.20     4800.00
00710               7.40     4600.00
00711               7.40     4800.00
00712               5.80     4800.00
00713               6.20     4600.00
00714               7.40     4800.00
00715               6.20     4600.00
00716               5.20     4600.00
00717               6.40     4600.00
00718               6.60     4600.00
00719               5.20     4600.00
00720               5.40     4400.00
00721               6.60     4400.00
00722               5.20     4400.00
00723               5.00     4400.00
00724               5.80     4400.00
00725               5.40     4400.00
00726               5.00     4400.00
00727               4.40     4400.00
00728               5.00     4400.00
00729               5.20     4200.00
00730               4.20     4200.00
00731               4.80     4000.00
00732               5.20     4000.00
00733               4.40     4200.00
00734               4.40     4000.00
00735               4.60     4000.00
00736               4.20     4000.00
00737               4.20     4000.00
00738               4.40     4000.00
00739               3.80     3800.00
00740               3.60     3800.00
00741               3.60     3800.00
00742               4.00     3800.00
00743               3.80     3800.00
00744               3.60     3800.00
00745               3.60     3600.00
00746               4.00     3600.00
00747               3.60     3600.00
00748               3.60     3600.00
00749               3.60     3400.00
00750               3.00     3400.00
00751               2.80     3400.00
00752               3.40     3400.00
00753               2.80     3200.00
00754               2.80     3200.00
00755               2.80     3200.00
00756               3.00     3200.00
00757               3.20     3200.00
00758               2.80     3200.00
00759               2.40     3000.00
00760               2.80     3000.00
00761               2.80     2800.00
00762               2.60     2800.00
00763               2.60     2800.00
00764               2.60     2800.00
00765               2.60     2600.00
00766               1.40     2800.00
00767               1.80     2600.00
00768               3.40     2400.00
00769               2.20     2400.00
00770               1.80     2400.00
00771               2.20     2200.00
00772               1.60     2400.00
00773               1.20     2200.00
00774               2.00     2200.00
00775               2.00     2000.00
00776               2.00     2000.00
00777               1.80     2000.00
00778               1.40     2000.00
00779               1.20     1800.00
00780               1.80     1600.00
00781               0.40     1800.00
00782               1.00     1800.00
00783               3.00     1600.00
00784               1.20     1600.00
00785              -0.60     1400.00
00786               1.20     1600.00
00787               1.40     1400.00
00788               0.00     1400.00
00789               1.20     1400.00
00790               2.00     1400.00
00791               0.40     1200.00
00792              -0.40     1200.00
00793               1.00     1200.00
00794               0.80     1000.00
00795              -0.20      800.00
00796               0.40      800.00
00797               1.00      800.00
00798               0.40      600.00
00799              -0.60      600.00
00800               0.20      600.00
00801               0.40      400.00
00802              -0.60      400.00
00803              -0.20      400.00
00804               1.00      400.00
00805              -0.40      400.00
00806              -1.20        0.00
00807               0.40        0.00
00808              -0.20        0.00
00809              -0.20        0.00
00810               0.20        0.00
00811              -0.40     -200.00
00812               1.00     -200.00
00813              -0.20     -200.00
00814              -1.20     -400.00
00815              -0.20     -400.00
00816               0.40     -200.00
00817               0.80     -400.00
00818              14.80     -800.00
00819              -5.00     -800.00
00820             -25.00     -600.00
00821              25.00     -800.00
00822              25.00     -800.00
00823             -25.00    -1000.00
00824             -25.00     -800.00
00825              25.00    -1000.00
00826              25.00    -1200.00
00827             -25.00    -1000.00
00828             -25.00    -1200.00
00829              25.00    -1200.00
00830               9.80    -1600.00
00831             -25.00    -1200.00
00832              25.00    -1200.00
00833              25.00    -1800.00
00834             -25.00    -1600.00
00835             -25.00    -1800.00
00836              25.00    -1800.00
00837              16.60    -1800.00
00838             -25.00    -1800.00
00839              25.00    -2000.00
00840              25.00    -2000.00
00841             -25.00    -1800.00
00842             -25.00    -2000.00
00843              25.00    -2200.00
00844             -14.60    -2000.00
00845             -25.00    -2400.00
00846              25.00    -2400.00
00847              25.00    -2400.00
00848             -25.00    -2400.00
00849             -25.00    -2600.00
00850              25.00    -2600.00
00851               0.40    -2400.00
00852             -25.00    -2800.00
00853              25.00    -2800.00
00854              25.00    -2800.00
00855             -25.00    -2800.00
00856             -18.20    -2800.00
00857              25.00    -2800.00
00858             -25.00    -3000.00
00859             -25.00    -3200.00
00860              25.00    -3200.00
00861               5.60    -3200.00
00862             -25.00    -3200.00
00863              20.60    -3200.00
00864              23.40    -3200.00
00865             -25.00    -3400.00
00866              -8.60    -3400.00
00867              22.20    -3600.00
00868              -8.60    -3400.00
00869             -24.60    -3600.00
00870              10.00    -3400.00
00871              10.00    -3600.00
00872             -25.00    -3600.00
00873              -4.40    -3600.00
00874              16.80    -3800.00
00875             -17.40    -3800.00
00876             -15.40    -3800.00
00877              14.60    -4000.00
00878              -6.00    -4000.00
00879             -20.60    -4200.00
00880               5.20    -4000.00
00881               3.40    -4200.00
00882             -18.00    -4000.00
00883              -5.20    -4000.00
00884               7.40    -4200.00
00885             -11.40    -4000.00
00886             -13.80    -4200.00
00887               5.80    -4200.00
00888              -3.40    -4400.00
00889             -16.60    -4200.00
00890              -1.00    -4400.00
00891               2.20    -4400.00
00892             -13.40    -4400.00
00893              -9.00    -4600.00
00894               2.20    -4400.00
00895              -7.00    -4400.00
00896             -13.00    -4400.00
00897              -1.40    -4400.00
00898              -2.20    -4600.00
00899             -12.40    -4600.00
00900              -6.40    -4600.00
00901              -1.00    -4800.00
00902              -9.20    -4600.00
00903             -10.80    -4600.00
00904              -2.40    -4600.00
00905              -5.00    -4800.00
00906             -11.80    -4600.00
00907              -6.20    -4800.00
00908              -3.00    -4800.00
00909              -9.40    -4800.00
00910              -9.40    -4600.00
00911              -4.60    -4800.00
00912              -6.80    -5000.00
00913             -10.20    -4800.00
00914              -7.40    -5000.00
00915              -5.80    -4800.00
00916              -9.20    -4800.00
00917              -9.20    -4800.00
00918              -6.60    -4800.00
00919              -7.80    -5000.00
00920              -9.60    -5000.00
00921              -8.40    -5000.00
00922              -7.00    -5000.00
00923              -8.60    -5000.00
00924              -9.20    -5000.00
00925              -8.40    -5000.00
00926              -8.20    -4800.00
00927              -9.00    -5000.00
00928              -9.00    -5000.00
00929              -8.20    -4600.00
00930              -9.00    -5000.00
00931              -9.20    -5000.00
00932              -8.40    -5000.00
00933              -8.60    -5000.00
00934              -9.20    -5000.00
00935              -9.20    -4600.00
00936              -8.20    -5000.00
00937              -8.20    -5000.00
00938              -9.40    -4800.00
00939              -8.60    -5000.00
00940              -7.80    -5000.00
00941              -7.80    -4800.00
00942              -9.00    -4800.00
00943              -7.80    -4800.00
00944              -7.60    -4600.00
00945              -8.20    -4800.00
00946              -7.80    -4800.00
00947              -7.00    -4800.00
00948              -7.40    -4600.00
00949              -7.40    -4800.00
00950              -6.60    -4600.00
00951              -6.80    -4800.00
00952              -7.80    -4600.00
00953              -6.80    -4600.00
00954              -6.00    -4800.00
00955              -7.40    -4600.00
00956              -6.80    -4600.00
00957              -5.80    -4600.00
00958              -6.40    -4600.00
00959              -6.40    -4600.00
00960              -6.00    -4600.00
00961              -5.60    -4400.00
00962              -6.00    -4400.00
00963              -6.00    -4400.00
00964              -5.40    -4400.00
00965              -5.40    -4400.00
00966              -6.20    -4400.00
00967              -5.60    -4400.00
00968              -4.60    -4400.00
00969              -5.40    -4200.00
00970              -5.80    -4200.00
00971              -5.00    -4200.00
00972              -5.00    -4000.00
00973              -5.40    -4000.00
00974              -4.60    -4000.00
00975              -4.60    -4000.00
00976              -5.20    -4200.00
00977              -5.00    -4000.00
00978              -4.20    -4000.00
00979              -4.60    -4000.00
00980              -5.20    -3800.00
00981              -4.20    -4000.00
00982              -3.80    -3800.00
00983              -4.80    -3600.00
00984              -4.60    -3800.00
00985              -3.60    -3600.00
00986              -4.40    -3600.00
00987              -4.40    -3600.00
00988              -3.80    -3400.00
00989              -3.80    -3600.00
00990              -4.20    -3400.00
00991              -3.60    -3400.00
00992              -3.40    -3400.00
00993              -4.20    -3400.00
00994              -3.60    -3200.00
00995              -2.80    -3400.00
00996              -3.80    -3200.00
00997              -3.80    -3200.00
00998              -2.20    -3200.00
00999              -3.60    -2800.00
01000              -4.20    -3000.00
01001              -2.60    -2800.00
01002              -2.00    -2800.00
01003              -4.40    -2800.00
01004              -2.80    -2600.00
01005              -1.00    -2800.00
01006              -3.80    -2400.00
01007              -3.80    -2800.00
01008              -0.60    -2400.00
01009              -1.80    -2600.00
01010              -5.00    -2400.00
01011              -2.20    -2400.00
01012              -0.40    -2400.00
01013              -3.80    -2200.00
01014              -2.80    -2200.00
01015              -0.40    -2000.00
01016              -2.20    -2000.00
01017              -3.80    -2000.00
01018              -1.20    -2000.00
01019              -1.00    -2000.00
01020              -2.80    -2000.00
01021              -2.20    -1800.00
01022              -1.00    -1800.00
01023              -1.80    -1600.00
01024              -2.60    -1800.00
01025              -1.00    -1600.00
01026              -1.20    -1600.00
01027              -1.80    -1400.00
01028              -1.20    -1200.00
01029              -1.00    -1200.00
01030              -2.00    -1200.00
01031              -1.60    -1200.00
01032              -0.40    -1000.00
01033              -1.20    -1000.00
01034              -1.80    -1000.00
01035              -0.40     -800.00
01036              -0.60    -1000.00
01037              -2.00     -800.00
01038              -0.60     -800.00
01039               0.20     -800.00
01040              -1.80     -800.00
01041              -1.00     -600.00
01042               1.20     -600.00
01043              -1.00     -400.00
01044              -2.00     -400.00
01045               0.40     -400.00
01046              -0.40     -200.00
01047              -1.80     -200.00
01048               0.20     -200.00
01049               0.40        0.00
01050              -1.20        0.00
01051              -0.20        0.00
01052               1.40      200.00
01053              -0.20        0.00
01054              -1.00      200.00
01055               0.40      200.00
01056               0.60      400.00
01057               0.40      400.00
01058               4.60      600.00
01059              13.20      800.00
01060             -17.80      600.00
01061             -25.00      600.00
01062              25.00      800.00
01063              25.00      800.00
01064             -25.00      800.00
01065             -25.00     1000.00
01066              25.00     1200.00
01067              25.00     1000.00
01068             -25.00     1000.00
01069               2.00     1200.00
01070              25.00     1200.00
01071             -25.00     1400.00
01072             -25.00     1400.00
01073              25.00     1800.00
01074              25.00     1400.00
01075             -25.00     1600.00
01076               1.40     1800.00
01077              25.00     1600.00
01078             -25.00     1800.00
01079             -25.00     2000.00
01080              25.00     2000.00
01081              25.00     2000.00
01082             -25.00     2000.00
01083              17.40     2200.00
01084              25.00     2000.00
01085             -25.00     2400.00
01086             -25.00     2400.00
01087              25.00     2200.00
01088              25.00     2600.00
01089             -25.00     2400.00
01090              13.00     2600.00
01091              25.00     2400.00
01092             -25.00     2800.00
01093             -25.00     2800.00
01094              25.00     2800.00
01095              15.40     3000.00
01096             -25.00     2800.00
01097              25.00     2800.00
01098              25.00     2800.00
01099             -25.00     3000.00
01100              -9.80     3000.00
01101              25.00     3200.00
01102             -12.40     3200.00
01103             -25.00     3200.00
01104              25.00     3000.00
01105              18.80     3400.00
01106             -25.00     3200.00
01107               9.00     3600.00
01108              25.00     3200.00
01109             -15.40     3400.00
01110             -10.80     3400.00
01111              25.00     3600.00
01112               5.40     3600.00
01113             -19.40     3600.00
01114              14.80     3600.00
01115              19.00     3600.00
01116             -15.40     3800.00
01117               1.40     3800.00
01118              22.80     4000.00
01119              -3.40     4000.00
01120              -8.40     4000.00
01121              17.40     3800.00
01122               8.60     4000.00
01123              -9.80     4000.00
01124               8.60     4000.00
01125              14.80     4000.00
01126              -4.60     4000.00
01127               1.00     4200.00
01128              15.00     4200.00
01129               3.00     4400.00
01130              -3.80     4400.00
01131              11.40     4400.00
01132              10.20     4400.00
01133              -3.00     4400.00
01134               5.40     4400.00
01135              12.60     4600.00
01136               2.40     4400.00
01137               1.80     4600.00
01138              10.80     4600.00
01139               6.80     4400.00
01140               0.60     4600.00
01141               8.00     4600.00
01142               9.80     4600.00
01143               2.00     4600.00
01144               5.00     4600.00
01145              11.00     4600.00
01146               6.20     4800.00
01147               3.40     4800.00
01148               8.60     4600.00
01149               9.40     4800.00
01150               4.20     4800.00
01151               6.80     4800.00
01152               9.80     4800.00
01153               6.20     4800.00
01154               5.80     4800.00
01155               8.80     4800.00
01156               8.20     4800.00
01157               5.80     4800.00
01158               7.80     4800.00
01159               9.20     4800.00
01160               7.40     4800.00
01161               7.00     4800.00
01162               8.80     5200.00
01163               8.60     4800.00
01164               7.60     4800.00
01165               7.80     4800.00
01166               9.00     4800.00
01167               7.80     4800.00
01168               8.20     5000.00
01169               8.60     4800.00
01170               8.40     4800.00
01171               8.20     4800.00
01172               8.40     4800.00
01173               8.60     4800.00
01174               8.20     4800.00
01175               7.60     4800.00
01176               8.40     4800.00
01177               8.60     4800.00
01178               7.60     4800.00
01179               7.40     4800.00
01180               7.40     4800.00
01181               7.60     4800.00
01182               8.00     4800.00
01183               7.00     4800.00
01184               6.60     4800.00
01185               8.40     4800.00
01186               6.60     4800.00
01187               6.60     4800.00
01188               7.80     4800.00
01189               5.80     4800.00
01190               7.40     4800.00
01191               6.60     4600.00
01192               6.60     4800.00
01193               6.60     4800.00
01194               5.40     4600.00
01195               6.60     4600.00
01196               6.20     4600.00
01197               5.60     4600.00
01198               5.40     4600.00
01199               6.40     4600.00
01200               5.80     4400.00
01201               4.60     4600.00
01202               6.60     4400.00
01203               5.80     4400.00
01204               4.20     4400.00
01205               5.80     4400.00
01206               5.80     4400.00
01207               4.60     4400.00
01208               4.40     4400.00
01209               5.60     4400.00
01210               5.20     4400.00
01211               3.60     4200.00
01212               5.00     4200.00
01213               5.40     4000.00
01214               4.20     4000.00
01215               4.00     4000.00
01216               5.20     4000.00
01217               4.40     4000.00
01218               3.60     4000.00
01219               4.60     3800.00
01220               4.20     3800.00
01221               3.40     3800.00
01222               4.20     3800.00
01223               4.40     3600.00
01224               3.60     3600.00
01225               3.40     3800.00
01226               4.20     3600.00
01227               3.60     3600.00
01228               3.20     3600.00
01229               3.60     3600.00
01230               3.60     3400.00
01231               2.80     3400.00
01232               3.40     3200.00
01233               3.40     3200.00
01234               2.80     3200.00
01235               2.80     3200.00
01236               3.00     3200.00
01237               2.80     3000.00
01238               2.20     3000.00
01239               2.80     3000.00
01240               2.60     2800.00
01241               2.60     3000.00
01242               2.60     2800.00
01243               2.60     2800.00
01244               2.00     2800.00
01245               2.00     2400.00
01246               2.20     2800.00
01247               2.00     2800.00
01248               1.80     2600.00
01249               1.80     2400.00
01250               2.20     2400.00
01251               2.00     2400.00
01252               1.20     2200.00
01253               1.80     2200.00
01254               2.00     2000.00
01255               1.20     2000.00
01256               1.20     2000.00
01257               2.00     2000.00
01258               1.20     2000.00
01259               1.00     2000.00
01260               2.00     1800.00
01261               1.80     1600.00
01262               0.20     1600.00
01263               1.40     1600.00
01264               1.80     1600.00
01265               1.00     1400.00
01266               0.60     1600.00
01267               1.20     1400.00
01268               1.40     1400.00
01269               0.20     1200.00
01270               1.20     1200.00
01271               1.00     1200.00
01272               0.40     1000.00
01273               0.80     1000.00
01274               1.00      800.00
01275               0.20      800.00
01276               0.40      800.00
01277               1.00      800.00
01278               0.40      800.00
01279               0.20      800.00
01280               0.40      600.00
01281               0.60      400.00
01282               0.20      400.00
01283              -0.20      400.00
01284               0.60      400.00
01285               0.20      200.00
01286              -0.40      200.00
01287               0.20        0.00
01288               0.40        0.00
01289              -0.20        0.00
01290              -0.40     -200.00
01291               0.20        0.00
01292               0.20     -200.00
01293               0.20     -200.00
01294              -0.40     -200.00
01295              -0.60     -400.00
01296              -0.40     -600.00
01297               1.00     -400.00
01298              12.40     -800.00
01299               2.80     -800.00
01300             -25.00     -800.00
01301              18.20     -600.00
01302              25.00     -800.00
01303             -15.60    -1000.00
01304             -25.00     -800.00
01305              25.00    -1000.00
01306              25.00    -1200.00
01307             -25.00    -1400.00
01308             -25.00    -1000.00
01309              25.00    -1200.00
01310              25.00    -1600.00
01311             -25.00    -1200.00
01312              13.00    -1200.00
01313              25.00    -1600.00
01314             -25.00    -1600.00
01315             -25.00    -1800.00
01316              25.00    -1600.00
01317              25.00    -2000.00
01318             -25.00    -1800.00
01319              24.00    -2000.00
01320              25.00    -2000.00
01321             -25.00    -1800.00
01322             -25.00    -2200.00
01323              25.00    -2200.00
01324              24.60    -2200.00
01325             -25.00    -2400.00
01326              22.60    -2400.00
01327              25.00    -2400.00
01328             -25.00    -2400.00
01329             -25.00    -2600.00
01330              25.00    -2600.00
01331              25.00    -2600.00
01332             -25.00    -2800.00
01333               5.40    -2600.00
01334              25.00    -2800.00
01335             -25.00    -2800.00
01336             -25.00    -2800.00
01337              25.00    -3200.00
01338              -3.60    -2800.00
01339             -25.00    -3200.00
01340              25.00    -3000.00
01341              25.00    -3200.00
01342             -25.00    -3200.00
01343               5.80    -3200.00
01344              25.00    -3400.00
01345             -25.00    -3200.00
01346             -18.60    -3400.00
01347              21.20    -3400.00
01348              -0.20    -3400.00
01349             -25.00    -3400.00
01350               3.40    -3600.00
01351              14.80    -3600.00
01352             -21.20    -3600.00
01353             -12.60    -3600.00
01354              18.00    -3800.00
01355             -10.60    -3600.00
01356             -20.80    -4000.00
01357              12.20    -3800.00
01358               0.40    -4000.00
01359             -22.20    -4000.00
01360               1.20    -4000.00
01361               7.00    -4000.00
01362             -15.60    -4000.00
01363              -9.20    -4200.00
01364               7.80    -4200.00
01365              -7.60    -4200.00
01366             -16.20    -4200.00
01367               3.40    -4200.00
01368              -0.40    -4400.00
01369             -17.00    -4200.00
01370              -4.00    -4400.00
01371               3.60    -4400.00
01372             -11.40    -4400.00
01373             -11.60    -4400.00
01374               1.80    -4400.00
01375              -4.60    -4400.00
01376             -13.60    -4600.00
01377              -3.20    -4400.00
01378              -1.20    -4400.00
01379             -11.60    -4600.00
01380              -8.60    -4600.00
01381              -1.00    -4600.00
01382              -7.80    -4600.00
01383             -11.60    -4800.00
01384              -3.60    -4600.00
01385              -4.00    -4600.00
01386             -11.40    -4800.00
01387              -8.20    -4600.00
01388              -4.20    -4800.00
01389              -7.60    -4600.00
01390             -10.40    -4600.00
01391              -6.20    -4800.00
01392              -5.00    -5000.00
01393              -9.80    -4600.00
01394              -9.00    -4800.00
01395              -4.60    -5000.00
01396              -7.80    -5000.00
01397             -10.60    -4600.00
01398              -6.80    -5000.00
01399              -6.20    -4800.00
01400             -10.20    -4600.00
01401              -9.00    -5000.00
01402              -6.60    -5000.00
01403              -8.60    -5000.00
01404              -9.40    -5000.00
01405              -7.80    -5000.00
01406              -7.60    -5000.00
01407              -9.20    -5000.00
01408              -8.60    -5000.00
01409              -7.80    -5000.00
01410              -8.60    -5000.00
01411              -9.20    -5000.00
01412              -8.20    -5000.00
01413              -8.20    -5000.00
01414              -9.20    -5000.00
01415              -8.80    -4800.00
01416              -8.20    -5000.00
01417              -8.20    -5000.00
01418              -8.60    -5000.00
01419              -8.80    -4800.00
01420              -8.00    -4600.00
01421              -7.80    -4800.00
01422              -8.60    -4800.00
01423              -8.20    -5000.00
01424              -7.20    -4800.00
01425              -7.60    -4600.00
01426              -8.20    -4800.00
01427              -7.40    -4600.00
01428              -6.80    -4800.00
01429              -7.60    -4800.00
01430              -7.00    -4600.00
01431              -6.60    -4600.00
01432              -7.60    -4600.00
01433              -7.00    -4800.00
01434              -6.00    -4600.00
01435              -7.40    -4600.00
01436              -7.00    -4600.00
01437              -6.00    -4600.00
01438              -6.20    -4600.00
01439              -6.60    -4600.00
01440              -6.00    -4400.00
01441              -5.60    -4400.00
01442              -5.80    -4400.00
01443              -6.80    -4400.00
01444              -5.40    -4400.00
01445              -5.20    -4400.00
01446              -7.20    -4400.00
01447              -5.80    -4400.00
01448              -4.60    -4400.00
01449              -6.00    -4200.00
01450              -6.20    -4200.00
01451              -4.40    -4200.00
01452              -5.20    -4200.00
01453              -6.00    -4200.00
01454              -4.20    -4200.00
01455              -4.60    -4200.00
01456              -5.80    -4000.00
01457              -4.60    -4000.00
01458              -4.20    -4000.00
01459              -5.00    -4000.00
01460              -4.80    -4000.00
01461              -4.40    -3800.00
01462              -4.20    -3600.00
01463              -4.40    -4000.00
01464              -4.40    -3800.00
01465              -3.80    -3600.00
01466              -4.20    -3600.00
01467              -4.40    -3600.00
01468              -3.80    -3600.00
01469              -3.80    -3600.00
01470              -3.80    -3600.00
01471              -3.40    -3400.00
01472              -3.40    -3400.00
01473              -3.60    -3200.00
01474              -3.80    -3400.00
01475              -3.40    -3200.00
01476              -3.40    -3200.00
01477              -3.00    -3200.00
01478              -3.20    -3200.00
01479              -3.00    -3000.00
01480              -3.20    -3000.00
01481              -3.00    -2800.00
01482              -3.00    -2800.00
01483              -3.00    -2800.00
01484              -2.60    -2800.00
01485              -2.60    -2800.00
01486              -2.80    -2600.00
01487              -2.80    -2400.00
01488              -2.60    -2600.00
01489              -2.60    -2400.00
01490              -2.40    -2400.00
01491              -2.20    -2400.00
01492              -2.60    -2400.00
01493              -2.40    -2400.00
01494              -2.00    -2200.00
01495              -2.00    -2400.00
01496              -2.20    -2000.00
01497              -2.20    -2200.00
01498              -2.00    -2000.00
01499              -2.00    -1800.00
01500              -2.20    -2000.00
01501              -2.20    -1800.00
01502              -1.40    -1800.00
01503              -1.40    -1600.00
01504              -2.60    -1600.00
01505              -1.00    -1600.00
01506              -1.00    -1600.00
01507              -2.80    -1200.00
01508              -1.20    -1400.00
01509               0.20    -1400.00
01510              -2.60    -1200.00
01511              -2.60    -1200.00
01512               0.40    -1000.00
01513              -1.40    -1000.00
01514              -2.60    -1000.00
01515              -0.20    -1000.00
01516              -0.60     -800.00
01517              -1.80     -800.00
01518              -1.20     -800.00
01519              -0.40     -800.00
01520              -0.40     -400.00
01521              -2.00     -600.00
01522              -0.60     -400.00
01523               1.00     -400.00
01524              -1.80     -400.00
01525              -1.40     -200.00
01526               1.00     -200.00
01527              -0.40     -200.00
01528              -1.40     -200.00
01529               0.20        0.00
01530               0.40        0.00
01531              -0.80        0.00
01532               0.20        0.00
01533               1.20        0.00
01534               0.40        0.00
01535              -1.20      400.00
01536               0.40      400.00
01537               2.00      400.00
01538               2.60      600.00
01539              12.00      600.00
01540              -7.00      600.00
01541             -25.00      600.00
01542              25.00      800.00
01543              25.00      800.00
01544             -25.00      800.00
01545             -25.00      800.00
01546              25.00     1200.00
01547              25.00     1000.00
01548             -25.00     1200.00
01549             -25.00     1200.00
01550              25.00     1400.00
01551              15.40     1400.00
01552             -25.00     1400.00
01553              25.00     1800.00
01554              25.00     1400.00
01555             -25.00     1800.00
01556             -25.00     1800.00
01557              25.00     1800.00
01558               1.00     1800.00
01559             -25.00     2000.00
01560              25.00     2000.00
01561              25.00     2000.00
01562             -25.00     2200.00
01563             -18.80     2200.00
01564              25.00     2000.00
01565             -15.20     2400.00
01566             -25.00     2200.00
01567              25.00     2200.00
01568              25.00     2400.00
01569             -25.00     2400.00
01570             -12.60     2400.00
01571              25.00     2400.00
01572             -14.20     2800.00
01573             -25.00     2600.00
01574              25.00     2800.00
01575              25.00     2800.00
01576             -25.00     2800.00
01577               7.40     3000.00
01578              25.00     2800.00
01579             -25.00     3200.00
01580             -25.00     3000.00
01581              25.00     3000.00
01582               5.40     3200.00
01583             -25.00     3200.00
01584              25.00     3200.00
01585              25.00     3200.00
01586             -25.00     3200.00
01587              -1.80     3400.00
01588              25.00     3200.00
01589              -7.20     3600.00
01590             -18.20     3600.00
01591              23.80     3400.00
01592              13.60     3600.00
01593             -21.00     3800.00
01594               8.40     3800.00
01595              24.20     3600.00
01596             -11.60     3800.00
01597              -5.00     3800.00
01598              23.00     3800.00
01599               2.60     4000.00
01600             -12.20     4000.00
01601              14.60     4000.00
01602              13.80     4000.00
01603              -9.80     4000.00
01604               4.40     4000.00
01605              17.20     4000.00
01606              -1.80     4200.00
01607              -2.80     4000.00
01608              15.00     4200.00
01609               6.80     4400.00
01610              -5.40     4400.00
01611               9.20     4400.00
01612              12.80     4200.00
01613              -1.20     4600.00
01614               2.80     4400.00
01615              13.00     4400.00
01616               4.40     4400.00
01617               0.20     4600.00
01618               9.80     4600.00
01619               8.60     4600.00
01620               1.40     4600.00
01621               6.80     4600.00
01622              10.00     4600.00
01623               3.80     4800.00
01624               3.80     4600.00
01625               9.40     4600.00
01626               7.60     4800.00
01627               3.40     4800.00
01628               7.60     4800.00
01629               9.60     4800.00
01630               5.40     4800.00
01631               5.60     4800.00
01632               9.00     5000.00
01633               7.00     4800.00
01634               5.80     4800.00
01635               8.20     4800.00
01636               7.80     4800.00
01637               5.80     4800.00
01638               8.20     4800.00
01639               9.00     4800.00
01640               6.60     5000.00
01641               8.00     4800.00
01642               8.40     4800.00
01643               7.60     4800.00
01644               8.20     4800.00
01645               8.40     5000.00
01646               7.40     5200.00
01647               8.00     4800.00
01648               8.80     4800.00
01649               7.60     4800.00
01650               7.80     4800.00
01651               8.40     4800.00
01652               8.20     5000.00
01653               8.20     4800.00
01654               8.60     5000.00
01655               8.20     5000.00
01656               7.80     4800.00
01657               8.20     4800.00
01658               8.40     4800.00
01659               7.40     4800.00
01660               7.40     4800.00
01661               8.20     4800.00
01662               7.60     4800.00
01663               7.00     4800.00
01664               7.80     4800.00
01665               7.40     4800.00
01666               6.80     4800.00
01667               7.00     4800.00
01668               7.60     4800.00
01669               6.60     4800.00
01670               6.40     4800.00
01671               7.20     4800.00
01672               7.00     4800.00
01673               5.80     4800.00
01674               6.40     4600.00
01675               7.00     4600.00
01676               5.80     4600.00
01677               5.80     4400.00
01678               6.20     4600.00
01679               5.40     4400.00
01680               5.40     4600.00
01681               6.00     4400.00
01682               5.80     4400.00
01683               5.00     4600.00
01684               5.80     4400.00
01685               5.80     4400.00
01686               4.60     4400.00
01687               5.20     4400.00
01688               5.40     4400.00
01689               5.00     4400.00
01690               5.40     4200.00
01691               4.80     4200.00
01692               4.20     4200.00
01693               4.40     4200.00
01694               5.00     4000.00
01695               4.40     4000.00
01696               4.20     4000.00
01697               4.40     4000.00
01698               4.20     3800.00
01699               3.80     3800.00
01700               4.20     3800.00
01701               3.80     3800.00
01702               3.60     3800.00
01703               4.00     3800.00
01704               3.80     3600.00
01705               3.40     3600.00
01706               3.40     3600.00
01707               3.40     3600.00
01708               3.40     3600.00
01709               3.40     3600.00
01710               3.20     3600.00
01711               3.40     3600.00
01712               2.80     3200.00
01713               2.80     3400.00
01714               3.60     3200.00
01715               1.80     3200.00
01716               2.20     3200.00
01717               3.80     3200.00
01718               2.00     3000.00
01719               2.00     3000.00
01720               3.80     3000.00
01721               2.00     3000.00
01722               1.80     3000.00
01723               3.40     2800.00
01724               2.60     2800.00
01725               1.60     2800.00
01726               2.80     2600.00
01727               2.40     2600.00
01728               1.00     2400.00
01729               2.00     2400.00
01730               2.60     2400.00
01731               1.60     2200.00
01732               1.80     2400.00
01733               2.20     2200.00
01734               1.80     2200.00
01735               1.80     2200.00
01736               2.00     2000.00
01737               1.80     2200.00
01738               1.20     2000.00
01739               1.40     2000.00
01740               1.80     2000.00
01741               1.20     1800.00
01742               1.00     1800.00
01743               1.40     1600.00
01744               1.40     1800.00
01745               1.20     1400.00
01746               1.00     1600.00
01747               1.20     1400.00
01748               1.00     1400.00
01749               1.00     1200.00
01750               1.00     1200.00
01751               1.00     1200.00
01752               0.60     1200.00
01753               1.00      800.00
01754               1.00      800.00
01755               0.40     1000.00
01756               0.40      800.00
01757               0.40      800.00
01758               0.40      600.00
01759               0.20      600.00
01760               0.20      600.00
01761               0.20      400.00
01762               0.20      600.00
01763               0.20      400.00
01764               0.40      200.00
01765               0.20      400.00
01766              -0.60      400.00
01767               0.20      200.00
01768              -0.20        0.00
01769              -0.40        0.00
01770               0.40        0.00
01771              -0.60     -200.00
01772              -0.60     -200.00
01773               0.40     -200.00
01774              -0.60     -400.00
01775              -1.20     -400.00
01776               0.20     -400.00
01777               0.20     -600.00
01778               9.40     -400.00
01779              10.60     -800.00
01780             -25.00     -800.00
01781              -5.40     -600.00
01782              25.00     -800.00
01783              -1.20    -1000.00
01784             -25.00    -1000.00
01785              20.60    -1000.00
01786              25.00    -1000.00
01787             -25.00    -1400.00
01788             -25.00    -1200.00
01789              25.00    -1200.00
01790              25.00    -1600.00
01791             -25.00    -1400.00
01792             -25.00    -1600.00
01793              25.00    -1600.00
01794              -1.00    -1800.00
01795             -25.00    -1600.00
01796              25.00    -1600.00
01797              25.00    -2000.00
01798             -25.00    -1600.00
01799             -25.00    -2000.00
01800              25.00    -2000.00
01801             -25.00    -2000.00
01802             -25.00    -2000.00
01803              25.00    -2000.00
01804              25.00    -2400.00
01805             -25.00    -2000.00
01806              -7.80    -2400.00
01807              25.00    -2400.00
01808             -23.80    -2400.00
01809             -25.00    -2600.00
01810              25.00    -2600.00
01811              25.00    -2600.00
01812             -25.00    -2600.00
01813             -19.00    -2600.00
01814              25.00    -2800.00
01815             -21.20    -2800.00
01816             -25.00    -2800.00
01817              25.00    -3000.00
01818              23.00    -2800.00
01819             -25.00    -3000.00
01820              20.00    -3200.00
01821              25.00    -3200.00
01822             -25.00    -3200.00
01823             -11.80    -3400.00
01824              25.00    -3400.00
01825             -16.80    -3200.00
01826             -25.00    -3400.00
01827              17.00    -3400.00
01828               9.20    -3400.00
01829             -25.00    -3400.00
01830              -5.40    -3600.00
01831              18.00    -3600.00
01832             -14.20    -3600.00
01833             -20.20    -3600.00
01834              16.40    -3600.00
01835              -1.60    -3600.00
01836             -25.00    -4000.00
01837               7.40    -4000.00
01838               6.40    -4000.00
01839             -21.80    -4000.00
01840              -4.60    -4000.00
01841               9.00    -4200.00
01842             -11.60    -4000.00
01843             -13.40    -4200.00
01844               6.20    -4200.00
01845              -2.20    -4200.00
01846             -17.40    -4200.00
01847              -1.00    -4200.00
01848               2.80    -4400.00
01849             -15.00    -4200.00
01850              -8.60    -4400.00
01851               4.00    -4200.00
01852              -7.60    -4400.00
01853             -14.00    -4400.00
01854               0.20    -4400.00
01855              -1.80    -4400.00
01856             -13.00    -4600.00
01857              -6.00    -4400.00
01858              -0.20    -4600.00
01859              -9.40    -4800.00
01860             -10.40    -4600.00
01861              -1.80    -4600.00
01862              -5.40    -4800.00
01863             -11.80    -4600.00
01864              -5.40    -4800.00
01865              -2.60    -4600.00
01866             -10.20    -4800.00
01867              -9.40    -4800.00
01868              -3.40    -4600.00
01869              -6.80    -4800.00
01870             -10.60    -4600.00
01871              -6.20    -4800.00
01872              -5.20    -4800.00
01873              -9.20    -4600.00
01874              -8.60    -4800.00
01875              -5.80    -5000.00
01876              -7.80    -5000.00
01877             -10.00    -5000.00
01878              -7.20    -5000.00
01879              -6.80    -5000.00
01880              -9.20    -5000.00
01881              -8.60    -5000.00
01882              -7.40    -4600.00
01883              -8.00    -5000.00
01884              -9.20    -5000.00
01885              -8.60    -5000.00
01886              -8.20    -5000.00
01887              -9.00    -5000.00
01888              -9.20    -5000.00
01889              -8.60    -5200.00
01890              -8.80    -5000.00
01891              -9.00    -5000.00
01892              -9.00    -4800.00
01893              -8.60    -5000.00
01894              -8.60    -5000.00
01895              -9.60    -5000.00
01896              -8.40    -5000.00
01897              -7.80    -5000.00
01898              -9.00    -5000.00
01899              -9.20    -5000.00
01900              -8.20    -4600.00
01901              -7.60    -4800.00
01902              -9.00    -5000.00
01903              -8.60    -4600.00
01904              -7.40    -5000.00
01905              -8.00    -4800.00
01906              -8.60    -4800.00
01907              -7.60    -4800.00
01908              -6.80    -4600.00
01909              -8.20    -4800.00
01910              -7.60    -4600.00
01911              -6.40    -4800.00
01912              -7.80    -4600.00
01913              -7.40    -4600.00
01914              -6.00    -4800.00
01915              -7.20    -4600.00
01916              -7.40    -4600.00
01917              -6.20    -4600.00
01918              -6.00    -4400.00
01919              -6.80    -4400.00
01920              -6.20    -4600.00
01921              -5.60    -4400.00
01922              -6.00    -4400.00
01923              -6.60    -4600.00
01924              -5.60    -4400.00
01925              -5.40    -4400.00
01926              -6.60    -4400.00
01927              -5.80    -4400.00
01928              -5.00    -4400.00
01929              -5.40    -4400.00
01930              -5.80    -4200.00
01931              -5.00    -4200.00
01932              -4.80    -4400.00
01933              -5.20    -4000.00
01934              -4.60    -4200.00
01935              -4.40    -4000.00
01936              -5.00    -4000.00
01937              -4.60    -4000.00
01938              -4.20    -4000.00
01939              -4.40    -4000.00
01940              -5.00    -4000.00
01941              -4.40    -4000.00
01942              -3.80    -3800.00
01943              -4.40    -3800.00
01944              -4.60    -4000.00
01945              -3.80    -3600.00
01946              -3.80    -3600.00
01947              -4.00    -3600.00
01948              -3.80    -3600.00
01949              -3.40    -3600.00
01950              -3.80    -3600.00
01951              -3.80    -3400.00
01952              -3.20    -3200.00
01953              -3.80    -3400.00
01954              -3.80    -3200.00
01955              -3.00    -3200.00
01956              -3.80    -3200.00
01957              -3.40    -3200.00
01958              -2.80    -3200.00
01959              -3.80    -3200.00
01960              -3.40    -3000.00
01961              -2.20    -3000.00
01962              -3.40    -2800.00
01963              -3.60    -2800.00
01964              -2.60    -2800.00
01965              -2.60    -2800.00
01966              -3.00    -2600.00
01967              -2.60    -2600.00
01968              -2.20    -2400.00
01969              -3.00    -2400.00
01970              -2.80    -2600.00
01971              -2.00    -2600.00
01972              -2.80    -2400.00
01973              -3.00    -2400.00
01974              -1.80    -2400.00
01975              -2.00    -2200.00
01976              -2.80    -2000.00
01977              -2.20    -2000.00
01978              -1.40    -2000.00
01979              -2.20    -2000.00
01980              -2.20    -2000.00
01981              -1.80    -2000.00
01982              -1.80    -1800.00
01983              -2.00    -1800.00
01984              -1.80    -1600.00
01985              -1.20    -1600.00
01986              -1.80    -1600.00
01987              -1.80    -1600.00
01988              -1.40    -1400.00
01989              -1.20    -1200.00
01990              -1.60    -1200.00
01991              -1.40    -1200.00
01992              -1.00    -1200.00
01993              -1.20    -1000.00
01994              -1.40    -1000.00
01995              -1.00     -800.00
01996              -0.80     -800.00
01997              -1.20     -800.00
01998              -0.60     -600.00
01999              -0.60     -800.00
02000              -0.80     -800.00
02001              -1.00     -400.00
02002              -0.40     -600.00
02003              -0.40     -400.00
02004              -1.00     -200.00
02005              -0.40     -400.00
02006              -0.60     -400.00
02007              -0.60     -200.00
02008              -0.20        0.00
02009               0.20     -200.00
02010              -0.40        0.00
02011              -0.20        0.00
02012               0.80      200.00
02013               0.20      200.00
02014               0.20      400.00
02015               0.20      200.00
02016              -0.20      400.00
02017               0.20      400.00
02018               2.20      600.00
02019              11.20      600.00
02020              -1.80      600.00
02021             -25.00      600.00
02022              10.20      800.00
02023              25.00      800.00
02024              -7.20      800.00
02025             -25.00      800.00
02026              25.00     1200.00
02027              25.00     1000.00
02028             -25.00     1200.00
02029             -25.00     1200.00
02030              25.00     1200.00
02031              25.00     1200.00
02032             -25.00     1400.00
02033              15.60     1800.00
02034              25.00     1400.00
02035             -25.00     1800.00
02036             -25.00     1800.00
02037              25.00     1800.00
02038              25.00     1800.00
02039             -25.00     2000.00
02040              25.00     2000.00
02041              25.00     1600.00
02042             -25.00     2000.00
02043             -25.00     2000.00
02044              25.00     2000.00
02045              19.40     2400.00
02046             -25.00     2200.00
02047              25.00     2400.00
02048              25.00     2200.00
02049             -25.00     2400.00
02050             -25.00     2600.00
02051              25.00     2400.00
02052              11.60     2800.00
02053             -25.00     2800.00
02054              25.00     2600.00
02055              25.00     2800.00
02056             -25.00     3000.00
02057             -14.20     3000.00
02058              25.00     2800.00
02059             -13.20     3000.00
02060             -25.00     3000.00
02061              25.00     3000.00
02062              24.40     3200.00
02063             -25.00     3200.00
02064              11.60     3200.00
02065              25.00     3200.00
02066             -23.00     3400.00
02067             -14.00     3400.00
02068              25.00     3400.00
02069               5.00     3600.00
02070             -23.40     3400.00
02071              16.40     3600.00
02072              21.80     3600.00
02073             -18.00     3600.00
02074              -0.40     3800.00
02075              25.00     3600.00
02076              -4.20     3800.00
02077             -11.60     4000.00
02078              19.80     3800.00
02079              10.40     4000.00
02080             -13.40     4000.00
02081               8.40     3800.00
02082              17.60     4000.00
02083              -6.20     4000.00
02084              -1.00     4000.00
02085              16.80     4000.00
02086               3.00     4000.00
02087              -5.40     4200.00
02088              11.60     4000.00
02089              10.60     4000.00
02090              -4.40     4000.00
02091               5.80     4400.00
02092              13.20     4400.00
02093               1.00     4400.00
02094               0.40     4400.00
02095              11.00     4400.00
02096               7.00     4600.00
02097              -0.40     4600.00
02098               7.60     4400.00
02099              10.00     4600.00
02100               1.80     4600.00
02101               5.00     4600.00
02102              10.60     4600.00
02103               5.20     4600.00
02104               2.60     4600.00
02105               9.00     4600.00
02106               8.60     4600.00
02107               3.00     4800.00
02108               6.60     4600.00
02109              10.00     4800.00
02110               5.80     4600.00
02111               4.60     4800.00
02112               9.00     4800.00
02113               8.20     4800.00
02114               5.00     4800.00
02115               8.20     5000.00
02116               9.00     4800.00
02117               6.00     4800.00
02118               6.80     5000.00
02119               9.20     4800.00
02120               8.20     4800.00
02121               6.60     5000.00
02122               7.80     4800.00
02123               9.00     4800.00
02124               7.60     5000.00
02125               7.60     4800.00
02126               8.80     4800.00
02127               8.20     4800.00
02128               7.80     4800.00
02129               8.60     4800.00
02130               8.40     4800.00
02131               7.60     4800.00
02132               8.40     4800.00
02133               9.00     4800.00
02134               8.40     4800.00
02135               8.40     4800.00
02136               8.40     4800.00
02137               8.80     4800.00
02138               7.80     4800.00
02139               7.80     4800.00
02140               7.60     4800.00
02141               7.80     4800.00
02142               7.80     4800.00
02143               7.80     4800.00
02144               7.40     4800.00
02145               7.60     4800.00
02146               7.40     4800.00
02147               7.20     4800.00
02148               7.40     4600.00
02149               7.00     4800.00
02150               6.00     4800.00
02151               7.00     4800.00
02152               6.80     4600.00
02153               6.00     4800.00
02154               6.00     4600.00
02155               6.80     4600.00
02156               5.80     4600.00
02157               5.80     4600.00
02158               6.20     4400.00
02159               6.20     4600.00
02160               5.60     4600.00
02161               5.40     4400.00
02162               5.80     4400.00
02163               5.40     4600.00
02164               5.20     4400.00
02165               5.80     4200.00
02166               5.20     4400.00
02167               4.60     4400.00
02168               5.00     4200.00
02169               5.00     4400.00
02170               4.40     4400.00
02171               4.60     4200.00
02172               4.40     4000.00
02173               4.60     4000.00
02174               4.20     4000.00
02175               4.40     4000.00
02176               4.40     4200.00
02177               4.20     4000.00
02178               4.20     4000.00
02179               4.20     4000.00
02180               3.80     3800.00
02181               3.80     3800.00
02182               3.80     3800.00
02183               3.60     3800.00
02184               3.60     3800.00
02185               3.60     3600.00
02186               3.60     3600.00
02187               3.60     3600.00
02188               3.60     3600.00
02189               3.40     3600.00
02190               3.60     3400.00
02191               3.40     3600.00
02192               3.40     3200.00
02193               3.20     3200.00
02194               3.00     3200.00
02195               2.60     3200.00
02196               3.00     3200.00
02197               3.00     3200.00
02198               2.60     3000.00
02199               2.60     3000.00
02200               2.60     3000.00
02201               2.60     3000.00
02202               2.60     2800.00
02203               2.60     2800.00
02204               2.20     2800.00
02205               2.20     2800.00
02206               2.60     2800.00
02207               2.00     2800.00
02208               2.00     2800.00
02209               2.00     2400.00
02210               2.00     2400.00
02211               2.00     2400.00
02212               2.00     2400.00
02213               1.80     2200.00
02214               1.80     2200.00
02215               2.00     2200.00
02216               1.80     2000.00
02217               1.40     2000.00
02218               1.20     2000.00
02219               1.40     1800.00
02220               1.40     2000.00
02221               1.00     2000.00
02222               1.00     1600.00
02223               1.20     1800.00
02224               1.00     1600.00
02225               0.80     1800.00
02226               1.00     1400.00
02227               1.00     1400.00
02228               0.60     1600.00
02229               1.20     1200.00
02230               1.00     1400.00
02231               0.40     1200.00
02232               0.40     1200.00
02233               0.40     1000.00
02234               0.60      800.00
02235               0.40      800.00
02236               0.20      800.00
02237               0.40      800.00
02238               0.20      800.00
02239               0.40      600.00
02240               0.40      600.00
02241               0.00      400.00
02242               0.20      400.00
02243               0.20      400.00
02244               0.20      400.00
02245               0.20      400.00
02246              -0.20      200.00
02247              -0.40      200.00
02248               0.20      200.00
02249              -0.20        0.00
02250              -0.40        0.00
02251              -0.40        0.00
02252               0.40        0.00
02253               0.20     -200.00
02254              -0.40     -200.00
02255              -0.60     -400.00
02256              -0.60     -400.00
02257              -0.20     -400.00
02258               6.60     -400.00
02259              13.00     -800.00
02260             -25.00     -800.00
02261             -25.00     -600.00
02262              25.00     -800.00
02263              23.00    -1000.00
02264             -25.00    -1000.00
02265             -14.80     -800.00
02266              25.00    -1000.00
02267              -3.00    -1400.00
02268             -25.00    -1000.00
02269              25.00    -1200.00
02270              25.00    -1400.00
02271             -25.00    -1400.00
02272             -25.00    -1600.00
02273              25.00    -1600.00
02274              25.00    -1800.00
02275             -25.00    -1600.00
02276              25.00    -1600.00
02277              25.00    -2000.00
02278             -25.00    -1800.00
02279             -25.00    -2000.00
02280              25.00    -2000.00
02281              20.20    -2000.00
02282             -25.00    -2000.00
02283              25.00    -2200.00
02284              25.00    -2400.00
02285             -25.00    -2000.00
02286             -25.00    -2400.00
02287              25.00    -2600.00
02288               5.20    -2400.00
02289             -25.00    -2600.00
02290              21.20    -2400.00
02291              25.00    -2600.00
02292             -25.00    -2600.00
02293             -25.00    -2800.00
02294              25.00    -2800.00
02295               7.80    -2800.00
02296             -25.00    -2800.00
02297              25.00    -3000.00
02298              25.00    -3000.00
02299             -25.00    -3000.00
02300              -3.00    -2800.00
02301              25.00    -3400.00
02302             -25.00    -3200.00
02303             -25.00    -3400.00
02304              25.00    -3400.00
02305              -4.40    -3200.00
02306             -25.00    -3400.00
02307              11.00    -3600.00
02308              14.80    -3400.00
02309             -22.20    -3400.00
02310             -12.20    -3600.00
02311              17.20    -3600.00
02312              -6.20    -3600.00
02313             -24.60    -3600.00
02314              11.00    -3800.00
02315               5.80    -3600.00
02316             -25.00    -3600.00
02317               0.80    -4000.00
02318              11.40    -4000.00
02319             -18.00    -4000.00
02320             -10.20    -4000.00
02321               9.40    -4000.00
02322              -7.00    -4000.00
02323             -16.40    -4200.00
02324               3.40    -4000.00
02325               1.40    -4200.00
02326             -17.00    -4000.00
02327              -4.60    -4200.00
02328               5.40    -4200.00
02329             -11.80    -4200.00
02330             -12.00    -4400.00
02331               3.80    -4400.00
02332              -4.40    -4400.00
02333             -14.80    -4400.00
02334              -2.60    -4400.00
02335               0.60    -4400.00
02336             -11.60    -4400.00
02337              -8.60    -4400.00
02338               0.40    -4600.00
02339              -7.00    -4600.00
02340             -11.80    -4400.00
02341              -2.80    -4600.00
02342              -3.40    -4600.00
02343             -11.60    -4600.00
02344              -7.40    -4600.00
02345              -2.00    -4600.00
02346              -8.60    -4800.00
02347             -11.00    -4600.00
02348              -4.20    -4600.00
02349              -5.40    -4800.00
02350             -10.80    -4800.00
02351              -7.40    -4800.00
02352              -4.60    -4600.00
02353              -9.20    -4800.00
02354              -9.40    -4800.00
02355              -6.20    -4800.00
02356              -7.40    -5000.00
02357             -10.20    -5000.00
02358              -7.80    -5000.00
02359              -6.60    -5000.00
02360              -9.00    -4800.00
02361              -9.20    -5000.00
02362              -7.40    -5000.00
02363              -7.60    -4600.00
02364              -9.20    -5000.00
02365              -8.60    -5000.00
02366              -8.40    -5000.00
02367              -8.60    -5000.00
02368              -9.20    -5000.00
02369              -8.60    -5000.00
02370              -8.40    -5000.00
02371              -9.00    -5000.00
02372              -9.20    -5000.00
02373              -8.40    -5000.00
02374              -8.60    -5000.00
02375              -9.20    -5000.00
02376              -9.00    -5000.00
02377              -7.60    -4800.00
02378              -8.40    -4800.00
02379              -9.40    -4800.00
02380              -8.20    -4800.00
02381              -7.60    -5000.00
02382              -8.40    -5000.00
02383              -8.20    -5000.00
02384              -8.20    -4800.00
02385              -8.40    -4800.00
02386              -6.80    -4800.00
02387              -7.00    -4600.00
02388              -9.00    -4800.00
02389              -8.40    -4600.00
02390              -5.00    -4800.00
02391              -6.80    -4600.00
02392              -9.20    -4800.00
02393              -6.60    -4600.00
02394              -4.20    -4800.00
02395              -8.00    -4600.00
02396              -8.40    -4600.00
02397              -5.00    -4600.00
02398              -5.40    -4400.00
02399              -8.20    -4600.00
02400              -6.00    -4600.00
02401              -5.20    -4600.00
02402              -6.20    -4400.00
02403              -6.80    -4400.00
02404              -5.20    -4400.00
02405              -5.40    -4400.00
02406              -6.60    -4400.00
02407              -5.40    -4400.00
02408              -5.20    -4400.00
02409              -5.80    -4200.00
02410              -5.40    -4200.00
02411              -5.20    -4200.00
02412              -5.80    -4200.00
02413              -5.20    -4200.00
02414              -4.80    -4200.00
02415              -5.20    -4000.00
02416              -5.20    -4200.00
02417              -4.60    -4000.00
02418              -4.60    -4000.00
02419              -5.00    -4000.00
02420              -4.40    -4000.00
02421              -5.00    -4000.00
02422              -4.60    -3800.00
02423              -3.80    -3600.00
02424              -4.60    -3800.00
02425              -4.80    -3800.00
02426              -3.80    -3600.00
02427              -3.80    -3600.00
02428              -4.20    -3600.00
02429              -3.80    -3600.00
02430              -3.60    -3600.00
02431              -3.60    -3400.00
02432              -4.20    -3400.00
02433              -4.20    -3400.00
02434              -3.40    -3400.00
02435              -3.80    -3200.00
02436              -3.80    -3200.00
02437              -3.00    -3200.00
02438              -2.80    -3200.00
02439              -3.60    -3000.00
02440              -3.40    -3000.00
02441              -2.20    -2800.00
02442              -3.40    -2800.00
02443              -3.60    -2800.00
02444              -2.60    -2800.00
02445              -2.80    -2800.00
02446              -2.80    -2600.00
02447              -2.40    -2800.00
02448              -2.20    -2600.00
02449              -3.00    -2600.00
02450              -2.60    -2600.00
02451              -2.20    -2400.00
02452              -2.40    -2400.00
02453              -2.20    -2400.00
02454              -2.00    -2200.00
02455              -1.80    -2200.00
02456              -2.20    -2200.00
02457              -2.20    -2000.00
02458              -2.00    -2000.00
02459              -1.60    -2000.00
02460              -1.80    -1800.00
02461              -2.00    -2000.00
02462              -1.80    -2000.00
02463              -1.80    -1800.00
02464              -1.80    -1600.00
02465              -1.80    -1600.00
02466              -1.40    -1600.00
02467              -1.60    -1400.00
02468              -1.40    -1600.00
02469              -1.20    -1400.00
02470              -1.20    -1200.00
02471              -1.40    -1400.00
02472              -1.00    -1000.00
02473              -0.60    -1000.00
02474              -1.20    -1000.00
02475              -1.60    -1000.00
02476              -1.00    -1000.00
02477              -1.00     -800.00
02478              -1.40     -800.00
02479              -0.60     -600.00
02480              -0.80     -800.00
02481              -1.20     -400.00
02482              -1.00     -600.00
02483              -0.60     -600.00
02484              -0.60     -200.00
02485              -0.60     -400.00
02486              -0.60     -400.00
02487              -0.60     -200.00
02488              -0.60     -200.00
02489              -0.40        0.00
02490              -0.40        0.00
02491              -0.60        0.00
02492               0.40        0.00
02493               0.40      200.00
02494              -0.20      400.00
02495              -0.40      400.00
02496               0.40      400.00
02497               0.40      400.00
02498               1.40      600.00
02499               9.00      600.00
02500               4.80      600.00
02501             -25.00      600.00
02502              -7.60      600.00
02503              25.00      800.00
02504               9.80      800.00
02505             -25.00      800.00
02506              15.60     1000.00
02507              25.00      800.00
02508             -25.00     1200.00
02509             -25.00      800.00
02510              25.00     1400.00
02511              25.00     1400.00
02512             -25.00     1400.00
02513             -24.60     1400.00
02514              25.00     1400.00
02515              -8.60     1800.00
02516             -25.00     1600.00
02517              25.00     1800.00
02518              25.00     1800.00
02519             -25.00     2000.00
02520              -5.00     2000.00
02521              25.00     1800.00
02522             -25.00     2200.00
02523             -25.00     2200.00
02524              25.00     2000.00
02525              25.00     2200.00
02526             -25.00     2200.00
02527               2.00     2400.00
02528              25.00     2200.00
02529             -25.00     2800.00
02530             -25.00     2400.00
02531              25.00     2400.00
02532              25.00     2800.00
02533             -25.00     2800.00
02534               7.80     2800.00
02535              25.00     2600.00
02536             -25.00     3000.00
02537             -25.00     3000.00
02538              25.00     2800.00
02539               9.60     3000.00
02540             -25.00     3000.00
02541              25.00     2800.00
02542              25.00     3200.00
02543             -25.00     3200.00
02544              -3.80     3200.00
02545              25.00     3200.00
02546             -11.00     3400.00
02547             -23.80     3400.00
02548              25.00     3400.00
02549              15.00     3600.00
02550             -24.60     3400.00
02551               8.20     3400.00
02552              25.00     3600.00
02553             -13.20     3800.00
02554              -7.20     3600.00
02555              24.20     3600.00
02556               3.20     3800.00
02557             -15.00     3800.00
02558              15.60     3800.00
02559              14.80     3800.00
02560             -13.00     4000.00
02561               3.80     3800.00
02562              18.60     4000.00
02563              -2.80     4000.00
02564              -3.80     4000.00
02565              15.40     4000.00
02566               6.20     4200.00
02567              -5.80     4000.00
02568              10.00     4200.00
02569              11.60     4400.00
02570              -3.60     4200.00
02571               3.60     4400.00
02572              13.40     4200.00
02573               2.60     4400.00
02574              -0.60     4400.00
02575              10.80     4400.00
02576               8.40     4400.00
02577              -0.20     4400.00
02578               6.80     4600.00
02579              11.00     4600.00
02580               2.60     4400.00
02581               3.60     4600.00
02582              11.00     4600.00
02583               6.00     4600.00
02584               1.80     4600.00
02585               9.00     4600.00
02586               9.40     4800.00
02587               3.40     4800.00
02588               5.80     4800.00
02589               9.40     4800.00
02590               6.60     4800.00
02591               5.00     4800.00
02592               8.40     4800.00
02593               8.20     4800.00
02594               6.00     4800.00
02595               7.60     4800.00
02596               8.40     4800.00
02597               7.00     4800.00
02598               7.20     5000.00
02599               7.80     5200.00
02600               8.20     4800.00
02601               7.60     4800.00
02602               7.60     4800.00
02603               7.80     4800.00
02604               8.40     5000.00
02605               8.20     4800.00
02606               7.40     4800.00
02607               8.20     4800.00
02608               8.60     4800.00
02609               7.60     4800.00
02610               7.80     4800.00
02611               8.40     4800.00
02612               8.20     4800.00
02613               8.20     5000.00
02614               8.20     4800.00
02615               8.40     4800.00
02616               7.60     4800.00
02617               7.80     4800.00
02618               9.00     5000.00
02619               7.80     4800.00
02620               6.80     4800.00
02621               7.80     4800.00
02622               7.80     4800.00
02623               7.00     4800.00
02624               7.40     4800.00
02625               7.00     4800.00
02626               7.40     4800.00
02627               6.80     4800.00
02628               7.40     4800.00
02629               6.80     4800.00
02630               6.60     4600.00
02631               6.60     4800.00
02632               7.40     4600.00
02633               5.80     4800.00
02634               5.80     4800.00
02635               6.60     4600.00
02636               6.80     4600.00
02637               5.80     4600.00
02638               5.80     4400.00
02639               6.40     4600.00
02640               5.80     4600.00
02641               5.40     4600.00
02642               6.00     4600.00
02643               5.60     4400.00
02644               5.20     4400.00
02645               5.80     4400.00
02646               5.80     4400.00
02647               4.80     4400.00
02648               4.60     4400.00
02649               5.20     4400.00
02650               5.20     4400.00
02651               4.40     4200.00
02652               4.60     4000.00
02653               5.00     4400.00
02654               4.60     4000.00
02655               4.60     4000.00
02656               4.60     4000.00
02657               4.20     4000.00
02658               4.20     4000.00
02659               4.40     3800.00
02660               4.20     3800.00
02661               3.60     4000.00
02662               4.00     3600.00
02663               4.20     3800.00
02664               3.60     3800.00
02665               3.60     3600.00
02666               3.60     3600.00
02667               3.60     3600.00
02668               3.60     3600.00
02669               3.60     3600.00
02670               3.40     3400.00
02671               3.00     3600.00
02672               3.00     3400.00
02673               3.20     3200.00
02674               2.80     3200.00
02675               2.60     3200.00
02676               3.00     3200.00
02677               2.60     3200.00
02678               2.60     3000.00
02679               2.60     3000.00
02680               2.20     3000.00
02681               2.60     3000.00
02682               2.60     3000.00
02683               2.20     2800.00
02684               2.20     2800.00
02685               2.40     2600.00
02686               2.20     2800.00
02687               2.00     2600.00
02688               2.20     2600.00
02689               2.00     2400.00
02690               1.40     2400.00
02691               2.20     2400.00
02692               1.80     2400.00
02693               1.20     2200.00
02694               2.00     2200.00
02695               1.80     2200.00
02696               1.40     2200.00
02697               1.80     2000.00
02698               1.40     2000.00
02699               1.20     2000.00
02700               1.60     2000.00
02701               1.20     1800.00
02702               1.00     1800.00
02703               1.00     1600.00
02704               1.20     1400.00
02705               1.00     1800.00
02706               1.20     1600.00
02707               1.20     1400.00
02708               1.00     1400.00
02709               1.20     1200.00
02710               0.60     1200.00
02711               1.00     1200.00
02712               1.00     1200.00
02713               0.40     1000.00
02714               0.60     1000.00
02715               1.20     1000.00
02716               0.40      800.00
02717              -0.40      800.00
02718               1.20      600.00
02719               0.60      600.00
02720              -0.60      600.00
02721               0.60      600.00
02722               1.20      400.00
02723              -0.40      400.00
02724              -0.20      400.00
02725               1.00      400.00
02726              -0.20      200.00
02727              -1.00      200.00
02728               0.20        0.00
02729               0.60        0.00
02730              -0.60        0.00
02731              -0.40        0.00
02732               0.40        0.00
02733               0.20     -200.00
02734              -0.40     -200.00
02735              -0.40     -400.00
02736              -0.40     -400.00
02737              -0.20     -400.00
02738               3.40     -400.00
02739              14.60     -600.00
02740             -18.60     -800.00
02741             -25.00     -600.00
02742              25.00     -800.00
02743              25.00     -800.00
02744             -25.00    -1000.00
02745             -25.00     -800.00
02746              25.00    -1000.00
02747              25.00    -1200.00
02748             -25.00    -1200.00
02749               6.80    -1200.00
02750              25.00    -1400.00
02751             -25.00    -1600.00
02752             -25.00    -1200.00
02753              25.00    -1600.00
02754              25.00    -1800.00
02755             -25.00    -1600.00
02756              -8.60    -1600.00
02757              25.00    -2000.00
02758             -25.00    -1800.00
02759             -25.00    -2000.00
02760              25.00    -1800.00
02761              25.00    -2200.00
02762             -25.00    -2000.00
02763              11.60    -2000.00
02764              25.00    -2200.00
02765             -25.00    -2000.00
02766             -25.00    -2400.00
02767              25.00    -2400.00
02768              25.00    -2200.00
02769             -25.00    -2400.00
02770              -3.00    -2600.00
02771              25.00    -2600.00
02772             -25.00    -2600.00
02773             -25.00    -2800.00
02774              25.00    -2800.00
02775              25.00    -2600.00
02776             -25.00    -2800.00
02777              10.20    -2800.00
02778              25.00    -3000.00
02779             -25.00    -3000.00
02780             -25.00    -3000.00
02781              25.00    -3200.00
02782             -18.80    -3200.00
02783             -25.00    -3200.00
02784              25.00    -3200.00
02785               9.60    -3200.00
02786             -25.00    -3200.00
02787               2.80    -3400.00
02788              19.00    -3400.00
02789             -16.60    -3600.00
02790             -19.60    -3400.00
02791              13.60    -3600.00
02792               1.40    -3400.00
02793             -25.00    -3600.00
02794               5.40    -3600.00
02795              13.60    -4000.00
02796             -22.20    -3800.00
02797              -6.60    -4000.00
02798              13.80    -4000.00
02799             -14.60    -4000.00
02800             -17.20    -4000.00
02801               8.40    -4000.00
02802              -2.20    -4000.00
02803             -17.20    -4200.00
02804               1.20    -4200.00
02805               5.00    -4200.00
02806             -15.00    -4200.00
02807              -9.40    -4200.00
02808               5.00    -4200.00
02809              -9.00    -4400.00
02810             -15.00    -4400.00
02811               2.20    -4400.00
02812              -0.40    -4400.00
02813             -14.00    -4400.00
02814              -5.20    -4400.00
02815               1.80    -4400.00
02816             -10.20    -4600.00
02817             -11.40    -4400.00
02818              -0.20    -4600.00
02819              -5.40    -4400.00
02820             -12.60    -4600.00
02821              -4.40    -4600.00
02822              -2.40    -4800.00
02823             -10.80    -4800.00
02824              -8.80    -4600.00
02825              -1.80    -4800.00
02826              -6.60    -4800.00
02827             -11.60    -4800.00
02828              -5.20    -4600.00
02829              -4.40    -4800.00
02830             -10.60    -4800.00
02831              -8.60    -4800.00
02832              -4.40    -4800.00
02833              -7.40    -4800.00
02834              -9.40    -5000.00
02835              -6.20    -5000.00
02836              -6.20    -5000.00
02837             -10.20    -5000.00
02838              -9.00    -4800.00
02839              -6.80    -5000.00
02840              -8.60    -4800.00
02841              -9.40    -5000.00
02842              -7.40    -5000.00
02843              -6.80    -4800.00
02844              -9.00    -5000.00
02845              -8.60    -5000.00
02846              -7.80    -5000.00
02847              -9.00    -5000.00
02848              -9.40    -5000.00
02849              -8.40    -5000.00
02850              -8.60    -5000.00
02851              -8.60    -5000.00
02852              -8.60    -5000.00
02853              -8.40    -5000.00
02854              -8.60    -5000.00
02855              -8.60    -4600.00
02856              -9.20    -5000.00
02857              -8.60    -5000.00
02858              -8.20    -4800.00
02859              -8.60    -5000.00
02860              -8.60    -4600.00
02861              -7.40    -4800.00
02862              -7.40    -4800.00
02863              -8.80    -5000.00
02864              -8.20    -4800.00
02865              -7.00    -4600.00
02866              -8.40    -4800.00
02867              -8.40    -4800.00
02868              -6.60    -4800.00
02869              -7.80    -4600.00
02870              -8.40    -4800.00
02871              -6.80    -4800.00
02872              -6.80    -4600.00
02873              -8.20    -4800.00
02874              -6.60    -4600.00
02875              -6.40    -4800.00
02876              -6.80    -4600.00
02877              -7.60    -4600.00
02878              -6.60    -4600.00
02879              -6.40    -4400.00
02880              -7.00    -4600.00
02881              -6.60    -4400.00
02882              -4.60    -4400.00
02883              -6.40    -4400.00
02884              -7.00    -4400.00
02885              -4.60    -4400.00
02886              -5.80    -4400.00
02887              -7.80    -4400.00
02888              -5.40    -4200.00
02889              -3.60    -4200.00
02890              -6.60    -4400.00
02891              -7.00    -4200.00
02892              -3.00    -4400.00
02893              -4.60    -4200.00
02894              -7.80    -4200.00
02895              -4.20    -4000.00
02896              -3.00    -4000.00
02897              -7.40    -4000.00
02898              -5.20    -4000.00
02899              -1.40    -4000.00
02900              -5.00    -4000.00
02901              -7.00    -3800.00
02902              -2.80    -3800.00
02903              -3.00    -3600.00
02904              -6.40    -4000.00
02905              -4.20    -3600.00
02906              -2.20    -3600.00
02907              -4.80    -3600.00
02908              -4.60    -3600.00
02909              -3.00    -3600.00
02910              -3.80    -3400.00
02911              -4.40    -3600.00
02912              -3.60    -3400.00
02913              -3.00    -3400.00
02914              -3.60    -3400.00
02915              -3.80    -3200.00
02916              -3.00    -3200.00
02917              -2.40    -3200.00
02918              -3.40    -3200.00
02919              -3.60    -3200.00
02920              -2.60    -3000.00
02921              -3.40    -3000.00
02922              -3.40    -2800.00
02923              -2.20    -2800.00
02924              -3.00    -2800.00
02925              -3.40    -2800.00
02926              -1.40    -2800.00
02927              -3.00    -2600.00
02928              -4.00    -2600.00
02929              -2.00    -2600.00
02930              -2.20    -2400.00
02931              -3.80    -2600.00
02932              -2.20    -2400.00
02933              -1.40    -2400.00
02934              -3.20    -2400.00
02935              -2.60    -2200.00
02936              -1.20    -2000.00
02937              -2.20    -2000.00
02938              -2.80    -2000.00
02939              -1.40    -2000.00
02940              -1.80    -1800.00
02941              -2.80    -2000.00
02942              -2.00    -1800.00
02943              -1.20    -1800.00
02944              -2.40    -1800.00
02945              -2.20    -1600.00
02946              -1.20    -1600.00
02947              -1.80    -1600.00
02948              -2.00    -1600.00
02949              -1.20    -1400.00
02950              -1.00    -1200.00
02951              -1.40    -1200.00
02952              -1.80    -1200.00
02953              -1.20    -1000.00
02954              -1.20    -1200.00
02955              -1.80    -1000.00
02956              -1.00    -1000.00
02957              -0.60     -800.00
02958              -1.20     -800.00
02959              -1.20     -800.00
02960              -1.00     -600.00
02961              -1.00     -600.00
02962              -1.00     -600.00
02963              -0.60     -400.00
02964              -0.40     -400.00
02965              -0.60     -400.00
02966              -0.60     -200.00
02967              -0.20     -400.00
02968              -0.20     -200.00
02969              -0.60        0.00
02970               0.20        0.00
02971               0.20        0.00
02972               0.00      200.00
02973               0.40        0.00
02974               0.40      200.00
02975              -0.40      400.00
02976               0.20      400.00
02977               0.60      400.00
02978               1.20      400.00
02979               7.00      600.00
02980              10.00      600.00
02981             -25.00      600.00
02982             -22.80      600.00
02983              25.00      800.00
02984              24.20     1000.00
02985             -25.00      800.00
02986             -17.80     1000.00
02987              25.00     1200.00
02988               6.20     1200.00
02989             -25.00      800.00
02990              25.00     1600.00
02991              25.00     1200.00
02992             -25.00     1600.00
02993             -25.00     1400.00
02994              25.00     1800.00
02995              25.00     1800.00
02996             -25.00     1600.00
02997              25.00     1800.00
02998              25.00     1600.00
02999             -25.00     2000.00
03000             -25.00     2000.00
03001              25.00     1800.00
03002               6.00     2200.00
03003             -25.00     2000.00
03004              25.00     2200.00
03005              25.00     2000.00
03006             -25.00     2400.00
03007             -25.00     2400.00
03008              25.00     2200.00
03009               1.40     2600.00
03010             -25.00     2400.00
03011              25.00     2400.00
03012              25.00     2800.00
03013             -25.00     2800.00
03014             -15.60     2800.00
03015              25.00     2800.00
03016             -11.80     2800.00
03017             -25.00     2800.00
03018              25.00     2800.00
03019              25.00     3000.00
03020             -25.00     3000.00
03021              11.80     3000.00
03022              25.00     3200.00
03023             -25.00     3200.00
03024             -18.80     3200.00
03025              25.00     3200.00
03026               3.40     3200.00
03027             -25.00     3200.00
03028              20.40     3200.00
03029              24.60     3600.00
03030             -22.40     3400.00
03031              -1.00     3600.00
03032              25.00     3600.00
03033              -4.60     3600.00
03034             -14.60     3600.00
03035              21.40     3600.00
03036              11.40     3800.00
03037             -17.20     3800.00
03038               9.60     4000.00
03039              20.60     3800.00
03040              -9.40     4000.00
03041              -2.20     4000.00
03042              19.80     4000.00
03043               2.60     3800.00
03044              -8.00     4000.00
03045              13.20     4000.00
03046              11.60     4000.00
03047              -6.60     4000.00
03048               5.80     4200.00
03049              14.60     4000.00
03050              -1.00     4400.00
03051              -0.20     4400.00
03052              13.20     4400.00
03053               6.80     4400.00
03054              -2.60     4400.00
03055               8.40     4400.00
03056              11.20     4400.00
03057               0.60     4600.00
03058               4.20     4400.00
03059              11.40     4400.00
03060               5.20     4400.00
03061               1.40     4600.00
03062               9.20     4600.00
03063               8.40     4600.00
03064               1.80     4600.00
03065               6.00     4600.00
03066              10.60     4600.00
03067               5.00     4800.00
03068               3.80     4800.00
03069               9.00     4800.00
03070               8.40     4800.00
03071               4.20     4800.00
03072               6.80     4800.00
03073               9.20     4800.00
03074               6.20     4800.00
03075               6.00     4800.00
03076               8.40     4800.00
03077               7.40     4800.00
03078               5.40     4600.00
03079               8.00     4800.00
03080               9.00     4800.00
03081               6.80     4800.00
03082               7.20     4800.00
03083               9.00     4800.00
03084               8.20     4800.00
03085               7.20     4800.00
03086               7.80     4800.00
03087               8.40     4800.00
03088               7.80     4800.00
03089               8.40     4800.00
03090               8.40     5000.00
03091               8.00     4800.00
03092               8.20     4800.00
03093               9.00     5200.00
03094               7.00     4800.00
03095               9.20     5000.00
03096               7.80     4800.00
03097               6.80     4800.00
03098              10.00     4800.00
03099               8.40     4800.00
03100               5.80     4800.00
03101               9.20     5000.00
03102               8.60     4800.00
03103               5.40     4800.00
03104               8.00     4800.00
03105               8.60     4800.00
03106               6.20     4800.00
03107               6.60     4800.00
03108               9.00     4800.00
03109               6.20     4800.00
03110               6.20     4800.00
03111               7.00     4600.00
03112               7.00     4800.00
03113               6.20     4600.00
03114               5.80     4800.00
03115               7.60     4600.00
03116               5.60     4600.00
03117               5.20     4600.00
03118               7.00     4400.00
03119               6.80     4600.00
03120               5.20     4600.00
03121               5.00     4400.00
03122               6.60     4600.00
03123               5.20     4400.00
03124               4.20     4400.00
03125               5.80     4400.00
03126               6.00     4400.00
03127               5.20     4400.00
03128               4.20     4200.00
03129               4.80     4400.00
03130               5.40     4200.00
03131               3.40     4200.00
03132               4.20     4000.00
03133               6.60     4000.00
03134               4.60     4000.00
03135               2.20     4000.00
03136               5.00     4000.00
03137               5.00     4000.00
03138               2.80     4000.00
03139               4.40     4000.00
03140               5.80     3800.00
03141               3.20     4000.00
03142               3.00     3800.00
03143               4.20     3800.00
03144               3.60     3600.00
03145               3.20     3600.00
03146               3.60     3600.00
03147               4.00     3600.00
03148               3.40     3600.00
03149               3.00     3600.00
03150               3.40     3600.00
03151               3.00     3400.00
03152               3.60     3400.00
03153               2.80     3200.00
03154               2.60     3200.00
03155               3.60     3200.00
03156               2.60     3200.00
03157               2.20     3200.00
03158               3.40     3000.00
03159               2.20     3200.00
03160               2.60     3000.00
03161               3.40     3000.00
03162               2.80     3000.00
03163               2.00     2800.00
03164               3.20     2800.00
03165               2.80     2800.00
03166               1.20     2800.00
03167               2.60     2800.00
03168               3.00     2600.00
03169               1.80     2400.00
03170               1.80     2400.00
03171               2.60     2400.00
03172               2.00     2200.00
03173               1.20     2200.00
03174               2.00     2200.00
03175               2.20     2200.00
03176               1.60     2200.00
03177               1.80     2000.00
03178               2.00     2000.00
03179               1.20     1800.00
03180               1.40     2000.00
03181               2.00     1800.00
03182               1.20     1600.00
03183               0.60     1800.00
03184               1.80     1600.00
03185               1.60     1600.00
03186               0.60     1400.00
03187               1.00     1600.00
03188               1.40     1400.00
03189               0.40     1200.00
03190               0.80     1400.00
03191               1.20     1200.00
03192               0.40     1200.00
03193               0.60     1000.00
03194               1.00      800.00
03195               0.40      800.00
03196               0.40      800.00
03197               0.40      800.00
03198               0.60      600.00
03199               0.20      600.00
03200               0.20      600.00
03201               0.20      600.00
03202              -0.40      400.00
03203               0.20      400.00
03204               0.20      400.00
03205              -0.40      400.00
03206              -0.40      200.00
03207              -0.60      200.00
03208               0.20        0.00
03209               0.20        0.00
03210              -0.60        0.00
03211               0.20     -200.00
03212              -0.20     -200.00
03213              -0.60     -400.00
03214               0.20     -400.00
03215              -0.20     -200.00
03216              -1.20     -400.00
03217              -0.40     -400.00
03218               2.80     -400.00
03219              14.20     -600.00
03220              -7.80     -800.00
03221             -25.00     -600.00
03222              25.00     -800.00
03223              25.00     -800.00
03224             -25.00    -1200.00
03225             -25.00     -800.00
03226              25.00    -1000.00
03227              25.00    -1200.00
03228             -25.00    -1200.00
03229             -25.00    -1200.00
03230              25.00    -1200.00
03231               5.20    -1600.00
03232             -25.00    -1200.00
03233              25.00    -1600.00
03234              25.00    -1800.00
03235             -25.00    -1600.00
03236             -25.00    -1800.00
03237              25.00    -1800.00
03238              11.40    -2000.00
03239             -25.00    -1800.00
03240              25.00    -1800.00
03241              25.00    -2200.00
03242             -25.00    -1800.00
03243             -25.00    -2200.00
03244              25.00    -2400.00
03245             -18.00    -2200.00
03246             -25.00    -2200.00
03247              25.00    -2400.00
03248              25.00    -2600.00
03249             -25.00    -2400.00
03250             -25.00    -2600.00
03251              25.00    -2600.00
03252              -1.80    -2400.00
03253             -25.00    -2800.00
03254              25.00    -2600.00
03255              25.00    -2800.00
03256             -25.00    -2800.00
03257             -15.60    -3000.00
03258              25.00    -3000.00
03259             -25.00    -2800.00
03260             -25.00    -3200.00
03261              25.00    -3200.00
03262               2.80    -3200.00
03263             -25.00    -3400.00
03264              22.00    -3200.00
03265              21.60    -3200.00
03266             -25.00    -3400.00
03267              -7.40    -3400.00
03268              21.60    -3600.00
03269              -9.40    -3400.00
03270             -23.80    -3600.00
03271              10.20    -3600.00
03272               9.00    -3600.00
03273             -25.00    -3600.00
03274              -3.00    -3600.00
03275              16.20    -3600.00
03276             -18.60    -3800.00
03277             -14.00    -4000.00
03278              14.40    -4000.00
03279              -7.60    -4000.00
03280             -19.80    -4200.00
03281               5.80    -4000.00
03282               2.60    -4000.00
03283             -18.20    -4000.00
03284              -4.20    -4200.00
03285               6.80    -4200.00
03286             -12.00    -4200.00
03287             -13.20    -4200.00
03288               6.00    -4200.00
03289              -4.20    -4200.00
03290             -16.60    -4400.00
03291              -0.60    -4400.00
03292               1.60    -4400.00
03293             -13.60    -4400.00
03294              -8.60    -4400.00
03295               2.40    -4600.00
03296              -6.80    -4400.00
03297             -13.00    -4600.00
03298              -2.00    -4400.00
03299              -3.00    -4600.00
03300             -12.20    -4600.00
03301              -5.80    -4400.00
03302              -1.20    -4600.00
03303              -9.40    -4600.00
03304             -10.60    -4800.00
03305              -2.80    -4600.00
03306              -5.40    -4800.00
03307             -11.60    -4600.00
03308              -6.20    -4800.00
03309              -3.60    -4600.00
03310              -9.20    -4800.00
03311              -9.20    -4800.00
03312              -5.40    -4600.00
03313              -7.60    -4800.00
03314              -9.20    -4800.00
03315              -6.20    -4800.00
03316              -6.00    -5000.00
03317              -9.20    -5000.00
03318              -9.00    -5000.00
03319              -6.80    -4600.00
03320              -7.60    -5000.00
03321              -9.40    -5000.00
03322              -8.40    -5000.00
03323              -6.80    -5000.00
03324              -9.00    -5000.00
03325              -9.40    -5000.00
03326              -8.40    -5000.00
03327              -8.40    -5000.00
03328              -9.20    -5000.00
03329              -8.60    -5000.00
03330              -8.20    -5000.00
03331              -9.00    -5000.00
03332              -9.20    -5000.00
03333              -8.40    -5000.00
03334              -8.60    -5000.00
03335              -9.20    -5000.00
03336              -9.00    -4800.00
03337              -7.80    -5000.00
03338              -8.40    -5000.00
03339              -9.20    -5000.00
03340              -8.60    -5000.00
03341              -8.20    -5000.00
03342              -8.20    -4800.00
03343              -8.80    -4800.00
03344              -8.20    -4600.00
03345              -7.60    -5000.00
03346              -7.80    -4800.00
03347              -8.00    -4600.00
03348              -7.40    -4600.00
03349              -7.20    -4800.00
03350              -7.40    -4800.00
03351              -7.00    -4600.00
03352              -6.60    -4800.00
03353              -7.60    -4800.00
03354              -7.00    -4600.00
03355              -6.20    -4600.00
03356              -7.60    -4600.00
03357              -7.00    -4600.00
03358              -6.20    -4600.00
03359              -6.20    -4600.00
03360              -6.60    -4600.00
03361              -6.00    -4400.00
03362              -5.40    -4600.00
03363              -6.00    -4400.00
03364              -6.20    -4400.00
03365              -5.20    -4400.00
03366              -5.40    -4400.00
03367              -6.80    -4400.00
03368              -5.40    -4200.00
03369              -4.60    -4400.00
03370              -5.40    -4200.00
03371              -6.00    -4200.00
03372              -4.80    -4200.00
03373              -4.60    -4200.00
03374              -5.40    -4200.00
03375              -4.60    -4200.00
03376              -4.40    -4200.00
03377              -5.20    -4000.00
03378              -4.60    -4000.00
03379              -3.80    -4000.00
03380              -4.60    -4000.00
03381              -5.00    -4000.00
03382              -4.20    -4000.00
03383              -3.80    -3800.00
03384              -4.60    -3800.00
03385              -4.40    -4000.00
03386              -3.60    -3600.00
03387              -4.40    -3600.00
03388              -4.20    -3600.00
03389              -3.80    -3600.00
03390              -4.00    -3600.00
03391              -4.00    -3400.00
03392              -3.40    -3400.00
03393              -3.80    -3400.00
03394              -3.80    -3400.00
03395              -3.00    -3400.00
03396              -3.60    -3200.00
03397              -3.60    -3200.00
03398              -3.00    -3200.00
03399              -3.60    -3200.00
03400              -3.60    -3200.00
03401              -3.00    -3000.00
03402              -3.00    -3000.00
03403              -3.00    -2800.00
03404              -3.00    -2800.00
03405              -3.00    -2800.00
03406              -2.60    -2800.00
03407              -3.00    -2600.00
03408              -3.00    -2400.00
03409              -2.20    -2600.00
03410              -2.80    -2600.00
03411              -2.80    -2600.00
03412              -2.40    -2400.00
03413              -2.20    -2400.00
03414              -2.80    -2400.00
03415              -2.20    -2200.00
03416              -1.80    -2200.00
03417              -2.60    -2000.00
03418              -2.00    -2000.00
03419              -1.80    -2000.00
03420              -2.20    -1800.00
03421              -1.80    -1800.00
03422              -1.80    -2000.00
03423              -2.60    -1600.00
03424              -1.20    -1800.00
03425              -1.40    -1600.00
03426              -2.60    -1600.00
03427              -1.20    -1600.00
03428              -0.40    -1600.00
03429              -2.20    -1400.00
03430              -1.80    -1200.00
03431               0.20    -1200.00
03432              -2.00    -1200.00
03433              -1.80    -1000.00
03434              -0.60    -1000.00
03435              -1.00    -1000.00
03436              -1.80    -1000.00
03437              -1.20     -800.00
03438              -0.60    -1000.00
03439              -0.60     -800.00
03440              -2.00     -600.00
03441              -0.20     -800.00
03442               0.20     -400.00
03443              -1.40     -400.00
03444              -0.60     -400.00
03445               0.80     -400.00
03446              -0.80     -400.00
03447              -1.80     -200.00
03448              -0.40        0.00
03449               0.60     -200.00
03450              -1.20     -200.00
03451              -0.60        0.00
03452               1.00        0.00
03453               0.60      200.00
03454              -0.80      400.00
03455              -0.20      200.00
03456               1.00      200.00
03457              -0.60      400.00
03458               0.20      400.00
03459               6.60      400.00
03460              11.80      600.00
03461             -20.20      600.00
03462             -25.00      600.00
03463              25.00      800.00
03464              25.00      800.00
03465             -25.00      800.00
03466             -25.00     1000.00
03467              25.00     1200.00
03468              25.00     1200.00
03469             -25.00     1000.00
03470               7.60     1400.00
03471              25.00     1200.00
03472             -25.00     1400.00
03473             -25.00     1200.00
03474              25.00     1800.00
03475              25.00     1400.00
03476             -25.00     1600.00
03477               7.00     1800.00
03478              25.00     1600.00
03479             -25.00     2000.00
03480             -25.00     2000.00
03481              25.00     1800.00
03482              25.00     2000.00
03483             -25.00     2000.00
03484              22.60     2200.00
03485              25.00     2000.00
03486             -25.00     2200.00
03487             -25.00     2200.00
03488              25.00     2200.00
03489              25.00     2600.00
03490             -25.00     2400.00
03491              17.00     2600.00
03492              25.00     2400.00
03493             -25.00     2800.00
03494             -25.00     2600.00
03495              25.00     2600.00
03496              11.60     3000.00
03497             -25.00     2800.00
03498              25.00     2800.00
03499              25.00     3000.00
03500             -25.00     3000.00
03501              -6.40     3000.00
03502              25.00     3000.00
03503             -15.40     3200.00
03504             -25.00     3200.00
03505              25.00     3200.00
03506              16.40     3200.00
03507             -25.00     3200.00
03508              10.60     3400.00
03509              25.00     3400.00
03510             -15.60     3400.00
03511              -9.40     3600.00
03512              25.00     3600.00
03513               4.60     3800.00
03514             -18.20     3600.00
03515              15.40     3600.00
03516              18.20     3600.00
03517             -15.40     3800.00
03518               2.20     3600.00
03519              22.60     3800.00
03520              -3.80     3800.00
03521              -8.00     3800.00
03522              17.80     4000.00
03523               8.40     4000.00
03524              -9.60     4000.00
03525               9.00     4000.00
03526              14.80     4000.00
03527              -5.20     4000.00
03528               1.20     4000.00
03529              15.40     4000.00
03530               2.80     4400.00
03531              -3.00     4400.00
03532              11.40     4400.00
03533              10.00     4400.00
03534              -2.60     4400.00
03535               4.80     4400.00
03536              12.40     4400.00
03537               3.40     4400.00
03538               1.40     4600.00
03539               9.80     4400.00
03540               8.20     4400.00
03541               0.60     4600.00
03542               6.60     4400.00
03543              10.80     4600.00
03544               3.00     4600.00
03545               3.60     4600.00
03546              10.80     4600.00
03547               7.60     4800.00
03548               2.20     4800.00
03549               8.20     4800.00
03550              10.60     4800.00
03551               3.80     4800.00
03552               5.80     4800.00
03553              10.00     4800.00
03554               6.80     4800.00
03555               5.40     4800.00
03556               9.00     4800.00
03557               8.20     4800.00
03558               5.20     4800.00
03559               7.40     5000.00
03560               9.40     4800.00
03561               7.60     4800.00
03562               7.20     4800.00
03563               8.80     4800.00
03564               9.00     4800.00
03565               7.00     4800.00
03566               7.60     5000.00
03567               9.00     4800.00
03568               7.60     4800.00
03569               7.60     4800.00
03570               9.00     5000.00
03571               8.40     4800.00
03572               7.60     4800.00
03573               8.80     4800.00
03574               9.00     5000.00
03575               7.80     4800.00
03576               8.20     4800.00
03577               8.60     4800.00
03578               8.20     4800.00
03579               7.60     4800.00
03580               8.20     4800.00
03581               7.20     4800.00
03582               7.80     4800.00
03583               7.80     4800.00
03584               7.40     4800.00
03585               6.80     4800.00
03586               7.40     4800.00
03587               7.40     4800.00
03588               6.80     4600.00
03589               6.80     4800.00
03590               6.80     4800.00
03591               6.00     4800.00
03592               7.00     4600.00
03593               6.60     4600.00
03594               5.40     4600.00
03595               6.40     4600.00
03596               6.80     4600.00
03597               5.40     4400.00
03598               5.80     4600.00
03599               6.20     4600.00
03600               5.80     4400.00
03601               5.40     4600.00
03602               5.80     4600.00
03603               5.60     4400.00
03604               5.20     4400.00
03605               5.20     4400.00
03606               5.60     4400.00
03607               5.20     4400.00
03608               4.40     4400.00
03609               5.20     4400.00
03610               5.40     4400.00
03611               4.60     4400.00
03612               4.60     4200.00
03613               4.60     4000.00
03614               4.60     4000.00
03615               4.20     4000.00
03616               4.20     4000.00
03617               4.20     4000.00
03618               4.20     4000.00
03619               4.20     4000.00
03620               4.40     4000.00
03621               4.00     3800.00
03622               3.60     4000.00
03623               4.20     3800.00
03624               4.20     3800.00
03625               3.60     3600.00
03626               3.40     3600.00
03627               3.80     3600.00
03628               3.60     3600.00
03629               3.20     3600.00
03630               3.60     3600.00
03631               3.60     3400.00
03632               3.20     3600.00
03633               3.00     3200.00
03634               3.40     3200.00
03635               2.80     3200.00
03636               2.60     3200.00
03637               3.00     3200.00
03638               2.60     3200.00
03639               2.60     3200.00
03640               3.00     3000.00
03641               2.60     3000.00
03642               2.60     3000.00
03643               2.80     2800.00
03644               2.40     2800.00
03645               2.40     2800.00
03646               2.20     2800.00
03647               2.60     2600.00
03648               2.00     2400.00
03649               1.80     2800.00
03650               2.00     2400.00
03651               2.00     2400.00
03652               1.80     2400.00
03653               1.60     2200.00
03654               1.80     2200.00
03655               1.80     2200.00
03656               1.80     2000.00
03657               1.80     2200.00
03658               1.40     2000.00
03659               1.20     2000.00
03660               1.40     2000.00
03661               1.20     2000.00
03662               1.00     1800.00
03663               1.20     1800.00
03664               1.00     1600.00
03665               1.20     1800.00
03666               1.40     1400.00
03667               0.40     1400.00
03668               0.40     1800.00
03669               2.00     1400.00
03670               0.40     1400.00
03671               0.20     1200.00
03672               1.40     1200.00
03673               0.40     1200.00
03674              -0.20     1000.00
03675               1.20      800.00
03676               0.60      800.00
03677              -0.40      800.00
03678               0.60      800.00
03679               1.00      800.00
03680              -0.40      600.00
03681               0.20      600.00
03682               0.60      600.00
03683               0.20      400.00
03684               0.00      400.00
03685               0.40      400.00
03686               0.00      200.00
03687              -0.20      200.00
03688              -0.20      200.00
03689               0.20        0.00
03690               0.20        0.00
03691              -0.40        0.00
03692               0.20        0.00
03693               0.20     -200.00
03694              -0.40     -200.00
03695              -0.40     -200.00
03696              -0.60     -400.00
03697              -0.60     -400.00
03698               1.40     -400.00
03699              12.60     -600.00
03700               1.40     -800.00
03701             -25.00     -800.00
03702              21.80     -600.00
03703              25.00     -800.00
03704             -19.40    -1000.00
03705             -25.00     -800.00
03706              25.00    -1000.00
03707              25.00    -1000.00
03708             -25.00    -1400.00
03709             -25.00    -1000.00
03710              25.00    -1200.00
03711              25.00    -1600.00
03712             -25.00    -1200.00
03713              20.60    -1400.00
03714              25.00    -1800.00
03715             -25.00    -1600.00
03716             -25.00    -1600.00
03717              25.00    -1800.00
03718              25.00    -2000.00
03719             -25.00    -1800.00
03720              25.00    -2000.00
03721              25.00    -2400.00
03722             -25.00    -2000.00
03723             -25.00    -2400.00
03724              25.00    -2200.00
03725              19.20    -2200.00
03726             -25.00    -2200.00
03727              25.00    -2400.00
03728              25.00    -2600.00
03729             -25.00    -2400.00
03730             -25.00    -2600.00
03731              25.00    -2600.00
03732              22.40    -2600.00
03733             -25.00    -2800.00
03734              10.00    -2800.00
03735              25.00    -2800.00
03736             -25.00    -2800.00
03737             -25.00    -2800.00
03738              25.00    -3000.00
03739              -7.40    -2800.00
03740             -25.00    -3200.00
03741              25.00    -3200.00
03742              23.60    -3200.00
03743             -25.00    -3200.00
03744               8.20    -3400.00
03745              25.00    -3200.00
03746             -25.00    -3200.00
03747             -17.40    -3600.00
03748              21.80    -3600.00
03749              -1.20    -3400.00
03750             -25.00    -3600.00
03751               4.40    -3600.00
03752              14.20    -3600.00
03753             -22.00    -3600.00
03754             -10.80    -3600.00
03755              17.40    -4000.00
03756             -11.60    -3600.00
03757             -19.80    -3800.00
03758              12.40    -4000.00
03759              -0.60    -4000.00
03760             -21.20    -4000.00
03761               1.80    -4000.00
03762               6.00    -4200.00
03763             -15.60    -4000.00
03764              -8.80    -4000.00
03765               7.40    -4200.00
03766              -7.60    -4000.00
03767             -15.60    -4200.00
03768               3.60    -4200.00
03769              -0.60    -4200.00
03770             -16.60    -4200.00
03771              -3.80    -4400.00
03772               3.00    -4400.00
03773             -11.40    -4400.00
03774             -11.00    -4400.00
03775               1.40    -4600.00
03776              -4.60    -4400.00
03777             -13.20    -4600.00
03778              -3.00    -4400.00
03779              -1.40    -4600.00
03780             -11.60    -4600.00
03781              -8.20    -4600.00
03782              -1.20    -4800.00
03783              -7.80    -4600.00
03784             -11.60    -4800.00
03785              -3.80    -4600.00
03786              -4.20    -4800.00
03787             -11.60    -4600.00
03788              -7.80    -4600.00
03789              -3.40    -4800.00
03790              -8.40    -4800.00
03791             -10.20    -4800.00
03792              -5.40    -4800.00
03793              -6.00    -4800.00
03794             -10.40    -4600.00
03795              -7.80    -4600.00
03796              -5.80    -5000.00
03797              -9.00    -4600.00
03798              -9.20    -5000.00
03799              -7.00    -5000.00
03800              -7.20    -4600.00
03801              -9.40    -5000.00
03802              -8.60    -4800.00
03803              -7.60    -5000.00
03804              -8.60    -5000.00
03805              -9.20    -5000.00
03806              -8.40    -4800.00
03807              -8.20    -5000.00
03808              -8.60    -5000.00
03809              -9.00    -5000.00
03810              -8.60    -5000.00
03811              -8.60    -5000.00
03812              -9.20    -4600.00
03813              -8.60    -5000.00
03814              -8.40    -5000.00
03815              -9.00    -4600.00
03816              -9.40    -5000.00
03817              -8.40    -4600.00
03818              -8.20    -4800.00
03819              -9.20    -4600.00
03820              -9.00    -5000.00
03821              -7.80    -5000.00
03822              -7.60    -5000.00
03823              -8.60    -4800.00
03824              -8.20    -4600.00
03825              -7.00    -4800.00
03826              -7.80    -4600.00
03827              -7.80    -5000.00
03828              -7.00    -5000.00
03829              -7.20    -4800.00
03830              -7.60    -4600.00
03831              -7.00    -4800.00
03832              -6.40    -4600.00
03833              -7.80    -4800.00
03834              -7.00    -4600.00
03835              -5.80    -4600.00
03836              -7.60    -4600.00
03837              -7.00    -4800.00
03838              -6.00    -4400.00
03839              -6.20    -4600.00
03840              -6.80    -4600.00
03841              -6.20    -4600.00
03842              -5.80    -4600.00
03843              -6.00    -4400.00
03844              -6.60    -4400.00
03845              -5.80    -4400.00
03846              -5.40    -4400.00
03847              -6.80    -4400.00
03848              -6.00    -4400.00
03849              -5.00    -4400.00
03850              -5.60    -4400.00
03851              -5.80    -4200.00
03852              -5.20    -4200.00
03853              -5.00    -4200.00
03854              -5.40    -4200.00
03855              -4.60    -4200.00
03856              -5.00    -4200.00
03857              -5.20    -4200.00
03858              -4.40    -4000.00
03859              -4.60    -4000.00
03860              -4.40    -4000.00
03861              -4.60    -3800.00
03862              -4.80    -4000.00
03863              -4.40    -4000.00
03864              -4.20    -3800.00
03865              -5.00    -3600.00
03866              -4.40    -3600.00
03867              -3.60    -3800.00
03868              -4.20    -3600.00
03869              -4.20    -3400.00
03870              -3.00    -3400.00
03871              -3.80    -3400.00
03872              -3.80    -3600.00
03873              -3.40    -3400.00
03874              -3.60    -3400.00
03875              -3.80    -3400.00
03876              -3.80    -3400.00
03877              -3.40    -3200.00
03878              -3.00    -3200.00
03879              -3.40    -3000.00
03880              -3.40    -3200.00
03881              -2.80    -3000.00
03882              -2.80    -2800.00
03883              -3.00    -2800.00
03884              -2.80    -2800.00
03885              -2.20    -2600.00
03886              -2.80    -2800.00
03887              -2.80    -2600.00
03888              -2.60    -2600.00
03889              -2.60    -2600.00
03890              -2.20    -2400.00
03891              -2.20    -2400.00
03892              -2.20    -2400.00
03893              -2.20    -2400.00
03894              -2.60    -2400.00
03895              -2.00    -2200.00
03896              -2.00    -2000.00
03897              -2.20    -2000.00
03898              -2.20    -2000.00
03899              -1.40    -2000.00
03900              -1.80    -2000.00
03901              -2.00    -1800.00
03902              -1.60    -1800.00
03903              -1.40    -1800.00
03904              -1.80    -1800.00
03905              -1.40    -1600.00
03906              -1.40    -1600.00
03907              -1.80    -1600.00
03908              -2.00    -1600.00
03909              -1.40    -1200.00
03910              -1.20    -1400.00
03911              -1.80    -1200.00
03912              -1.20    -1200.00
03913              -1.00    -1200.00
03914              -1.20    -1200.00
03915              -1.20    -1000.00
03916              -1.00     -800.00
03917              -1.20    -1000.00
03918              -1.20     -800.00
03919              -1.20     -800.00
03920              -0.60     -800.00
03921              -1.00     -800.00
03922              -1.40     -600.00
03923              -0.20     -400.00
03924              -0.60     -400.00
03925              -1.00     -400.00
03926              -0.60     -200.00
03927              -0.60     -400.00
03928              -1.00     -200.00
03929              -0.40     -200.00
03930              -0.20        0.00
03931              -0.60        0.00
03932              -0.60        0.00
03933               0.60        0.00
03934               0.40      200.00
03935              -0.40      200.00
03936              -0.40      400.00
03937               0.60      400.00
03938               1.00      400.00
03939               3.00      600.00
03940              13.00      600.00
03941             -10.20      600.00
03942             -25.00      600.00
03943              25.00      800.00
03944              25.00      800.00
03945             -25.00      800.00
03946             -25.00      800.00
03947              25.00     1200.00
03948              25.00     1000.00
03949             -25.00     1200.00
03950             -25.00     1200.00
03951              25.00     1400.00
03952               9.00     1400.00
03953             -25.00     1400.00
03954              25.00     1800.00
03955              25.00     1400.00
03956             -25.00     1800.00
03957             -25.00     1600.00
03958              25.00     1800.00
03959              -6.00     1800.00
03960             -25.00     1800.00
03961              25.00     2000.00
03962              25.00     2000.00
03963             -25.00     2200.00
03964             -12.40     2200.00
03965              25.00     2000.00
03966             -21.80     2400.00
03967             -25.00     2200.00
03968              25.00     2400.00
03969              25.00     2400.00
03970             -25.00     2400.00
03971              -7.60     2600.00
03972              25.00     2400.00
03973             -19.60     2800.00
03974             -25.00     2800.00
03975              25.00     2800.00
03976              25.00     2800.00
03977             -25.00     2800.00
03978              11.40     3000.00
03979              25.00     3000.00
03980             -25.00     3000.00
03981             -25.00     3000.00
03982              25.00     3000.00
03983               2.60     3200.00
03984             -25.00     3200.00
03985              25.00     3200.00
03986              25.00     3400.00
03987             -25.00     3200.00
03988              -0.80     3200.00
03989              25.00     3400.00
03990              -7.60     3400.00
03991             -17.20     3600.00
03992              23.80     3600.00
03993              12.60     3800.00
03994             -21.00     3600.00
03995               9.00     3800.00
03996              23.00     3600.00
03997             -12.20     4000.00
03998              -4.40     3800.00
03999              22.80     3800.00
04000               2.00     4000.00
04001             -11.40     3800.00
04002              14.60     4000.00
04003              13.00     4000.00
04004              -9.40     4000.00
04005               5.00     4000.00
04006              16.60     4000.00
04007              -2.20     4000.00
04008              -1.80     4200.00
04009              14.60     4000.00
04010               5.80     4400.00
04011              -4.40     4200.00
04012               9.80     4400.00
04013              12.00     4400.00
04014              -2.00     4400.00
04015               3.60     4400.00
04016              12.40     4600.00
04017               4.20     4400.00
04018               0.60     4600.00
04019               9.80     4600.00
04020               9.00     4600.00
04021               0.80     4600.00
04022               6.80     4600.00
04023              10.80     4600.00
04024               3.00     4600.00
04025               3.40     4800.00
04026              10.80     4800.00
04027               7.60     4800.00
04028               2.80     4600.00
04029               8.00     4800.00
04030              10.00     4800.00
04031               3.80     4600.00
04032               5.80     4800.00
04033              10.00     4800.00
04034               6.60     4800.00
04035               5.80     4800.00
04036               8.60     4800.00
04037               8.60     4800.00
04038               5.40     4800.00
04039               7.40     4800.00
04040               9.20     4800.00
04041               6.80     5000.00
04042               7.00     4800.00
04043               8.60     4800.00
04044               8.40     4800.00
04045               7.80     4800.00
04046               7.60     4800.00
04047               7.60     4800.00
04048               7.80     5000.00
04049               8.20     5000.00
04050               8.00     5000.00
04051               8.40     4800.00
04052               8.40     4800.00
04053               7.80     5000.00
04054               8.20     4800.00
04055               8.40     4800.00
04056               8.20     5000.00
04057               7.80     4800.00
04058               8.80     4800.00
04059               7.60     5000.00
04060               7.20     4800.00
04061               7.40     4800.00
04062               8.20     4800.00
04063               7.60     4800.00
04064               7.60     4800.00
04065               7.40     4800.00
04066               7.60     4800.00
04067               7.00     4800.00
04068               7.00     4800.00
04069               7.00     4800.00
04070               7.00     4600.00
04071               6.60     4800.00
04072               7.40     4600.00
04073               6.80     4800.00
04074               5.80     4600.00
04075               6.20     4600.00
04076               6.80     4600.00
04077               5.40     4600.00
04078               5.80     4600.00
04079               6.20     4600.00
04080               5.80     4400.00
04081               5.40     4600.00
04082               6.00     4600.00
04083               5.80     4400.00
04084               5.20     4400.00
04085               5.80     4400.00
04086               5.60     4400.00
04087               5.00     4400.00
04088               5.00     4400.00
04089               5.20     4400.00
04090               5.00     4400.00
04091               5.00     4200.00
04092               4.60     4200.00
04093               4.60     4200.00
04094               4.60     4200.00
04095               4.60     4000.00
04096               4.40     4000.00
04097               4.20     4000.00
04098               4.40     4000.00
04099               4.20     4000.00
04100               4.20     3800.00
04101               4.40     3800.00
04102               3.60     4000.00
04103               3.60     3800.00
04104               3.80     3600.00
04105               3.60     3800.00
04106               2.80     3600.00
04107               3.60     3600.00
04108               3.80     3600.00
04109               3.40     3400.00
04110               3.00     3400.00
04111               3.60     3400.00
04112               2.80     3400.00
04113               2.60     3200.00
04114               3.40     3200.00
04115               3.00     3200.00
04116               2.20     3200.00
04117               2.80     3200.00
04118               3.40     3000.00
04119               2.20     3200.00
04120               2.40     3000.00
04121               2.60     3000.00
04122               2.20     2800.00
04123               2.20     2800.00
04124               2.60     2800.00
04125               2.20     2800.00
04126               1.80     2800.00
04127               2.20     2600.00
04128               2.00     2600.00
04129               1.80     2400.00
04130               2.20     2600.00
04131               2.00     2400.00
04132               2.00     2400.00
04133               1.80     2400.00
04134               1.80     2200.00
04135               1.80     2200.00
04136               1.40     2000.00
04137               1.80     2000.00
04138               1.80     2000.00
04139               1.20     2000.00
04140               1.80     2000.00
04141               1.40     1800.00
04142               1.20     1600.00
04143               1.00     1800.00
04144               1.20     1600.00
04145               1.40     1800.00
04146               1.00     1600.00
04147               1.00     1400.00
04148               1.20     1400.00
04149               1.00     1400.00
04150               1.00     1200.00
04151               1.00     1200.00
04152               0.60     1200.00
04153               0.60     1200.00
04154               1.00     1000.00
04155               0.40      800.00
04156               0.20      800.00
04157               0.40      800.00
04158               0.40      800.00
04159               0.40      800.00
04160               0.40      600.00
04161               0.40      600.00
04162               0.40      400.00
04163               0.20      400.00
04164               0.40      400.00
04165               0.40      200.00
04166              -0.20      200.00
04167              -0.20      400.00
04168              -0.20        0.00
04169               0.00        0.00
04170               0.20        0.00
04171              -0.60        0.00
04172              -0.20     -200.00
04173               0.20     -200.00
04174              -0.40     -400.00
04175              -0.60     -200.00
04176              -0.40     -400.00
04177              -0.60     -400.00
04178              -0.20     -600.00
04179              10.00     -600.00
04180               8.00     -800.00
04181             -25.00     -800.00
04182              -0.40     -600.00
04183              25.00     -800.00
04184               1.40    -1000.00
04185             -25.00    -1000.00
04186              25.00    -1000.00
04187              25.00    -1000.00
04188             -25.00    -1400.00
04189             -25.00    -1000.00
04190              25.00    -1200.00
04191              25.00    -1400.00
04192             -25.00    -1400.00
04193             -25.00    -1600.00
04194              25.00    -1600.00
04195             -11.00    -1800.00
04196             -25.00    -1800.00
04197              25.00    -1800.00
04198              25.00    -2000.00
04199             -25.00    -1800.00
04200             -15.80    -1800.00
04201              25.00    -2000.00
04202             -25.00    -2000.00
04203             -25.00    -2000.00
04204              25.00    -2000.00
04205              25.00    -2200.00
04206             -25.00    -2000.00
04207              -2.20    -2400.00
04208              25.00    -2600.00
04209             -25.00    -2400.00
04210             -25.00    -2600.00
04211              25.00    -2600.00
04212              25.00    -2600.00
04213             -25.00    -2800.00
04214             -15.00    -2800.00
04215              25.00    -2800.00
04216             -25.00    -2800.00
04217             -25.00    -2800.00
04218              25.00    -2800.00
04219              19.20    -2800.00
04220             -25.00    -3200.00
04221              23.40    -3000.00
04222              25.00    -3200.00
04223             -25.00    -3200.00
04224              -8.40    -3200.00
04225              25.00    -3200.00
04226             -20.20    -3200.00
04227             -25.00    -3400.00
04228              19.20    -3400.00
04229               6.20    -3600.00
04230             -25.00    -3600.00
04231              -2.40    -3600.00
04232              16.60    -3600.00
04233             -15.80    -3600.00
04234             -18.00    -3600.00
04235              15.80    -3800.00
04236              -3.60    -3800.00
04237             -24.20    -4000.00
04238               8.20    -3800.00
04239               5.40    -4000.00
04240             -21.40    -4000.00
04241              -3.80    -4000.00
04242               8.60    -4200.00
04243             -12.40    -4200.00
04244             -13.40    -4000.00
04245               6.80    -4200.00
04246              -3.20    -4200.00
04247             -17.40    -4200.00
04248               0.40    -4200.00
04249               2.60    -4200.00
04250             -16.20    -4200.00
04251              -7.00    -4400.00
04252               4.20    -4400.00
04253              -9.20    -4400.00
04254             -12.60    -4400.00
04255               0.40    -4400.00
04256              -3.40    -4400.00
04257             -13.00    -4600.00
04258              -5.20    -4400.00
04259              -1.40    -4600.00
04260             -10.00    -4600.00
04261              -9.00    -4600.00
04262              -1.80    -4800.00
04263              -6.20    -4600.00
04264             -11.40    -4600.00
04265              -5.40    -4600.00
04266              -3.60    -4600.00
04267              -9.80    -4600.00
04268              -9.00    -4800.00
04269              -3.80    -4600.00
04270              -6.60    -5000.00
04271             -10.20    -4600.00
04272              -6.60    -4800.00
04273              -5.20    -4600.00
04274              -9.20    -4800.00
04275              -9.00    -4600.00
04276              -5.80    -4800.00
04277              -7.60    -5000.00
04278              -9.80    -5000.00
04279              -7.40    -5000.00
04280              -6.80    -5000.00
04281              -9.40    -5000.00
04282              -9.20    -5000.00
04283              -7.00    -5000.00
04284              -7.60    -4600.00
04285              -9.20    -5000.00
04286              -8.40    -5000.00
04287              -7.60    -5000.00
04288              -8.80    -4600.00
04289              -9.20    -5000.00
04290              -8.40    -5000.00
04291              -8.60    -4800.00
04292              -9.00    -5000.00
04293              -8.60    -5000.00
04294              -8.40    -5000.00
04295              -8.60    -5000.00
04296              -9.40    -5000.00
04297              -8.80    -5000.00
04298              -7.80    -5000.00
04299              -8.60    -5000.00
04300              -9.20    -4800.00
04301              -8.00    -5000.00
04302              -7.60    -5000.00
04303              -9.00    -4800.00
04304              -8.60    -5000.00
04305              -7.40    -4600.00
04306              -8.40    -5000.00
04307              -8.40    -4800.00
04308              -7.40    -4800.00
04309              -7.00    -4800.00
04310              -8.40    -4600.00
04311              -7.60    -4600.00
04312              -6.20    -4800.00
04313              -7.60    -4600.00
04314              -7.60    -4600.00
04315              -6.00    -4600.00
04316              -7.40    -4600.00
04317              -7.60    -4800.00
04318              -6.20    -4600.00
04319              -6.20    -4600.00
04320              -6.80    -4600.00
04321              -6.20    -4400.00
04322              -6.00    -4600.00
04323              -5.80    -4400.00
04324              -7.00    -4400.00
04325              -6.00    -4400.00
04326              -5.40    -4400.00
04327              -6.60    -4400.00
04328              -5.80    -4400.00
04329              -5.00    -4400.00
04330              -5.40    -4400.00
04331              -5.60    -4200.00
04332              -5.40    -4400.00
04333              -5.20    -4200.00
04334              -5.20    -4200.00
04335              -5.00    -4200.00
04336              -5.00    -4200.00
04337              -5.00    -4000.00
04338              -5.00    -4000.00
04339              -4.60    -4000.00
04340              -4.20    -4000.00
04341              -5.20    -4000.00
04342              -4.60    -4000.00
04343              -3.80    -4000.00
04344              -4.60    -3600.00
04345              -4.40    -3600.00
04346              -3.80    -3800.00
04347              -4.20    -3600.00
04348              -3.80    -3600.00
04349              -3.80    -3600.00
04350              -3.80    -3600.00
04351              -3.80    -3400.00
04352              -3.80    -3400.00
04353              -3.40    -3400.00
04354              -3.60    -3400.00
04355              -3.80    -3200.00
04356              -3.40    -3200.00
04357              -3.40    -3200.00
04358              -3.40    -3200.00
04359              -3.40    -3200.00
04360              -3.40    -3000.00
04361              -3.00    -3000.00
04362              -3.00    -2800.00
04363              -3.00    -2800.00
04364              -3.00    -2800.00
04365              -3.00    -2800.00
04366              -2.80    -2800.00
04367              -2.80    -2600.00
04368              -3.00    -2800.00
04369              -2.80    -2600.00
04370              -2.80    -2600.00
04371              -3.00    -2600.00
04372              -2.40    -2400.00
04373              -2.60    -2400.00
04374              -2.80    -2400.00
04375              -2.20    -2400.00
04376              -2.00    -2200.00
04377              -2.60    -2000.00
04378              -2.20    -2000.00
04379              -2.00    -2000.00
04380              -2.00    -2000.00
04381              -2.20    -2000.00
04382              -2.00    -1800.00
04383              -2.00    -1800.00
04384              -2.00    -1600.00
04385              -1.80    -1800.00
04386              -1.80    -1600.00
04387              -1.40    -1600.00
04388              -1.80    -1600.00
04389              -1.40    -1400.00
04390              -1.20    -1600.00
04391              -1.60    -1200.00
04392              -1.40    -1200.00
04393              -1.00    -1000.00
04394              -1.20    -1200.00
04395              -1.00    -1000.00
04396              -1.20    -1000.00
04397              -1.20    -1000.00
04398              -1.00     -800.00
04399              -1.00     -800.00
04400              -1.20     -600.00
04401              -0.60     -800.00
04402              -1.00     -600.00
04403              -0.40     -400.00
04404              -0.60     -400.00
04405              -0.60     -400.00
04406              -0.20     -200.00
04407              -0.40     -200.00
04408              -0.80     -200.00
04409               0.20        0.00
04410               0.20     -200.00
04411              -0.60        0.00
04412              -0.40        0.00
04413               0.60        0.00
04414               0.40        0.00
04415              -0.40      400.00
04416              -0.20      200.00
04417               0.60      400.00
04418               0.40      400.00
04419               2.60      600.00
04420              12.20      600.00
04421              -3.00      800.00
04422             -25.00      600.00
04423              14.20      800.00
04424              25.00      800.00
04425             -11.40      800.00
04426             -25.00      800.00
04427              25.00     1200.00
04428              25.00     1000.00
04429             -25.00     1200.00
04430             -25.00     1000.00
04431              25.00     1400.00
04432              25.00     1400.00
04433             -25.00     1400.00
04434              22.60     1800.00
04435              25.00     1400.00
04436             -25.00     1800.00
04437             -25.00     1600.00
04438              25.00     1800.00
04439              25.00     1800.00
04440             -25.00     1800.00
04441              25.00     2000.00
04442              25.00     1800.00
04443             -25.00     2200.00
04444             -25.00     2000.00
04445              25.00     2000.00
04446              13.80     2400.00
04447             -25.00     2200.00
04448              25.00     2200.00
04449              25.00     2400.00
04450             -25.00     2400.00
04451             -25.00     2400.00
04452              25.00     2200.00
04453               7.40     2800.00
04454             -25.00     2800.00
04455              25.00     2600.00
04456              25.00     2800.00
04457             -25.00     2800.00
04458             -10.80     3000.00
04459              25.00     2800.00
04460             -17.20     3000.00
04461             -25.00     3200.00
04462              25.00     3000.00
04463              21.80     3000.00
04464             -25.00     3000.00
04465              14.40     3200.00
04466              25.00     3200.00
04467             -25.00     3400.00
04468             -12.60     3400.00
04469              25.00     3400.00
04470               3.40     3600.00
04471             -24.00     3600.00
04472              18.00     3600.00
04473              21.80     3600.00
04474             -19.60     3600.00
04475               0.60     3800.00
04476              25.00     3800.00
04477              -5.40     3800.00
04478             -11.60     3800.00
04479              21.00     3800.00
04480               9.40     4000.00
04481             -14.00     4000.00
04482               9.40     4000.00
04483              17.80     4000.00
04484              -7.00     4000.00
04485              -0.40     4000.00
04486              17.40     4000.00
04487               2.80     4400.00
04488              -5.20     4400.00
04489              12.60     4000.00
04490              10.20     4200.00
04491              -5.20     4200.00
04492               5.80     4400.00
04493              14.40     4400.00
04494              -0.40     4400.00
04495              -0.40     4400.00
04496              13.00     4400.00
04497               7.20     4600.00
04498              -1.80     4400.00
04499               8.60     4400.00
04500              10.60     4400.00
04501               0.60     4600.00
04502               4.60     4600.00
04503              11.40     4600.00
04504               4.60     4400.00
04505               1.80     4600.00
04506               9.80     4800.00
04507               9.00     4600.00
04508               2.20     4600.00
04509               6.20     4800.00
04510              10.60     4600.00
04511               5.20     4800.00
04512               4.60     4800.00
04513               9.00     4600.00
04514               7.60     4800.00
04515               5.80     5000.00
04516               6.80     4800.00
04517               8.60     5000.00
04518               6.80     4800.00
04519               6.20     4800.00
04520               9.00     4800.00
04521               8.60     5000.00
04522               6.00     4800.00
04523               7.80     4800.00
04524               9.80     4800.00
04525               7.00     4800.00
04526               6.80     5000.00
04527               8.80     4800.00
04528               8.20     5200.00
04529               7.40     4800.00
04530               8.60     5000.00
04531               9.20     4800.00
04532               7.40     5000.00
04533               8.00     4800.00
04534               9.20     4800.00
04535               8.20     4800.00
04536               7.60     4800.00
04537               8.40     5000.00
04538               8.40     5000.00
04539               7.80     4800.00
04540               7.80     4800.00
04541               8.20     4800.00
04542               7.80     4800.00
04543               7.60     4800.00
04544               7.40     4800.00
04545               7.60     4800.00
04546               7.40     4800.00
04547               7.40     4800.00
04548               7.40     4800.00
04549               7.00     4600.00
04550               6.80     4800.00
04551               6.80     4800.00
04552               6.60     4800.00
04553               7.00     4600.00
04554               6.60     4800.00
04555               5.80     4800.00
04556               6.80     4600.00
04557               6.80     4600.00
04558               5.60     4600.00
04559               5.20     4400.00
04560               6.80     4600.00
04561               5.40     4400.00
04562               5.20     4600.00
04563               6.20     4600.00
04564               5.40     4400.00
04565               5.20     4400.00
04566               5.20     4400.00
04567               5.60     4400.00
04568               5.00     4400.00
04569               4.20     4400.00
04570               5.00     4000.00
04571               5.20     4200.00
04572               4.20     4200.00
04573               4.00     4000.00
04574               5.00     4200.00
04575               5.00     4000.00
04576               4.00     4000.00
04577               3.60     4000.00
04578               5.20     3800.00
04579               4.20     4000.00
04580               3.40     3800.00
04581               4.40     3800.00
04582               4.00     3800.00
04583               2.80     3800.00
04584               3.80     3800.00
04585               4.40     3600.00
04586               3.00     3600.00
04587               3.40     3600.00
04588               3.80     3600.00
04589               3.60     3600.00
04590               3.00     3600.00
04591               3.40     3600.00
04592               3.40     3200.00
04593               3.60     3200.00
04594               3.40     3200.00
04595               3.00     3200.00
04596               2.80     3000.00
04597               3.00     3200.00
04598               2.20     3000.00
04599               2.80     3000.00
04600               3.00     2800.00
04601               2.60     3000.00
04602               2.80     2800.00
04603               2.80     2800.00
04604               2.00     2800.00
04605               2.00     2800.00
04606               2.80     2800.00
04607               2.60     2600.00
04608               2.20     2600.00
04609               2.40     2400.00
04610               2.20     2400.00
04611               1.80     2400.00
04612               2.00     2200.00
04613               2.00     2400.00
04614               2.00     2400.00
04615               1.00     2200.00
04616               2.00     2000.00
04617               2.40     2200.00
04618               1.40     2000.00
04619               1.00     2000.00
04620               2.20     2000.00
04621               1.80     2000.00
04622               1.00     1800.00
04623               1.80     1800.00
04624               1.20     1600.00
04625               1.00     1600.00
04626               1.20     1600.00
04627               1.00     1600.00
04628               0.40     1400.00
04629               1.00     1400.00
04630               0.80     1200.00
04631               0.60     1200.00
04632               0.80     1200.00
04633               0.60     1200.00
04634               0.40      800.00
04635               0.60     1000.00
04636               0.40      800.00
04637               0.20      800.00
04638               0.40      800.00
04639               0.40      800.00
04640               0.00      600.00
04641               0.20      600.00
04642               0.20      600.00
04643               0.40      400.00
04644              -0.20      400.00
04645               0.20      400.00
04646               0.20      200.00
04647              -0.40      200.00
04648              -0.60        0.00
04649               0.20        0.00
04650               0.00        0.00
04651              -0.60        0.00
04652               0.00        0.00
04653               0.20     -200.00
04654              -0.40     -200.00
04655              -0.20     -200.00
04656              -0.40     -400.00
04657              -1.00     -400.00
04658              -0.20     -400.00
04659               6.80     -600.00
04660              11.80     -800.00
04661             -25.00     -800.00
04662             -22.60     -400.00
04663              25.00     -800.00
04664              19.80    -1000.00
04665             -25.00    -1000.00
04666              -8.40     -800.00
04667              25.00    -1000.00
04668             -10.00    -1200.00
04669             -25.00    -1000.00
04670              25.00    -1200.00
04671              25.00    -1400.00
04672             -25.00    -1400.00
04673             -25.00    -1200.00
04674              25.00    -1600.00
04675              25.00    -1800.00
04676             -25.00    -1600.00
04677              25.00    -1800.00
04678              25.00    -2000.00
04679             -25.00    -1600.00
04680             -25.00    -2000.00
04681              25.00    -2000.00
04682              12.20    -2000.00
04683             -25.00    -2000.00
04684              25.00    -2000.00
04685              25.00    -2400.00
04686             -25.00    -2200.00
04687             -25.00    -2400.00
04688              25.00    -2400.00
04689              -0.80    -2400.00
04690             -25.00    -2600.00
04691              25.00    -2600.00
04692              25.00    -2600.00
04693             -25.00    -2600.00
04694             -25.00    -2600.00
04695              25.00    -2800.00
04696               2.60    -2800.00
04697             -25.00    -2800.00
04698              25.00    -2800.00
04699              25.00    -3200.00
04700             -25.00    -3000.00
04701               1.00    -3200.00
04702              25.00    -3200.00
04703             -25.00    -3200.00
04704             -25.00    -3400.00
04705              25.00    -3400.00
04706              -7.00    -3200.00
04707             -25.00    -3400.00
04708              12.20    -3400.00
04709              13.20    -3400.00
04710             -23.40    -3600.00
04711             -10.80    -3600.00
04712              17.20    -3600.00
04713              -7.80    -3600.00
04714             -23.80    -3800.00
04715              11.80    -3600.00
04716               4.20    -4000.00
04717             -25.00    -4000.00
04718               1.40    -4000.00
04719              10.20    -4000.00
04720             -18.20    -4000.00
04721              -9.20    -4200.00
04722               9.20    -4000.00
04723              -7.60    -4000.00
04724             -16.00    -4000.00
04725               4.20    -4000.00
04726               0.60    -4200.00
04727             -17.00    -4200.00
04728              -3.60    -4200.00
04729               4.60    -4400.00
04730             -12.40    -4200.00
04731             -11.00    -4200.00
04732               3.80    -4200.00
04733              -5.20    -4400.00
04734             -14.20    -4400.00
04735              -2.00    -4400.00
04736              -0.40    -4600.00
04737             -12.20    -4400.00
04738              -7.60    -4400.00
04739               0.20    -4600.00
04740              -7.80    -4600.00
04741             -11.00    -4800.00
04742              -2.20    -4600.00
04743              -4.40    -4600.00
04744             -11.60    -4600.00
04745              -6.20    -4800.00
04746              -2.60    -4600.00
04747              -9.00    -4600.00
04748             -10.20    -4800.00
04749              -3.80    -4600.00
04750              -5.80    -4800.00
04751             -10.40    -5000.00
04752              -7.00    -4800.00
04753              -5.20    -5000.00
04754              -9.00    -4800.00
04755              -9.20    -5000.00
04756              -6.20    -5000.00
04757              -7.40    -5000.00
04758             -10.00    -4800.00
04759              -7.80    -5000.00
04760              -6.60    -5000.00
04761              -8.80    -5000.00
04762              -9.20    -5000.00
04763              -7.80    -5000.00
04764              -7.80    -5000.00
04765              -9.20    -5000.00
04766              -8.80    -5000.00
04767              -8.20    -5000.00
04768              -8.60    -5000.00
04769              -9.40    -4800.00
04770              -8.60    -5000.00
04771              -8.40    -5000.00
04772              -9.20    -5000.00
04773              -9.20    -5000.00
04774              -8.20    -4800.00
04775              -8.60    -5000.00
04776              -9.20    -4600.00
04777              -8.60    -5000.00
04778              -7.60    -4800.00
04779              -8.60    -4800.00
04780              -9.20    -4600.00
04781              -8.40    -5000.00
04782              -7.40    -4800.00
04783              -8.40    -4800.00
04784              -9.40    -5000.00
04785              -7.60    -4600.00
04786              -7.40    -5000.00
04787              -9.00    -4800.00
04788              -8.40    -4800.00
04789              -5.40    -4600.00
04790              -8.40    -4800.00
04791              -9.20    -4600.00
04792              -5.40    -4800.00
04793              -5.80    -4600.00
04794              -9.40    -4800.00
04795              -6.00    -4600.00
04796              -4.60    -4800.00
04797              -9.00    -4600.00
04798              -8.20    -4600.00
04799              -3.60    -4600.00
04800              -6.40    -4400.00
04801              -8.60    -4400.00
04802              -5.40    -4400.00
04803              -3.60    -4400.00
04804              -7.80    -4400.00
04805              -6.80    -4400.00
04806              -3.60    -4400.00
04807              -6.00    -4400.00
04808              -7.60    -4400.00
04809              -4.60    -4400.00
04810              -4.00    -4400.00
04811              -6.20    -4200.00
04812              -6.00    -4200.00
04813              -4.20    -4200.00
04814              -5.00    -4200.00
04815              -6.00    -4000.00
04816              -4.60    -4200.00
04817              -3.80    -4000.00
04818              -5.20    -4000.00
04819              -4.80    -4000.00
04820              -4.20    -4000.00
04821              -5.20    -4000.00
04822              -5.20    -4000.00
04823              -3.60    -4000.00
04824              -4.40    -3800.00
04825              -5.20    -4000.00
04826              -3.80    -3800.00
04827              -3.60    -3600.00
04828              -4.80    -3600.00
04829              -4.40    -3600.00
04830              -3.00    -3600.00
04831              -4.80    -3600.00
04832              -4.40    -3400.00
04833              -2.40    -3400.00
04834              -3.80    -3400.00
04835              -5.20    -3200.00
04836              -2.80    -3400.00
04837              -2.60    -3400.00
04838              -4.40    -3200.00
04839              -3.20    -3200.00
04840              -2.80    -3000.00
04841              -3.80    -3000.00
04842              -3.40    -3000.00
04843              -2.40    -2800.00
04844              -3.00    -2800.00
04845              -3.60    -2800.00
04846              -2.80    -2800.00
04847              -2.20    -2800.00
04848              -3.20    -2600.00
04849              -2.80    -2600.00
04850              -2.00    -2600.00
04851              -2.60    -2400.00
04852              -3.00    -2400.00
04853              -2.20    -2400.00
04854              -2.00    -2400.00
04855              -2.80    -2400.00
04856              -2.00    -2400.00
04857              -1.80    -2000.00
04858              -2.20    -2000.00
04859              -2.40    -2000.00
04860              -1.40    -2000.00
04861              -2.00    -2000.00
04862              -2.00    -1800.00
04863              -2.00    -1800.00
04864              -1.60    -1600.00
04865              -1.40    -1800.00
04866              -2.20    -1600.00
04867              -1.80    -1600.00
04868              -0.80    -1600.00
04869              -1.40    -1400.00
04870              -1.40    -1200.00
04871              -0.60    -1200.00
04872              -1.20    -1200.00
04873              -1.80    -1200.00
04874              -0.80    -1000.00
04875              -1.20    -1000.00
04876              -1.20    -1000.00
04877              -1.40     -800.00
04878              -0.80     -800.00
04879              -0.60     -800.00
04880              -1.00     -800.00
04881              -1.00     -800.00
04882              -1.00     -600.00
04883              -0.60     -600.00
04884              -0.80     -400.00
04885              -0.80     -400.00
04886              -0.40     -200.00
04887              -0.40     -200.00
04888              -1.20     -200.00
04889              -0.60     -200.00
04890               0.20     -200.00
04891              -1.00        0.00
04892              -0.60        0.00
04893               1.00        0.00
04894               0.20      200.00
04895              -0.60      200.00
04896               0.00      400.00
04897               0.80      400.00
04898              -0.20      400.00
04899               1.00      600.00
04900              10.20      600.00
04901               3.60      600.00
04902             -25.00      600.00
04903              -3.80      800.00
04904              25.00      800.00
04905               6.00      800.00
04906             -25.00      800.00
04907              21.40     1200.00
04908              25.00     1000.00
04909             -25.00     1200.00
04910             -25.00     1000.00
04911              25.00     1400.00
04912              25.00     1200.00
04913             -25.00     1400.00
04914             -18.00     1800.00
04915              25.00     1600.00
04916             -15.80     1600.00
04917             -25.00     1800.00
04918              25.00     1800.00
04919              25.00     1600.00
04920             -25.00     2000.00
04921               2.60     2000.00
04922              25.00     1800.00
04923             -25.00     2200.00
04924             -25.00     2000.00
04925              25.00     2200.00
04926              25.00     2200.00
04927             -25.00     2200.00
04928               8.20     2400.00
04929              25.00     2200.00
04930             -25.00     2400.00
04931             -25.00     2400.00
04932              25.00     2400.00
04933              25.00     2600.00
04934             -25.00     2800.00
04935              12.20     2800.00
04936              25.00     2800.00
04937             -25.00     2800.00
04938             -25.00     3000.00
04939              25.00     2800.00
04940               6.00     3000.00
04941             -25.00     3000.00
04942              25.00     3000.00
04943              25.00     3200.00
04944             -25.00     3200.00
04945              -0.60     3200.00
04946              25.00     3200.00
04947             -13.20     3400.00
04948             -22.00     3200.00
04949              25.00     3400.00
04950              13.80     3400.00
04951             -25.00     3200.00
04952               9.60     3600.00
04953              25.00     3600.00
04954             -14.00     3600.00
04955              -6.80     3600.00
04956              25.00     3600.00
04957               2.00     4000.00
04958             -15.00     3800.00
04959              16.20     3800.00
04960              14.80     3800.00
04961             -13.00     4000.00
04962               3.80     4000.00
04963              19.00     4000.00
04964              -3.00     3800.00
04965              -4.20     4000.00
04966              15.60     4000.00
04967               6.60     4000.00
04968              -6.60     4200.00
04969               9.40     4200.00
04970              12.40     4200.00
04971              -3.80     4200.00
04972               2.60     4400.00
04973              14.20     4400.00
04974               3.00     4400.00
04975              -1.80     4400.00
04976              10.80     4400.00
04977               9.00     4400.00
04978              -0.60     4400.00
04979               6.60     4400.00
04980              11.00     4600.00
04981               2.60     4600.00
04982               3.40     4600.00
04983              10.60     4600.00
04984               6.60     4600.00
04985               1.60     4600.00
04986               8.40     4800.00
04987              10.00     4600.00
04988               3.00     4600.00
04989               5.40     4800.00
04990              10.20     4800.00
04991               6.60     4800.00
04992               4.20     4800.00
04993               9.00     4800.00
04994               8.40     4800.00
04995               5.00     4800.00
04996               8.20     4800.00
04997               9.20     4800.00
04998               5.80     4800.00
04999               7.00     4800.00
05000               8.60     4800.00
