Unit:(mV)
                     CH1         CH2
Frequency              ? 208.404 kHz
00001              -1.80   -12200.00
00002              -2.00   -12200.00
00003              -0.60   -12200.00
00004              -2.20   -12200.00
00005              -2.20   -12000.00
00006              -1.20   -12000.00
00007              -1.80   -12000.00
00008              -2.60   -11600.00
00009              -1.00   -11600.00
00010              -1.80   -11600.00
00011              -1.80   -11600.00
00012              -1.20   -11400.00
00013              -1.20   -11400.00
00014              -2.20   -11400.00
00015              -2.00   -11200.00
00016              -1.20   -11000.00
00017              -1.40   -11000.00
00018              -2.00   -10800.00
00019              -1.40   -10800.00
00020              -1.00   -10600.00
00021              -1.80   -10600.00
00022              -2.00   -10400.00
00023              -1.40   -10400.00
00024              -1.20   -10400.00
00025              -1.80   -10200.00
00026              -1.20   -10000.00
00027              -1.00   -10000.00
00028              -1.80    -9800.00
00029              -1.20    -9800.00
00030              -0.80    -9600.00
00031              -1.80    -9600.00
00032              -1.40    -9400.00
00033              -1.00    -9400.00
00034              -1.20    -9200.00
00035              -1.20    -9200.00
00036              -1.20    -9000.00
00037              -1.20    -8800.00
00038              -1.00    -8800.00
00039              -1.00    -8800.00
00040              -1.20    -8400.00
00041              -1.40    -8400.00
00042              -1.20    -8200.00
00043              -0.80    -8000.00
00044              -1.00    -8000.00
00045              -1.00    -7800.00
00046              -1.00    -7800.00
00047              -0.60    -7600.00
00048              -1.00    -7600.00
00049              -1.20    -7400.00
00050              -0.60    -7200.00
00051              -1.40    -7000.00
00052              -1.00    -6800.00
00053              -0.60    -6800.00
00054              -1.20    -6600.00
00055              -1.20    -6600.00
00056              -0.80    -6400.00
00057              -0.60    -6400.00
00058              -1.20    -6000.00
00059              -1.00    -5800.00
00060              -0.60    -5800.00
00061              -1.00    -5600.00
00062              -0.60    -5400.00
00063              -0.60    -5200.00
00064              -1.00    -5000.00
00065              -1.00    -5000.00
00066              -0.80    -5000.00
00067              -1.00    -4600.00
00068              -1.20    -4400.00
00069              -0.80    -4200.00
00070              -0.80    -4000.00
00071              -1.00    -4000.00
00072              -1.00    -3800.00
00073              -0.80    -3600.00
00074              -0.60    -3400.00
00075              -1.00    -3400.00
00076              -0.60    -3200.00
00077              -0.40    -2800.00
00078              -0.60    -2800.00
00079              -0.80    -2600.00
00080              -0.40    -2600.00
00081              -0.60    -2400.00
00082              -1.20    -2200.00
00083              -0.60    -2000.00
00084              -0.20    -1800.00
00085              -1.20    -1600.00
00086              -0.60    -1600.00
00087               0.20    -1600.00
00088              -1.00    -1200.00
00089              -0.60    -1000.00
00090               0.40     -800.00
00091              -0.60     -600.00
00092              -1.00     -400.00
00093               0.40     -200.00
00094              -0.20     -200.00
00095              -1.00        0.00
00096               0.20        0.00
00097               1.40      400.00
00098               1.80      600.00
00099              -1.00      600.00
00100              -0.20      800.00
00101               1.00     1200.00
00102               0.20     1000.00
00103              -0.20     1400.00
00104               3.00     1600.00
00105              16.40     1800.00
00106               9.00     2000.00
00107             -25.00     2000.00
00108             -14.00     2200.00
00109              10.60     2200.00
00110               2.60     2600.00
00111              25.00     2800.00
00112             -25.00     2800.00
00113             -25.00     3000.00
00114              25.00     3200.00
00115             -25.00     3200.00
00116             -25.00     3600.00
00117              25.00     3600.00
00118             -18.00     3800.00
00119             -25.00     4000.00
00120              25.00     4000.00
00121             -10.20     4200.00
00122              -1.00     4400.00
00123              -6.60     4400.00
00124               3.00     4800.00
00125              20.80     4800.00
00126             -25.00     5200.00
00127               2.60     5200.00
00128              25.00     5400.00
00129             -16.20     5600.00
00130             -25.00     5600.00
00131              25.00     6000.00
00132              14.80     6000.00
00133             -25.00     6200.00
00134              10.00     6400.00
00135              25.00     6400.00
00136             -22.00     6800.00
00137              -4.20     6800.00
00138              20.40     7000.00
00139              -8.40     7000.00
00140             -14.00     7200.00
00141              18.20     7400.00
00142               2.40     7600.00
00143             -15.00     7600.00
00144              11.00     7800.00
00145               5.40     8000.00
00146             -10.00     8200.00
00147               1.80     8200.00
00148               5.80     8400.00
00149              -2.20     8600.00
00150              -0.20     8600.00
00151               2.60     8800.00
00152               1.20     8800.00
00153              -0.40     8800.00
00154              -0.60     9000.00
00155               2.80     9200.00
00156               0.20     9400.00
00157              -0.60     9400.00
00158               3.60     9600.00
00159               0.60     9600.00
00160              -2.60     9600.00
00161               2.20    10000.00
00162               2.60    10000.00
00163              -2.60    10000.00
00164               1.40    10200.00
00165               3.80    10400.00
00166              -1.20    10400.00
00167              -0.20    10600.00
00168               3.60    10600.00
00169              -0.60    10600.00
00170              -0.60    10800.00
00171               3.00    10800.00
00172               1.20    11000.00
00173              -0.80    11200.00
00174               2.00    11200.00
00175               2.40    11200.00
00176              -0.60    11400.00
00177               0.20    11400.00
00178               2.60    11600.00
00179               1.20    11400.00
00180               0.20    11600.00
00181               1.40    11800.00
00182               1.80    12000.00
00183               0.20    12000.00
00184               0.60    12000.00
00185               2.20    12000.00
00186               0.40    12000.00
00187               0.40    12200.00
00188               2.20    12200.00
00189               1.20    12200.00
00190              -0.40    12400.00
00191               1.00    12400.00
00192               2.00    12400.00
00193               0.40    12400.00
00194               0.80    12600.00
00195               1.20    12600.00
00196               0.40    12600.00
00197               1.20    12600.00
00198               1.60    12800.00
00199               0.60    12800.00
00200               1.00    12600.00
00201               1.40    12800.00
00202               1.20    12800.00
00203               1.00    12800.00
00204               0.60    12800.00
00205               1.00    12800.00
00206               1.20    12800.00
00207               1.20    12800.00
00208               1.00    13000.00
00209               1.00    12800.00
00210               1.40    12800.00
00211               0.80    13000.00
00212               1.20    13000.00
00213               1.20    12800.00
00214               1.00    13200.00
00215               1.00    12800.00
00216               1.80    12800.00
00217               1.00    12800.00
00218               0.40    13200.00
00219               1.20    12800.00
00220               1.80    12800.00
00221               0.80    12800.00
00222               0.60    12800.00
00223               1.40    13000.00
00224               1.00    12800.00
00225               1.00    12800.00
00226               0.80    12800.00
00227               1.20    12800.00
00228               1.00    12800.00
00229               1.40    12600.00
00230               1.40    12800.00
00231               1.00    12800.00
00232               1.00    12600.00
00233               1.20    12600.00
00234               1.20    12800.00
00235               1.20    12600.00
00236               0.60    12400.00
00237               1.00    12600.00
00238               1.60    12400.00
00239               0.80    12200.00
00240               0.60    12400.00
00241               1.40    12200.00
00242               1.00    12000.00
00243               1.00    12000.00
00244               1.40    12000.00
00245               1.20    11800.00
00246               0.60    12000.00
00247               1.20    11800.00
00248               1.40    11600.00
00249               1.20    11800.00
00250               0.40    11600.00
00251               1.00    11600.00
00252               1.40    11200.00
00253               0.60    11200.00
00254               0.40    11200.00
00255               1.00    11200.00
00256               1.00    11000.00
00257               1.00    11000.00
00258               0.40    10800.00
00259               1.00    10800.00
00260               0.60    10600.00
00261               0.40    10400.00
00262               1.20    10400.00
00263               0.60    10400.00
00264               0.20    10400.00
00265               1.00    10200.00
00266               1.20    10000.00
00267               0.20    10000.00
00268               0.40     9800.00
00269               0.60     9600.00
00270               0.20     9600.00
00271               0.20     9400.00
00272               0.40     9400.00
00273               1.00     9400.00
00274               0.40     9200.00
00275               0.20     9200.00
00276               1.40     9000.00
00277               0.20     8800.00
00278              -0.40     8800.00
00279               1.40     8600.00
00280               1.00     8400.00
00281              -0.60     8400.00
00282               1.20     8000.00
00283               1.00     8200.00
00284              -0.60     8000.00
00285               0.60     7800.00
00286               1.40     7600.00
00287              -0.60     7400.00
00288               0.40     7400.00
00289               1.40     7200.00
00290              -0.40     7000.00
00291               0.00     7000.00
00292               1.20     7000.00
00293              -0.20     6600.00
00294               0.20     6600.00
00295               0.80     6400.00
00296               0.40     6200.00
00297              -0.20     6200.00
00298               0.40     6000.00
00299               0.40     5600.00
00300               0.00     5600.00
00301               0.20     5600.00
00302               0.40     5200.00
00303               0.20     5200.00
00304               0.20     5200.00
00305               0.20     4800.00
00306               0.40     4600.00
00307               0.20     4400.00
00308               0.20     4400.00
00309               0.20     4200.00
00310               0.20     4000.00
00311               0.00     4000.00
00312               0.20     3800.00
00313               0.20     3600.00
00314              -0.20     3400.00
00315               0.20     3200.00
00316               0.40     3000.00
00317              -0.40     3000.00
00318              -0.60     2800.00
00319               0.20     2600.00
00320              -0.20     2400.00
00321              -0.60     2200.00
00322              -0.20     2000.00
00323               0.20     2000.00
00324              -0.60     1800.00
00325              -0.40     1600.00
00326              -0.20     1400.00
00327              -0.40     1200.00
00328              -0.60     1200.00
00329              -0.40      800.00
00330              -0.40      600.00
00331              -0.60      600.00
00332              -0.60      400.00
00333              -0.20      200.00
00334              -0.20      200.00
00335              -0.60     -200.00
00336              -0.80     -200.00
00337               1.00     -400.00
00338               1.40     -600.00
00339              -1.60     -800.00
00340              -0.60     -800.00
00341               0.60    -1000.00
00342              -0.60    -1200.00
00343              -0.20    -1200.00
00344              11.40    -1600.00
00345              25.00    -2000.00
00346             -25.00    -2000.00
00347             -25.00    -2400.00
00348               7.60    -2400.00
00349              25.00    -2200.00
00350              25.00    -2800.00
00351             -25.00    -2800.00
00352             -14.60    -2600.00
00353              25.00    -3400.00
00354             -25.00    -3200.00
00355             -25.00    -3200.00
00356              25.00    -3800.00
00357              -6.20    -3600.00
00358             -25.00    -4000.00
00359              25.00    -4200.00
00360             -25.00    -4000.00
00361               9.20    -4400.00
00362             -25.00    -4600.00
00363               2.60    -4600.00
00364              25.00    -5000.00
00365             -25.00    -4600.00
00366              13.80    -5200.00
00367              25.00    -5200.00
00368             -25.00    -5200.00
00369             -18.00    -5800.00
00370              25.00    -5600.00
00371              18.20    -6000.00
00372             -25.00    -6000.00
00373              17.00    -6200.00
00374              25.00    -6600.00
00375             -25.00    -6400.00
00376               9.00    -6800.00
00377              18.60    -7000.00
00378             -11.80    -7200.00
00379             -14.80    -7200.00
00380              12.00    -7400.00
00381              10.80    -7400.00
00382             -25.00    -7400.00
00383              13.80    -7800.00
00384               4.40    -8000.00
00385             -14.60    -8000.00
00386               2.80    -8200.00
00387               3.80    -8200.00
00388              -4.40    -8400.00
00389              -4.40    -8400.00
00390               3.80    -8800.00
00391              -0.40    -8800.00
00392              -4.60    -8800.00
00393              -3.60    -9000.00
00394               5.40    -9200.00
00395              -6.20    -9200.00
00396              -2.80    -9400.00
00397               6.20    -9600.00
00398              -5.40    -9600.00
00399              -4.40    -9800.00
00400               2.00    -9800.00
00401               1.80   -10000.00
00402              -7.80   -10000.00
00403               0.40   -10000.00
00404               4.00   -10400.00
00405              -5.80   -10400.00
00406              -2.80   -10400.00
00407               3.00   -10800.00
00408              -3.80   -10600.00
00409              -4.60   -10800.00
00410               2.60   -10800.00
00411              -1.20   -11000.00
00412              -3.80   -11000.00
00413              -1.60   -11000.00
00414               1.80   -11200.00
00415              -3.60   -11400.00
00416              -3.40   -11400.00
00417               1.60   -11400.00
00418              -1.80   -11600.00
00419              -2.60   -11600.00
00420              -1.00   -11800.00
00421              -0.60   -11800.00
00422              -2.80   -12000.00
00423              -2.00   -12000.00
00424               0.60   -12000.00
00425              -2.20   -12000.00
00426              -3.00   -12200.00
00427               0.20   -12200.00
00428              -1.20   -12400.00
00429              -2.60   -12400.00
00430              -1.80   -12400.00
00431              -0.60   -12400.00
00432              -1.40   -12600.00
00433              -1.80   -12400.00
00434              -1.00   -12600.00
00435              -1.80   -12600.00
00436              -1.40   -12600.00
00437              -1.40   -12800.00
00438              -2.00   -12800.00
00439              -1.40   -12800.00
00440              -1.80   -12800.00
00441              -1.40   -12800.00
00442              -1.20   -12800.00
00443              -1.80   -13000.00
00444              -1.40   -12800.00
00445              -1.80   -13000.00
00446              -1.40   -13000.00
00447              -1.40   -12800.00
00448              -1.60   -13000.00
00449              -2.20   -13000.00
00450              -1.20   -13000.00
00451              -1.60   -13000.00
00452              -2.20   -13000.00
00453              -1.80   -13000.00
00454              -1.60   -13000.00
00455              -2.00   -13000.00
00456              -1.40   -13000.00
00457              -2.00   -13200.00
00458              -1.40   -13000.00
00459              -1.60   -13000.00
00460              -2.00   -13000.00
00461              -1.40   -13000.00
00462              -2.00   -13000.00
00463              -2.20   -13000.00
00464              -1.00   -12800.00
00465              -1.40   -12800.00
00466              -2.60   -12800.00
00467              -2.20   -13000.00
00468              -1.20   -12800.00
00469              -1.40   -12800.00
00470              -2.20   -12800.00
00471              -1.20   -12800.00
00472              -1.60   -12800.00
00473              -2.00   -12600.00
00474              -1.60   -12400.00
00475              -1.80   -12400.00
00476              -1.80   -12400.00
00477              -0.80   -12400.00
00478              -2.00   -12400.00
00479              -1.00   -12200.00
00480              -1.80   -12400.00
00481              -1.80   -12200.00
00482              -1.80   -12200.00
00483              -1.20   -12200.00
00484              -1.20   -12000.00
00485              -2.60   -12000.00
00486              -1.60   -12000.00
00487              -1.20   -11800.00
00488              -2.00   -12000.00
00489              -2.20   -11600.00
00490              -1.00   -11600.00
00491              -1.20   -11600.00
00492              -1.40   -11400.00
00493              -1.40   -11400.00
00494              -1.20   -11000.00
00495              -1.80   -11200.00
00496              -2.00   -11000.00
00497              -1.00   -10800.00
00498              -1.20   -11000.00
00499              -1.80   -10800.00
00500              -1.20   -10600.00
00501              -1.00   -10600.00
00502              -1.60   -10600.00
00503              -2.00   -10400.00
00504              -1.00   -10400.00
00505              -1.20   -10200.00
00506              -1.40   -10000.00
00507              -1.20   -10000.00
00508              -1.20    -9800.00
00509              -1.20    -9800.00
00510              -1.00    -9800.00
00511              -1.20    -9600.00
00512              -1.80    -9600.00
00513              -1.20    -9200.00
00514              -1.00    -9200.00
00515              -1.40    -9200.00
00516              -1.20    -9000.00
00517              -0.60    -8800.00
00518              -1.80    -8800.00
00519              -1.60    -8600.00
00520              -0.40    -8400.00
00521              -1.80    -8400.00
00522              -2.20    -8200.00
00523              -0.60    -8200.00
00524              -0.60    -8000.00
00525              -2.00    -7800.00
00526              -1.60    -7600.00
00527              -0.40    -7400.00
00528              -1.20    -7400.00
00529              -1.80    -7400.00
00530              -1.00    -7200.00
00531              -1.40    -7200.00
00532              -1.20    -6800.00
00533              -0.40    -6800.00
00534              -1.80    -6600.00
00535              -1.40    -6400.00
00536              -0.60    -6200.00
00537              -0.20    -6000.00
00538              -1.80    -6000.00
00539              -1.60    -6000.00
00540              -0.40    -5800.00
00541              -0.80    -5400.00
00542              -1.80    -5400.00
00543              -1.20    -5200.00
00544              -0.40    -5000.00
00545              -1.20    -4600.00
00546              -0.80    -4800.00
00547              -0.60    -4600.00
00548              -1.00    -4400.00
00549              -1.20    -4200.00
00550              -1.20    -4200.00
00551              -0.40    -4000.00
00552              -0.40    -3800.00
00553              -0.60    -3600.00
00554              -1.00    -3600.00
00555              -0.20    -3200.00
00556              -0.40    -3200.00
00557              -0.60    -3000.00
00558              -0.60    -2800.00
00559              -0.60    -2600.00
00560              -0.40    -2400.00
00561              -0.80    -2400.00
00562              -0.20    -2200.00
00563              -0.20    -2000.00
00564              -1.00    -1800.00
00565              -0.60    -1800.00
00566              -0.60    -1600.00
00567              -0.80    -1200.00
00568              -0.60    -1200.00
00569              -0.20    -1000.00
00570               0.40     -800.00
00571               0.40     -800.00
00572               0.80     -400.00
00573               0.20     -200.00
00574              -0.60     -200.00
00575              -0.40        0.00
00576              -0.60      200.00
00577               0.40      400.00
00578               1.00      400.00
00579              -2.20      600.00
00580              -0.20      800.00
00581               2.40     1000.00
00582               0.40     1200.00
00583               1.20     1400.00
00584               4.40     1600.00
00585              17.80     1800.00
00586               0.40     2000.00
00587             -25.00     2000.00
00588              -7.60     2200.00
00589               9.00     2200.00
00590               8.40     2600.00
00591              25.00     2800.00
00592             -25.00     2800.00
00593               1.80     3200.00
00594              25.00     3000.00
00595             -25.00     3200.00
00596             -25.00     3600.00
00597              25.00     3600.00
00598             -25.00     3600.00
00599             -18.20     4200.00
00600              25.00     4000.00
00601             -15.40     4400.00
00602               2.60     4600.00
00603             -10.20     4600.00
00604               7.80     4800.00
00605              15.60     4800.00
00606             -25.00     5200.00
00607              13.00     5400.00
00608              25.00     5400.00
00609             -22.60     5800.00
00610             -18.80     5600.00
00611              25.00     6000.00
00612               5.20     6200.00
00613             -25.00     6200.00
00614              18.60     6400.00
00615              19.00     6600.00
00616             -23.80     6800.00
00617               2.20     6800.00
00618              18.60     6800.00
00619             -12.60     7200.00
00620              -8.20     7200.00
00621              20.20     7200.00
00622              -3.60     7600.00
00623             -11.80     7800.00
00624              13.20     8000.00
00625               1.20     8200.00
00626              -9.60     8200.00
00627               4.20     8400.00
00628               4.60     8400.00
00629              -2.00     8600.00
00630               1.00     8600.00
00631               2.60     8600.00
00632               1.40     8800.00
00633              -1.00     9000.00
00634              -0.20     9000.00
00635               3.40     9200.00
00636              -1.20     9400.00
00637              -0.40     9400.00
00638               4.40     9600.00
00639               0.20     9800.00
00640              -2.40     9600.00
00641               3.60    10000.00
00642               2.40    10000.00
00643              -3.80    10000.00
00644               2.00    10200.00
00645               3.80    10200.00
00646              -2.20    10400.00
00647               0.20    10400.00
00648               4.20    10800.00
00649              -0.40    10600.00
00650              -0.20    10800.00
00651               3.00    10800.00
00652               0.60    11000.00
00653              -1.20    11000.00
00654               1.20    11000.00
00655               2.00    11200.00
00656              -0.60    11400.00
00657               1.00    11600.00
00658               2.00    11600.00
00659               1.00    11600.00
00660               0.80    11800.00
00661               1.00    11800.00
00662               0.80    12000.00
00663               0.60    11800.00
00664               1.20    12000.00
00665               1.00    12000.00
00666               0.40    12200.00
00667               1.00    12000.00
00668               1.40    12400.00
00669               1.00    12200.00
00670               0.40    12400.00
00671               0.60    12400.00
00672               1.20    12400.00
00673               1.00    12600.00
00674               1.00    12600.00
00675               0.60    12600.00
00676               1.00    12600.00
00677               1.80    12600.00
00678               1.00    12800.00
00679               0.60    12800.00
00680               1.40    12800.00
00681               1.20    12800.00
00682               0.60    12800.00
00683               1.00    12800.00
00684               1.20    12800.00
00685               0.60    12800.00
00686               1.40    12800.00
00687               1.80    12800.00
00688               1.20    13000.00
00689               1.00    12800.00
00690               1.00    13000.00
00691               1.00    13000.00
00692               1.40    12800.00
00693               0.80    12800.00
00694               1.20    13000.00
00695               2.00    12800.00
00696               1.80    12800.00
00697               0.60    12800.00
00698               1.00    13000.00
00699               1.40    12800.00
00700               0.80    13000.00
00701               1.20    13000.00
00702               1.00    13000.00
00703               0.60    12800.00
00704               1.20    12800.00
00705               2.00    12800.00
00706               1.00    12800.00
00707               0.60    12600.00
00708               1.20    12800.00
00709               1.40    12800.00
00710               1.00    12600.00
00711               0.80    12600.00
00712               0.60    12800.00
00713               1.00    12400.00
00714               1.00    12400.00
00715               1.00    12600.00
00716               1.00    12600.00
00717               1.20    12400.00
00718               0.60    12400.00
00719               1.00    12400.00
00720               0.60    12200.00
00721               0.60    12200.00
00722               0.60    12000.00
00723               1.40    12000.00
00724               0.80    12000.00
00725               0.40    11800.00
00726               1.20    11800.00
00727               1.00    11800.00
00728               0.80    11800.00
00729               1.00    11600.00
00730               0.80    11400.00
00731               0.20    11400.00
00732               0.60    11400.00
00733               1.20    11200.00
00734               0.80    11200.00
00735               0.60    11200.00
00736               1.00    11000.00
00737               1.20    11000.00
00738               0.60    10800.00
00739               0.60    10800.00
00740               1.20    10600.00
00741               0.80    10400.00
00742               0.60    10400.00
00743               1.00    10200.00
00744               1.00    10400.00
00745               0.60    10200.00
00746               0.60    10000.00
00747               0.60    10000.00
00748               0.60     9800.00
00749               0.60     9600.00
00750               1.00     9600.00
00751               1.00     9400.00
00752               0.60     9400.00
00753               1.00     9200.00
00754               1.00     9200.00
00755               1.00     9200.00
00756               0.60     8800.00
00757               0.60     8600.00
00758               0.60     8600.00
00759               0.60     8400.00
00760               0.60     8400.00
00761               0.60     8400.00
00762               0.40     8200.00
00763               0.40     8000.00
00764               0.60     7800.00
00765               0.60     7800.00
00766               0.40     7800.00
00767               0.40     7400.00
00768               0.60     7200.00
00769               0.60     7200.00
00770               0.40     7000.00
00771               0.60     7000.00
00772               0.40     6800.00
00773               0.40     6400.00
00774               0.60     6400.00
00775               0.40     6400.00
00776               0.20     6200.00
00777               0.20     6000.00
00778               0.40     6000.00
00779               0.40     5600.00
00780               0.00     5600.00
00781               0.20     5400.00
00782               0.40     5200.00
00783               0.20     5200.00
00784               0.00     4800.00
00785               0.40     4800.00
00786               0.00     4800.00
00787              -0.20     4400.00
00788               0.40     4400.00
00789              -0.20     4000.00
00790              -0.20     4000.00
00791               0.20     3800.00
00792              -0.20     3800.00
00793              -0.40     3600.00
00794               0.00     3200.00
00795               0.20     3200.00
00796              -0.40     3000.00
00797               0.40     3000.00
00798              -0.20     2800.00
00799              -0.20     2400.00
00800              -0.20     2400.00
00801              -0.20     2200.00
00802              -0.20     2200.00
00803              -0.20     2000.00
00804              -0.60     1800.00
00805              -0.20     1600.00
00806               0.20     1400.00
00807              -0.40     1200.00
00808              -0.40     1200.00
00809              -0.20     1000.00
00810              -0.40      600.00
00811              -0.60      400.00
00812              -0.40      400.00
00813              -0.40      400.00
00814              -0.40      200.00
00815               0.20     -200.00
00816              -0.60     -400.00
00817               1.00     -400.00
00818               1.80     -400.00
00819              -1.40     -800.00
00820              -1.00     -800.00
00821               1.00    -1000.00
00822              -0.20    -1200.00
00823              -0.20    -1200.00
00824              16.40    -1600.00
00825              19.60    -2000.00
00826             -25.00    -2000.00
00827             -22.60    -2400.00
00828               7.20    -2200.00
00829              25.00    -2400.00
00830              25.00    -2800.00
00831             -25.00    -2600.00
00832              23.60    -2600.00
00833              25.00    -3400.00
00834             -25.00    -3200.00
00835             -25.00    -3400.00
00836              25.00    -3600.00
00837             -25.00    -3600.00
00838             -25.00    -3600.00
00839              25.00    -4200.00
00840             -25.00    -4000.00
00841              14.40    -4400.00
00842             -25.00    -4600.00
00843              21.00    -4800.00
00844              25.00    -5000.00
00845             -25.00    -4600.00
00846              25.00    -5200.00
00847              25.00    -5200.00
00848             -25.00    -5600.00
00849             -10.00    -5800.00
00850              25.00    -5800.00
00851               9.00    -6000.00
00852             -25.00    -6000.00
00853              25.00    -6400.00
00854              25.00    -6400.00
00855             -25.00    -6600.00
00856              16.40    -6800.00
00857              14.00    -6800.00
00858             -13.00    -6800.00
00859             -15.20    -7200.00
00860              17.20    -7200.00
00861               4.20    -7400.00
00862             -23.80    -7600.00
00863              18.20    -7800.00
00864              -1.20    -8000.00
00865             -13.40    -8000.00
00866               4.20    -8200.00
00867               3.60    -8400.00
00868              -5.40    -8400.00
00869              -2.80    -8600.00
00870               3.60    -8600.00
00871              -2.00    -8800.00
00872              -4.40    -9000.00
00873              -2.00    -9000.00
00874               4.00    -9200.00
00875              -7.80    -9200.00
00876              -0.20    -9600.00
00877               4.60    -9600.00
00878              -5.40    -9600.00
00879              -2.80    -9600.00
00880               2.40    -9800.00
00881               0.20   -10000.00
00882              -7.60   -10000.00
00883               2.00   -10400.00
00884               2.20   -10200.00
00885              -6.60   -10400.00
00886              -1.20   -10600.00
00887               3.00   -10600.00
00888              -4.60   -10600.00
00889              -3.00   -10800.00
00890               2.80   -10800.00
00891              -2.00   -10800.00
00892              -3.80   -11000.00
00893              -0.60   -11200.00
00894               1.80   -11200.00
00895              -5.00   -11400.00
00896              -2.20   -11400.00
00897               1.80   -11400.00
00898              -2.20   -11600.00
00899              -2.60   -11600.00
00900              -0.20   -11800.00
00901              -1.00   -12000.00
00902              -3.40   -12000.00
00903              -1.40   -12000.00
00904               0.60   -12000.00
00905              -3.40   -12200.00
00906              -2.20   -12200.00
00907               0.60   -12400.00
00908              -2.20   -12400.00
00909              -3.40   -12400.00
00910              -0.60   -12400.00
00911              -1.00   -12600.00
00912              -2.80   -12600.00
00913              -1.00   -12400.00
00914              -1.00   -12600.00
00915              -3.00   -12600.00
00916              -1.20   -12600.00
00917              -0.80   -12800.00
00918              -2.60   -12800.00
00919              -1.60   -12800.00
00920              -1.20   -12800.00
00921              -1.80   -12800.00
00922              -2.20   -13000.00
00923              -1.40   -13000.00
00924              -1.60   -13000.00
00925              -2.60   -13000.00
00926              -1.20   -13000.00
00927              -1.40   -13000.00
00928              -2.20   -13000.00
00929              -1.80   -13000.00
00930              -1.20   -13000.00
00931              -1.80   -13200.00
00932              -2.40   -13000.00
00933              -1.80   -13000.00
00934              -1.20   -13000.00
00935              -2.20   -13000.00
00936              -1.40   -13000.00
00937              -1.80   -13000.00
00938              -2.00   -13000.00
00939              -1.40   -13000.00
00940              -1.20   -13000.00
00941              -1.80   -13000.00
00942              -2.40   -13000.00
00943              -1.40   -12800.00
00944              -0.60   -12800.00
00945              -2.20   -12800.00
00946              -2.20   -12800.00
00947              -0.60   -12800.00
00948              -1.60   -12800.00
00949              -2.40   -12800.00
00950              -1.00   -12800.00
00951              -1.40   -12800.00
00952              -2.60   -12800.00
00953              -1.00   -12800.00
00954              -1.00   -12600.00
00955              -2.20   -12400.00
00956              -2.00   -12400.00
00957              -0.60   -12400.00
00958              -1.20   -12400.00
00959              -2.00   -12400.00
00960              -1.40   -12200.00
00961              -1.20   -12200.00
00962              -1.40   -12200.00
00963              -1.40   -12000.00
00964              -2.00   -12000.00
00965              -1.60   -12000.00
00966              -1.60   -12000.00
00967              -1.40   -11800.00
00968              -1.00   -11600.00
00969              -1.40   -11800.00
00970              -2.00   -11600.00
00971              -0.80   -11400.00
00972              -1.40   -11400.00
00973              -2.00   -11400.00
00974              -1.40   -11200.00
00975              -1.60   -11200.00
00976              -1.80   -11000.00
00977              -1.20   -11000.00
00978              -1.60   -10800.00
00979              -1.40   -10800.00
00980              -1.20   -10600.00
00981              -1.40   -10600.00
00982              -1.80   -10600.00
00983              -1.40   -10400.00
00984              -1.80   -10400.00
00985              -1.20   -10200.00
00986              -1.20   -10000.00
00987              -1.80   -10000.00
00988              -1.20   -10000.00
00989              -1.00    -9800.00
00990              -1.40    -9600.00
00991              -1.40    -9600.00
00992              -1.40    -9600.00
00993              -1.40    -9600.00
00994              -1.40    -9200.00
00995              -1.80    -9200.00
00996              -1.40    -9000.00
00997              -1.20    -8800.00
00998              -1.40    -8800.00
00999              -1.20    -8600.00
01000              -1.20    -8400.00
01001              -1.00    -8200.00
01002              -1.40    -8200.00
01003              -1.40    -8200.00
01004              -0.40    -8000.00
01005              -1.20    -8000.00
01006              -2.00    -7600.00
01007              -1.00    -7400.00
01008              -0.20    -7400.00
01009              -1.80    -7200.00
01010              -1.80    -7000.00
01011              -0.60    -7000.00
01012               0.20    -6600.00
01013              -2.00    -6600.00
01014              -0.60    -6400.00
01015               0.20    -6400.00
01016              -2.60    -6200.00
01017              -1.60    -6000.00
01018               1.40    -6000.00
01019              -0.60    -5800.00
01020              -3.80    -5600.00
01021              -0.20    -5600.00
01022               2.00    -5200.00
01023              -1.80    -5000.00
01024              -2.60    -5000.00
01025               0.20    -4600.00
01026              -0.20    -4600.00
01027              -2.20    -4400.00
01028              -1.00    -4400.00
01029               1.00    -4200.00
01030              -0.80    -4200.00
01031              -1.40    -4000.00
01032              -0.20    -3800.00
01033              -0.20    -3600.00
01034              -1.80    -3400.00
01035              -0.60    -3200.00
01036               0.40    -3200.00
01037              -1.00    -2800.00
01038              -1.40    -2800.00
01039              -0.60    -2600.00
01040              -0.40    -2400.00
01041              -0.40    -2200.00
01042              -0.40    -2200.00
01043              -0.60    -2000.00
01044              -0.60    -1800.00
01045              -0.80    -1600.00
01046              -1.40    -1600.00
01047               0.20    -1400.00
01048              -1.20    -1000.00
01049              -0.40    -1000.00
01050               0.40     -800.00
01051              -1.20     -800.00
01052              -1.00     -400.00
01053               0.80     -200.00
01054              -1.00     -200.00
01055              -1.00        0.00
01056               0.80      200.00
01057               1.40      400.00
01058               0.40      600.00
01059              -1.40      600.00
01060               0.20      800.00
01061               0.40     1000.00
01062               0.20     1200.00
01063               0.40     1400.00
01064               5.20     1400.00
01065              20.20     1800.00
01066              -6.00     2000.00
01067             -25.00     2200.00
01068              -0.60     2200.00
01069               6.60     2200.00
01070              14.80     2800.00
01071              25.00     2800.00
01072             -25.00     2800.00
01073              25.00     3200.00
01074              25.00     3200.00
01075             -25.00     3400.00
01076              -6.20     3600.00
01077              25.00     3600.00
01078             -25.00     3800.00
01079              -3.00     4000.00
01080              25.00     4000.00
01081             -17.20     4400.00
01082               4.20     4400.00
01083             -11.00     4600.00
01084              13.40     4800.00
01085               8.20     5000.00
01086             -25.00     5200.00
01087              21.80     5400.00
01088              23.40     5400.00
01089             -25.00     5600.00
01090             -11.80     5600.00
01091              25.00     6000.00
01092              -3.80     6200.00
01093             -25.00     6200.00
01094              25.00     6400.00
01095              12.20     6400.00
01096             -24.40     6800.00
01097               8.20     6800.00
01098              15.80     7000.00
01099             -16.20     7200.00
01100              -4.20     7200.00
01101              20.20     7400.00
01102              -7.60     7600.00
01103              -9.40     7800.00
01104              14.40     7800.00
01105              -0.60     8200.00
01106              -9.00     8200.00
01107               4.60     8200.00
01108               4.20     8400.00
01109              -2.60     8600.00
01110               0.40     8600.00
01111               2.60     8800.00
01112               1.40     8800.00
01113              -2.00     8800.00
01114               0.60     9200.00
01115               3.60     9200.00
01116              -2.60     9200.00
01117               0.40     9400.00
01118               4.80     9600.00
01119              -1.20     9600.00
01120              -2.60     9800.00
01121               5.00     9800.00
01122               1.00    10200.00
01123              -3.60    10200.00
01124               3.80    10200.00
01125               2.80    10400.00
01126              -2.40    10400.00
01127               0.80    10400.00
01128               3.40    10600.00
01129              -1.00    10800.00
01130               0.20    10800.00
01131               3.00    10800.00
01132               1.00    11000.00
01133              -1.00    11000.00
01134               2.20    11200.00
01135               2.20    11200.00
01136              -1.20    11200.00
01137               0.20    11400.00
01138               2.80    11600.00
01139               1.20    11600.00
01140              -0.20    11800.00
01141               1.60    11800.00
01142               2.00    11800.00
01143               0.40    12000.00
01144               1.20    12000.00
01145               2.00    12000.00
01146               0.20    12000.00
01147               0.60    12400.00
01148               2.20    12200.00
01149               1.20    12400.00
01150               0.20    12400.00
01151               1.40    12400.00
01152               1.80    12400.00
01153               1.00    12600.00
01154               0.60    12600.00
01155               1.60    12600.00
01156               1.20    12800.00
01157               1.20    12600.00
01158               1.00    12800.00
01159               1.20    12800.00
01160               1.20    12800.00
01161               1.20    12600.00
01162               1.20    13000.00
01163               1.20    12800.00
01164               1.20    12800.00
01165               0.80    12800.00
01166               1.00    13000.00
01167               1.80    12800.00
01168               1.00    13000.00
01169               0.20    12800.00
01170               1.80    13000.00
01171               2.00    13200.00
01172               0.20    12800.00
01173               0.40    13000.00
01174               1.40    12800.00
01175               1.80    13200.00
01176               0.60    13000.00
01177               1.00    12800.00
01178               1.80    13000.00
01179               0.60    13000.00
01180               0.20    12800.00
01181               2.00    12800.00
01182               1.20    13000.00
01183              -0.20    12800.00
01184               1.00    12800.00
01185               2.00    12800.00
01186               0.60    12800.00
01187               1.20    12800.00
01188               1.00    12800.00
01189               1.20    12600.00
01190               0.60    12600.00
01191               1.00    12600.00
01192               1.00    12800.00
01193               1.20    12600.00
01194               1.20    12400.00
01195               1.00    12400.00
01196               1.00    12400.00
01197               0.60    12400.00
01198               1.20    12400.00
01199               1.20    12400.00
01200               0.80    12200.00
01201               1.00    12200.00
01202               1.40    12000.00
01203               0.60    12000.00
01204               0.80    12000.00
01205               1.40    11800.00
01206               1.00    12000.00
01207               0.60    11800.00
01208               1.20    11800.00
01209               1.00    11600.00
01210               0.60    11600.00
01211               0.80    11400.00
01212               0.80    11400.00
01213               1.20    11200.00
01214               1.20    11200.00
01215               1.00    11200.00
01216               1.00    11000.00
01217               1.00    11000.00
01218               0.40    10800.00
01219               1.20    10800.00
01220               1.00    10600.00
01221               1.20    10600.00
01222               1.00    10400.00
01223               0.40    10400.00
01224               1.20    10200.00
01225               0.60    10200.00
01226               0.20    10000.00
01227               1.40    10000.00
01228               0.60     9800.00
01229              -0.20     9600.00
01230               1.20     9600.00
01231               1.00     9400.00
01232              -0.20     9400.00
01233               0.40     9400.00
01234               1.00     9200.00
01235               0.20     9200.00
01236               0.40     9200.00
01237               1.00     8800.00
01238               0.20     8600.00
01239               0.20     8600.00
01240               0.60     8400.00
01241               0.40     8400.00
01242               0.40     8200.00
01243               0.60     8200.00
01244               0.60     8000.00
01245               0.20     7800.00
01246               0.40     7800.00
01247               0.40     7600.00
01248               0.20     7400.00
01249               0.20     7000.00
01250               0.60     7000.00
01251               0.60     7000.00
01252              -0.60     6800.00
01253               0.40     6600.00
01254               1.00     6400.00
01255              -0.40     6400.00
01256              -0.60     6200.00
01257               1.20     6000.00
01258               0.40     6000.00
01259              -0.20     5800.00
01260               0.20     5600.00
01261               0.80     5400.00
01262               0.40     5200.00
01263              -0.60     5200.00
01264               0.20     4800.00
01265               1.00     4800.00
01266              -1.00     4600.00
01267              -0.60     4400.00
01268               2.00     4400.00
01269              -0.40     4200.00
01270              -1.60     4000.00
01271               1.20     3800.00
01272               0.60     3600.00
01273              -1.40     3600.00
01274               0.40     3400.00
01275               1.00     3200.00
01276              -0.60     3000.00
01277               0.00     2800.00
01278               0.00     2800.00
01279               0.00     2600.00
01280              -0.20     2400.00
01281               0.20     2200.00
01282               0.40     2000.00
01283               0.20     2000.00
01284              -0.40     1800.00
01285              -0.60     1600.00
01286               0.20     1200.00
01287              -0.20     1200.00
01288              -1.00     1000.00
01289               0.40     1000.00
01290               0.40      600.00
01291              -0.60      600.00
01292              -0.40      400.00
01293               0.20      200.00
01294              -0.40        0.00
01295              -0.60        0.00
01296               0.20     -200.00
01297               1.40     -400.00
01298               0.60     -600.00
01299              -2.00     -600.00
01300              -0.60    -1000.00
01301               0.60    -1000.00
01302              -0.80    -1200.00
01303               0.60    -1600.00
01304              21.80    -1600.00
01305              10.60    -2000.00
01306             -25.00    -2000.00
01307             -14.60    -2400.00
01308               6.60    -2400.00
01309              25.00    -2400.00
01310              25.00    -2800.00
01311             -25.00    -2400.00
01312              25.00    -3000.00
01313              25.00    -3400.00
01314             -25.00    -3200.00
01315             -20.20    -3400.00
01316              25.00    -3600.00
01317             -25.00    -3600.00
01318              -2.20    -4000.00
01319              25.00    -4000.00
01320             -25.00    -4200.00
01321              15.60    -4400.00
01322             -25.00    -4400.00
01323              25.00    -4800.00
01324              25.00    -4600.00
01325             -25.00    -4800.00
01326              25.00    -5400.00
01327              25.00    -5200.00
01328             -25.00    -5600.00
01329               1.20    -5600.00
01330              25.00    -5800.00
01331              -6.00    -6000.00
01332             -25.00    -6000.00
01333              25.00    -6400.00
01334              10.00    -6400.00
01335             -25.00    -6600.00
01336              25.00    -7000.00
01337               6.80    -6800.00
01338             -15.60    -7000.00
01339              -9.80    -7200.00
01340              20.60    -7400.00
01341              -5.40    -7400.00
01342             -18.20    -7400.00
01343              22.40    -8000.00
01344              -8.40    -7800.00
01345             -11.60    -8200.00
01346               6.80    -8200.00
01347               2.60    -8400.00
01348              -7.40    -8400.00
01349              -0.40    -8400.00
01350               4.40    -8800.00
01351              -3.80    -8800.00
01352              -5.00    -9000.00
01353               1.00    -9000.00
01354               2.60    -9200.00
01355              -9.00    -9200.00
01356               3.60    -9200.00
01357               2.80    -9600.00
01358              -6.60    -9600.00
01359              -2.60    -9800.00
01360               3.00    -9800.00
01361              -1.40   -10000.00
01362              -7.20   -10000.00
01363               3.40   -10200.00
01364               0.40   -10400.00
01365              -7.00   -10400.00
01366              -0.20   -10600.00
01367               2.60   -10600.00
01368              -5.40   -10600.00
01369              -2.20   -10800.00
01370               2.20   -10800.00
01371              -2.60   -10800.00
01372              -4.20   -11000.00
01373              -0.20   -11000.00
01374               1.20   -11400.00
01375              -5.20   -11400.00
01376              -2.00   -11400.00
01377               1.40   -11400.00
01378              -2.60   -11600.00
01379              -3.00   -11600.00
01380              -0.60   -11800.00
01381              -0.60   -12000.00
01382              -3.40   -11800.00
01383              -1.20   -12000.00
01384               0.20   -12000.00
01385              -3.40   -12000.00
01386              -2.60   -12200.00
01387               0.20   -12200.00
01388              -1.80   -12200.00
01389              -3.20   -12200.00
01390              -1.00   -12400.00
01391              -0.40   -12400.00
01392              -2.60   -12600.00
01393              -1.80   -12400.00
01394              -0.80   -12400.00
01395              -2.20   -12600.00
01396              -1.80   -12600.00
01397              -1.20   -12800.00
01398              -2.00   -12800.00
01399              -1.60   -12800.00
01400              -1.40   -12800.00
01401              -1.40   -12800.00
01402              -1.80   -13000.00
01403              -1.40   -12800.00
01404              -1.40   -12800.00
01405              -1.80   -13000.00
01406              -1.40   -13000.00
01407              -1.80   -13000.00
01408              -2.00   -13000.00
01409              -1.80   -13000.00
01410              -1.20   -13000.00
01411              -1.40   -13200.00
01412              -2.20   -13000.00
01413              -1.20   -13200.00
01414              -1.00   -13000.00
01415              -2.20   -13000.00
01416              -2.00   -13000.00
01417              -1.00   -13000.00
01418              -2.00   -13200.00
01419              -1.80   -13000.00
01420              -0.80   -13000.00
01421              -2.20   -13000.00
01422              -2.20   -13000.00
01423              -1.20   -13000.00
01424              -1.00   -13000.00
01425              -2.80   -13000.00
01426              -1.80   -12800.00
01427              -0.80   -12800.00
01428              -2.00   -12800.00
01429              -2.00   -12800.00
01430              -1.20   -12800.00
01431              -1.80   -12800.00
01432              -2.60   -12600.00
01433              -1.20   -12800.00
01434              -1.80   -12600.00
01435              -2.00   -12600.00
01436              -1.20   -12400.00
01437              -1.20   -12400.00
01438              -2.20   -12400.00
01439              -1.60   -12200.00
01440              -2.00   -12400.00
01441              -2.20   -12200.00
01442              -1.20   -12000.00
01443              -0.60   -12200.00
01444              -2.80   -12200.00
01445              -1.80   -12000.00
01446              -1.20   -12000.00
01447              -2.00   -11600.00
01448              -2.20   -11600.00
01449              -0.80   -11600.00
01450              -2.00   -11600.00
01451              -1.20   -11400.00
01452              -1.40   -11400.00
01453              -2.00   -11400.00
01454              -2.00   -11200.00
01455              -1.20   -11200.00
01456              -1.60   -11000.00
01457              -1.80   -11000.00
01458              -1.20   -10800.00
01459              -1.40   -10600.00
01460              -1.40   -10800.00
01461              -1.20   -10600.00
01462              -1.20   -10600.00
01463              -1.80   -10400.00
01464              -1.20   -10200.00
01465              -1.20   -10200.00
01466              -1.40   -10000.00
01467              -1.40   -10000.00
01468              -1.00   -10000.00
01469              -1.20    -9800.00
01470              -1.20    -9600.00
01471              -1.20    -9400.00
01472              -1.80    -9400.00
01473              -1.20    -9200.00
01474              -1.00    -9200.00
01475              -1.20    -9200.00
01476              -1.40    -9000.00
01477              -0.60    -8800.00
01478              -1.40    -8600.00
01479              -1.80    -8600.00
01480              -0.40    -8400.00
01481              -1.00    -8200.00
01482              -1.80    -8200.00
01483              -0.40    -8000.00
01484              -0.60    -8000.00
01485              -2.00    -8000.00
01486              -0.60    -7600.00
01487              -0.60    -7600.00
01488              -1.40    -7400.00
01489              -1.00    -7400.00
01490              -0.60    -7000.00
01491              -1.80    -7000.00
01492              -1.20    -6800.00
01493              -0.20    -6600.00
01494              -1.40    -6400.00
01495              -1.20    -6400.00
01496              -0.60    -6200.00
01497              -0.80    -6000.00
01498              -1.40    -6000.00
01499              -1.80    -5800.00
01500              -0.20    -5600.00
01501              -1.20    -5600.00
01502              -1.20    -5200.00
01503              -0.60    -5000.00
01504              -0.60    -5000.00
01505              -1.80    -4800.00
01506              -0.60    -4600.00
01507               0.20    -4400.00
01508              -1.40    -4200.00
01509              -1.80    -4200.00
01510               0.20    -4000.00
01511              -0.60    -3800.00
01512              -1.80    -3800.00
01513              -1.20    -3600.00
01514               0.20    -3400.00
01515              -0.60    -3200.00
01516              -1.80    -3200.00
01517              -0.40    -3000.00
01518               0.20    -2600.00
01519              -1.60    -2600.00
01520              -1.20    -2400.00
01521               0.60    -2200.00
01522              -0.60    -2000.00
01523              -2.00    -2000.00
01524               0.60    -1800.00
01525               0.20    -1600.00
01526              -2.00    -1400.00
01527              -0.40    -1200.00
01528               0.20    -1200.00
01529              -0.60     -800.00
01530              -0.20     -800.00
01531              -0.60     -400.00
01532              -0.40     -400.00
01533               0.20     -200.00
01534              -0.80     -200.00
01535               0.20        0.00
01536               0.60      400.00
01537               1.20      400.00
01538               0.60      600.00
01539              -0.60      600.00
01540               0.20      800.00
01541               0.40     1200.00
01542               0.40     1200.00
01543               0.60     1400.00
01544               6.60     1600.00
01545              21.00     2000.00
01546             -13.40     2000.00
01547             -25.00     2200.00
01548               4.20     2200.00
01549               4.20     2400.00
01550              24.00     2800.00
01551              15.60     2800.00
01552             -25.00     3000.00
01553              25.00     3200.00
01554              25.00     3200.00
01555             -25.00     3400.00
01556              20.20     3600.00
01557              25.00     3600.00
01558             -25.00     4000.00
01559              10.80     4000.00
01560              23.60     4000.00
01561             -15.80     4400.00
01562               3.80     4400.00
01563             -11.00     4600.00
01564              17.80     4800.00
01565              -1.00     5000.00
01566             -25.00     5200.00
01567              25.00     5400.00
01568              15.80     5600.00
01569             -25.00     5600.00
01570              -4.40     6000.00
01571              25.00     6000.00
01572             -13.40     6000.00
01573             -25.00     6200.00
01574              25.00     6400.00
01575               3.40     6600.00
01576             -23.40     6800.00
01577              13.00     6800.00
01578              11.40     7000.00
01579             -18.80     7200.00
01580               1.20     7200.00
01581              18.60     7600.00
01582             -11.80     7600.00
01583              -4.80     7600.00
01584              14.60     7800.00
01585              -4.00     8200.00
01586              -7.00     8200.00
01587               6.00     8200.00
01588               2.80     8400.00
01589              -2.20     8400.00
01590               0.60     8800.00
01591               2.20     8800.00
01592               0.60     8800.00
01593              -1.80     9000.00
01594               1.80     9200.00
01595               3.00     9200.00
01596              -2.00     9400.00
01597               1.40     9600.00
01598               4.20     9600.00
01599              -1.40     9800.00
01600              -1.40     9800.00
01601               4.60    10000.00
01602               0.40    10000.00
01603              -2.60    10200.00
01604               4.00    10400.00
01605               2.60    10400.00
01606              -2.20    10400.00
01607               1.40    10600.00
01608               2.60    10800.00
01609              -1.00    10800.00
01610               1.00    10800.00
01611               2.80    11000.00
01612               0.20    11000.00
01613              -0.40    11200.00
01614               2.60    11200.00
01615               1.40    11200.00
01616              -0.60    11400.00
01617               1.00    11600.00
01618               2.60    11600.00
01619               1.20    11600.00
01620               0.20    11800.00
01621               1.80    11800.00
01622               1.40    12000.00
01623               0.20    12000.00
01624               1.00    11800.00
01625               1.20    12200.00
01626               0.40    12200.00
01627               1.00    12200.00
01628               1.80    12200.00
01629               1.00    12400.00
01630               0.60    12400.00
01631               1.20    12400.00
01632               1.00    12600.00
01633               1.00    12400.00
01634               1.00    12600.00
01635               0.60    12600.00
01636               1.00    12600.00
01637               1.80    12600.00
01638               0.60    12600.00
01639               0.40    12600.00
01640               1.60    12800.00
01641               1.00    12800.00
01642               0.60    12800.00
01643               1.80    12800.00
01644               1.00    12800.00
01645               0.40    12800.00
01646               1.80    12800.00
01647               1.40    13000.00
01648               1.00    13000.00
01649               1.00    12800.00
01650               1.00    12800.00
01651               1.80    13000.00
01652               1.40    13000.00
01653               0.20    12800.00
01654               1.40    12800.00
01655               1.80    12800.00
01656               0.40    13000.00
01657               1.00    12800.00
01658               1.20    13000.00
01659               1.00    12800.00
01660               1.00    13000.00
01661               2.00    13000.00
01662               1.20    13000.00
01663               1.00    12800.00
01664               1.20    12800.00
01665               1.20    12800.00
01666               1.20    12800.00
01667               1.20    12800.00
01668               0.40    12600.00
01669               2.00    12800.00
01670               1.20    12800.00
01671               0.60    12600.00
01672               1.20    12600.00
01673               1.80    12600.00
01674               0.80    12400.00
01675               1.40    12400.00
01676               1.00    12400.00
01677               0.80    12400.00
01678               1.00    12400.00
01679               1.20    12200.00
01680               1.20    12400.00
01681               1.00    12000.00
01682               1.20    12200.00
01683               1.00    12000.00
01684               1.00    12000.00
01685               1.20    11800.00
01686               0.60    11800.00
01687               1.00    12000.00
01688               1.60    11600.00
01689               1.00    11600.00
01690               0.40    11600.00
01691               1.00    11400.00
01692               0.60    11200.00
01693               0.60    11200.00
01694               0.40    11200.00
01695               1.20    11200.00
01696               1.20    11000.00
01697               0.60    11000.00
01698               0.40    10800.00
01699               0.60    10800.00
01700               0.60    10800.00
01701               0.40    10600.00
01702               1.00    10400.00
01703               1.00    10400.00
01704               0.40    10200.00
01705               0.40    10200.00
01706               1.00    10000.00
01707               0.40     9800.00
01708               0.20    10000.00
01709               0.60     9600.00
01710               1.20     9600.00
01711               0.40     9600.00
01712               0.20     9200.00
01713               0.60     9200.00
01714               0.60     9200.00
01715               0.20     9000.00
01716               0.60     8800.00
01717               1.00     8800.00
01718               0.20     8600.00
01719               0.40     8400.00
01720               0.60     8400.00
01721               0.40     8200.00
01722               0.20     8200.00
01723               0.60     8000.00
01724               0.60     7800.00
01725               0.20     7800.00
01726               0.60     7600.00
01727               0.80     7400.00
01728               0.20     7400.00
01729               0.40     7200.00
01730               0.60     7000.00
01731               0.40     6800.00
01732               0.20     6800.00
01733               0.60     6800.00
01734               0.60     6400.00
01735              -0.60     6200.00
01736               0.40     6200.00
01737               0.80     6000.00
01738               0.20     6000.00
01739               0.20     5800.00
01740               1.00     5600.00
01741               0.20     5400.00
01742              -0.20     5400.00
01743               0.40     5200.00
01744               0.00     5000.00
01745              -0.20     4800.00
01746               0.40     4600.00
01747               0.20     4400.00
01748              -0.20     4400.00
01749               0.00     4200.00
01750               0.20     4000.00
01751              -0.20     3800.00
01752              -0.20     3600.00
01753               0.20     3600.00
01754               0.20     3200.00
01755              -0.40     3200.00
01756               0.00     3000.00
01757               0.20     3000.00
01758              -0.40     2800.00
01759              -0.40     2400.00
01760               0.20     2400.00
01761               0.20     2200.00
01762              -0.40     2000.00
01763              -0.40     2000.00
01764               0.00     1600.00
01765              -0.40     1600.00
01766              -0.60     1400.00
01767              -0.40     1200.00
01768               0.00     1200.00
01769              -0.60      800.00
01770              -0.40      600.00
01771               0.00      600.00
01772              -0.40      400.00
01773              -0.60      200.00
01774              -0.20        0.00
01775              -0.40     -200.00
01776              -0.60     -200.00
01777               1.60     -400.00
01778               0.60     -600.00
01779              -2.00     -800.00
01780              -0.40    -1000.00
01781               1.00    -1200.00
01782              -0.60    -1200.00
01783               1.60    -1400.00
01784              25.00    -1600.00
01785               0.20    -2000.00
01786             -25.00    -2200.00
01787              -6.40    -2400.00
01788               6.60    -2400.00
01789              25.00    -2400.00
01790               6.60    -2800.00
01791             -25.00    -2400.00
01792              25.00    -2800.00
01793              25.00    -3400.00
01794             -25.00    -3200.00
01795              23.40    -3600.00
01796              25.00    -3600.00
01797             -25.00    -3400.00
01798              25.00    -4000.00
01799              25.00    -4000.00
01800             -25.00    -4200.00
01801              12.60    -4400.00
01802             -25.00    -4400.00
01803              25.00    -4800.00
01804               2.80    -4600.00
01805             -25.00    -5000.00
01806              25.00    -5400.00
01807               8.20    -5000.00
01808             -25.00    -5800.00
01809               6.80    -5600.00
01810              25.00    -5800.00
01811             -16.60    -6000.00
01812             -25.00    -6000.00
01813              25.00    -6400.00
01814              -7.00    -6400.00
01815             -25.00    -6600.00
01816              25.00    -6800.00
01817               1.00    -6800.00
01818             -14.00    -7200.00
01819              -7.20    -7200.00
01820              21.00    -7400.00
01821             -11.60    -7600.00
01822             -11.40    -7800.00
01823              20.20    -7800.00
01824             -11.60    -8000.00
01825              -7.40    -8200.00
01826               5.80    -8200.00
01827               1.00    -8400.00
01828              -6.80    -8400.00
01829               0.20    -8400.00
01830               2.60    -8800.00
01831              -2.60    -8800.00
01832              -5.20    -9000.00
01833               1.80    -9000.00
01834               1.40    -9200.00
01835              -8.80    -9200.00
01836               4.20    -9400.00
01837               0.60    -9600.00
01838              -5.80    -9800.00
01839              -1.80    -9800.00
01840               2.80   -10000.00
01841              -3.00   -10000.00
01842              -6.60   -10000.00
01843               4.60   -10200.00
01844              -0.60   -10400.00
01845              -6.40   -10400.00
01846               1.00   -10600.00
01847               1.20   -10600.00
01848              -6.00   -10600.00
01849              -0.60   -10800.00
01850               2.00   -10800.00
01851              -2.80   -11000.00
01852              -3.60   -11200.00
01853               0.40   -11200.00
01854               0.40   -11200.00
01855              -5.00   -11400.00
01856              -1.00   -11600.00
01857               0.60   -11600.00
01858              -2.60   -11600.00
01859              -2.20   -12000.00
01860              -0.20   -12000.00
01861              -1.00   -11800.00
01862              -3.60   -12000.00
01863              -0.20   -12000.00
01864               0.40   -12200.00
01865              -3.80   -12200.00
01866              -1.40   -12200.00
01867               0.60   -12200.00
01868              -2.80   -12200.00
01869              -2.80   -12400.00
01870               0.20   -12400.00
01871              -1.20   -12400.00
01872              -2.80   -12600.00
01873              -1.00   -12600.00
01874              -1.20   -12600.00
01875              -2.20   -12800.00
01876              -1.00   -12600.00
01877              -1.40   -12800.00
01878              -2.00   -12800.00
01879              -1.20   -12800.00
01880              -1.40   -12800.00
01881              -1.40   -12800.00
01882              -1.80   -13000.00
01883              -1.80   -12800.00
01884              -2.00   -12800.00
01885              -1.40   -13000.00
01886              -1.60   -13000.00
01887              -2.00   -13000.00
01888              -1.40   -13000.00
01889              -2.00   -13000.00
01890              -1.80   -13000.00
01891              -1.20   -13000.00
01892              -2.20   -13000.00
01893              -2.20   -13000.00
01894              -1.40   -13000.00
01895              -1.20   -13000.00
01896              -2.20   -13000.00
01897              -2.20   -13000.00
01898              -1.40   -13000.00
01899              -1.20   -13200.00
01900              -2.60   -13000.00
01901              -1.40   -12800.00
01902              -1.40   -13000.00
01903              -2.00   -13000.00
01904              -1.80   -13000.00
01905              -1.80   -13000.00
01906              -2.20   -13000.00
01907              -2.00   -12800.00
01908              -1.40   -12800.00
01909              -1.60   -12800.00
01910              -1.80   -12800.00
01911              -1.80   -12800.00
01912              -1.80   -12600.00
01913              -1.40   -12600.00
01914              -1.80   -12800.00
01915              -2.00   -12400.00
01916              -1.60   -12400.00
01917              -1.80   -12400.00
01918              -1.60   -12400.00
01919              -1.60   -12200.00
01920              -1.80   -12200.00
01921              -1.80   -12200.00
01922              -0.60   -12200.00
01923              -2.00   -12000.00
01924              -2.20   -11800.00
01925              -1.00   -12000.00
01926              -1.20   -11600.00
01927              -2.20   -11800.00
01928              -1.40   -11600.00
01929              -1.20   -11600.00
01930              -1.80   -11600.00
01931              -1.40   -11400.00
01932              -1.20   -11400.00
01933              -1.60   -11400.00
01934              -1.80   -11000.00
01935              -1.20   -11000.00
01936              -1.00   -11000.00
01937              -1.80   -10800.00
01938              -1.20   -10800.00
01939              -1.20   -10800.00
01940              -1.20   -10600.00
01941              -1.20   -10600.00
01942              -1.20   -10400.00
01943              -1.20   -10400.00
01944              -1.40   -10400.00
01945              -1.20   -10200.00
01946              -1.20   -10000.00
01947              -1.40   -10000.00
01948              -1.20    -9800.00
01949              -1.20    -9800.00
01950              -1.40    -9600.00
01951              -1.60    -9600.00
01952              -1.20    -9400.00
01953              -1.20    -9200.00
01954              -1.40    -9200.00
01955              -1.20    -9000.00
01956              -1.20    -8800.00
01957              -1.20    -8800.00
01958              -1.20    -8800.00
01959              -1.00    -8600.00
01960              -1.40    -8400.00
01961              -1.40    -8400.00
01962              -1.20    -8200.00
01963              -1.20    -8200.00
01964              -1.20    -8000.00
01965              -1.20    -7800.00
01966              -1.00    -7600.00
01967              -1.00    -7400.00
01968              -1.20    -7400.00
01969              -1.00    -7200.00
01970              -1.40    -7000.00
01971              -1.20    -7200.00
01972              -1.20    -6800.00
01973              -1.00    -6800.00
01974              -1.20    -6600.00
01975              -1.20    -6400.00
01976              -0.60    -6200.00
01977              -0.80    -6200.00
01978              -1.20    -5800.00
01979              -1.00    -5800.00
01980              -0.60    -5600.00
01981              -1.00    -5600.00
01982              -0.60    -5200.00
01983              -1.00    -5000.00
01984              -1.00    -5000.00
01985              -0.40    -4800.00
01986              -1.20    -4600.00
01987              -1.00    -4400.00
01988               0.40    -4200.00
01989              -1.20    -4200.00
01990              -1.00    -4000.00
01991               0.40    -3800.00
01992              -0.80    -3600.00
01993              -1.40    -3600.00
01994               0.20    -3400.00
01995              -0.60    -3200.00
01996              -1.20    -3000.00
01997              -0.20    -2800.00
01998              -0.40    -2800.00
01999              -1.00    -2600.00
02000              -0.20    -2400.00
02001              -0.20    -2400.00
02002              -0.60    -2000.00
02003              -0.60    -1800.00
02004              -0.20    -1800.00
02005              -0.60    -1600.00
02006              -1.00    -1400.00
02007              -0.20    -1200.00
02008              -0.40    -1200.00
02009              -0.40     -800.00
02010               0.00     -800.00
02011              -0.40     -400.00
02012              -0.60     -400.00
02013              -0.20     -200.00
02014              -0.40        0.00
02015              -0.60        0.00
02016               0.40      400.00
02017               2.00      400.00
02018              -0.20      400.00
02019              -1.40      800.00
02020               0.80      800.00
02021               1.20     1200.00
02022              -1.00     1200.00
02023               1.20     1400.00
02024               9.60     1800.00
02025              19.40     2000.00
02026             -21.40     2000.00
02027             -25.00     2200.00
02028               8.00     2400.00
02029               1.20     2200.00
02030              25.00     2800.00
02031               1.00     2600.00
02032             -25.00     2800.00
02033              25.00     3200.00
02034              25.00     3000.00
02035             -25.00     3400.00
02036              25.00     3600.00
02037              25.00     3600.00
02038             -25.00     3800.00
02039              23.80     4000.00
02040              13.80     4200.00
02041             -14.00     4400.00
02042               3.00     4400.00
02043              -8.60     4600.00
02044              20.40     4800.00
02045             -10.20     5200.00
02046             -22.20     5200.00
02047              25.00     5400.00
02048               6.80     5600.00
02049             -25.00     5800.00
02050               5.00     6000.00
02051              25.00     6000.00
02052             -22.00     6200.00
02053             -16.60     6200.00
02054              25.00     6400.00
02055              -5.20     6800.00
02056             -19.40     6800.00
02057              17.20     7000.00
02058               6.20     7000.00
02059             -19.60     7000.00
02060               7.60     7400.00
02061              16.40     7600.00
02062             -15.40     7600.00
02063              -0.60     7800.00
02064              13.80     8000.00
02065              -6.80     8200.00
02066              -5.20     8200.00
02067               8.20     8400.00
02068               0.80     8400.00
02069              -2.80     8600.00
02070               2.80     8600.00
02071               1.80     8800.00
02072              -0.20     8800.00
02073              -1.20     9000.00
02074               2.60     9200.00
02075               2.00     9200.00
02076              -2.20     9400.00
02077               2.00     9600.00
02078               3.40     9400.00
02079              -1.40     9800.00
02080              -0.60     9800.00
02081               4.40    10000.00
02082              -0.60    10000.00
02083              -2.60    10200.00
02084               4.20    10200.00
02085               2.00    10400.00
02086              -2.40    10400.00
02087               2.00    10400.00
02088               2.00    10600.00
02089              -1.20    10800.00
02090               1.00    11000.00
02091               2.60    11000.00
02092              -0.20    11200.00
02093              -0.20    11000.00
02094               2.60    11200.00
02095               1.00    11200.00
02096              -1.20    11200.00
02097               1.20    11600.00
02098               2.40    11400.00
02099               0.40    11600.00
02100               0.20    11800.00
02101               1.80    11800.00
02102               1.20    11800.00
02103              -0.20    12000.00
02104               1.40    12000.00
02105               1.40    12000.00
02106              -0.20    12000.00
02107               1.20    12200.00
02108               2.20    12400.00
02109               0.40    12400.00
02110               0.40    12400.00
02111               2.00    12400.00
02112               1.20    12600.00
02113               1.20    12400.00
02114               1.20    12600.00
02115               0.60    12600.00
02116               1.00    12600.00
02117               1.80    12800.00
02118               1.00    12800.00
02119               1.00    12800.00
02120               1.20    12600.00
02121               1.40    12800.00
02122               1.20    12800.00
02123               1.00    12800.00
02124               1.00    12800.00
02125               1.40    13000.00
02126               1.40    12800.00
02127               1.40    13000.00
02128               1.00    12800.00
02129               1.20    12800.00
02130               1.00    13000.00
02131               1.20    12800.00
02132               1.00    12800.00
02133               1.00    13000.00
02134               1.60    12800.00
02135               1.40    13000.00
02136               1.00    12800.00
02137               1.20    13000.00
02138               1.20    13000.00
02139               1.40    12800.00
02140               1.00    12800.00
02141               1.20    12800.00
02142               1.40    12800.00
02143               1.20    12800.00
02144               1.40    12800.00
02145               0.80    12800.00
02146               0.40    12800.00
02147               1.40    12800.00
02148               1.00    12800.00
02149               0.80    12600.00
02150               1.20    12800.00
02151               1.00    12600.00
02152               0.80    12600.00
02153               1.00    12400.00
02154               1.20    12600.00
02155               1.00    12400.00
02156               0.60    12400.00
02157               1.20    12400.00
02158               1.40    12400.00
02159               1.00    12200.00
02160               0.60    12000.00
02161               0.40    12000.00
02162               1.00    12000.00
02163               0.80    12000.00
02164               1.00    12000.00
02165               0.60    12000.00
02166               1.00    11800.00
02167               0.80    11800.00
02168               1.20    11600.00
02169               0.60    11600.00
02170               0.40    11600.00
02171               1.20    11600.00
02172               1.20    11400.00
02173               1.00    11200.00
02174               0.60    11200.00
02175               1.00    11200.00
02176               1.00    11000.00
02177               0.40    11000.00
02178               0.60    10800.00
02179               1.00    10800.00
02180               1.00    10800.00
02181               0.60    10600.00
02182               1.00    10400.00
02183               0.60    10400.00
02184               0.60    10200.00
02185               1.20    10200.00
02186               1.00    10000.00
02187               0.60    10000.00
02188               1.00     9600.00
02189               0.60     9600.00
02190               1.00     9400.00
02191               0.60     9400.00
02192               0.60     9400.00
02193               1.00     9400.00
02194               0.40     9200.00
02195               0.40     9000.00
02196               1.00     8800.00
02197               0.60     8800.00
02198               0.20     8600.00
02199               1.00     8400.00
02200               0.80     8400.00
02201               0.20     8400.00
02202               0.80     8200.00
02203               0.80     8000.00
02204               0.40     7800.00
02205               0.60     7800.00
02206               0.60     7600.00
02207               0.20     7600.00
02208               0.40     7200.00
02209               0.40     7200.00
02210               0.00     7000.00
02211               0.40     6800.00
02212               0.60     6600.00
02213               0.20     6600.00
02214              -0.20     6400.00
02215               0.40     6400.00
02216               0.40     6200.00
02217              -0.40     6000.00
02218               0.40     5800.00
02219               1.00     5800.00
02220              -0.60     5400.00
02221               0.20     5400.00
02222               0.60     5400.00
02223              -0.20     5200.00
02224              -0.20     4800.00
02225               0.20     4800.00
02226               0.20     4600.00
02227              -0.20     4400.00
02228              -0.20     4200.00
02229               0.20     4000.00
02230              -0.20     3800.00
02231              -0.20     3800.00
02232              -0.40     3600.00
02233               0.20     3400.00
02234              -0.40     3200.00
02235              -0.20     3200.00
02236               0.40     3000.00
02237              -0.40     2800.00
02238              -0.60     2800.00
02239               0.40     2400.00
02240              -0.20     2400.00
02241              -0.80     2000.00
02242               0.20     2000.00
02243               0.20     2000.00
02244              -0.80     1800.00
02245              -0.20     1600.00
02246               0.80     1400.00
02247              -0.60     1200.00
02248              -0.60     1000.00
02249               0.60      800.00
02250              -0.20      600.00
02251              -0.60      600.00
02252               0.20      400.00
02253              -0.20      200.00
02254              -0.60        0.00
02255              -0.40        0.00
02256               0.20     -400.00
02257               1.80     -400.00
02258               0.20     -400.00
02259              -1.40     -800.00
02260               0.40    -1000.00
02261               0.60    -1000.00
02262              -1.00    -1200.00
02263               3.40    -1400.00
02264              25.00    -1600.00
02265             -10.80    -2000.00
02266             -25.00    -2000.00
02267               0.20    -2200.00
02268               7.60    -2000.00
02269              25.00    -2400.00
02270             -17.20    -2800.00
02271             -25.00    -2400.00
02272              25.00    -3200.00
02273              25.00    -3400.00
02274             -25.00    -3200.00
02275              25.00    -3600.00
02276              25.00    -3600.00
02277             -25.00    -3800.00
02278              25.00    -4000.00
02279              16.60    -4000.00
02280             -18.40    -4200.00
02281               5.20    -4400.00
02282             -25.00    -4600.00
02283              25.00    -5000.00
02284             -22.40    -4600.00
02285             -25.00    -5200.00
02286              25.00    -5400.00
02287             -10.80    -5200.00
02288             -25.00    -5800.00
02289              13.20    -5600.00
02290              25.00    -5800.00
02291             -25.00    -6000.00
02292             -25.00    -6000.00
02293              25.00    -6600.00
02294             -23.00    -6400.00
02295             -23.60    -6600.00
02296              25.00    -6800.00
02297              -3.80    -6800.00
02298             -14.80    -7200.00
02299              -3.00    -7200.00
02300              21.00    -7400.00
02301             -18.00    -7400.00
02302              -4.40    -7600.00
02303              18.20    -8000.00
02304             -14.60    -8000.00
02305              -4.40    -8200.00
02306               5.80    -8200.00
02307              -0.40    -8400.00
02308              -6.40    -8400.00
02309               1.40    -8800.00
02310               1.80    -8800.00
02311              -2.80    -8800.00
02312              -5.00    -9000.00
02313               3.60    -9000.00
02314              -0.20    -9200.00
02315              -8.20    -9400.00
02316               6.00    -9400.00
02317              -1.00    -9600.00
02318              -5.80    -9600.00
02319              -0.40    -9800.00
02320               3.20   -10000.00
02321              -4.40   -10000.00
02322              -4.60   -10000.00
02323               5.60   -10400.00
02324              -2.20   -10400.00
02325              -5.80   -10400.00
02326               2.60   -10600.00
02327               0.20   -10600.00
02328              -6.00   -10800.00
02329               1.00   -10800.00
02330               1.40   -10800.00
02331              -3.60   -10800.00
02332              -3.00   -11200.00
02333               1.40   -11000.00
02334              -1.00   -11200.00
02335              -5.00   -11400.00
02336               0.40   -11400.00
02337               0.20   -11600.00
02338              -2.80   -11600.00
02339              -1.40   -11800.00
02340              -0.60   -11800.00
02341              -1.80   -12000.00
02342              -3.00   -12000.00
02343               0.00   -12000.00
02344              -1.00   -12000.00
02345              -3.40   -12000.00
02346              -1.00   -12200.00
02347              -0.60   -12200.00
02348              -2.60   -12400.00
02349              -2.60   -12400.00
02350              -0.80   -12400.00
02351              -1.20   -12400.00
02352              -2.20   -12400.00
02353              -1.40   -12400.00
02354              -2.00   -12600.00
02355              -1.40   -12600.00
02356              -1.20   -12800.00
02357              -2.00   -12600.00
02358              -1.80   -12800.00
02359              -1.00   -12800.00
02360              -1.80   -12800.00
02361              -2.00   -12800.00
02362              -1.20   -12800.00
02363              -2.20   -13000.00
02364              -2.20   -13000.00
02365              -1.40   -13000.00
02366              -1.20   -13000.00
02367              -2.20   -13000.00
02368              -2.00   -13000.00
02369              -1.00   -13000.00
02370              -1.20   -13000.00
02371              -2.40   -13000.00
02372              -2.00   -13200.00
02373              -1.40   -13000.00
02374              -1.80   -13000.00
02375              -1.40   -13000.00
02376              -1.60   -13000.00
02377              -2.20   -13000.00
02378              -1.20   -13000.00
02379              -1.80   -13000.00
02380              -2.20   -13000.00
02381              -1.40   -13000.00
02382              -1.60   -12800.00
02383              -1.80   -13000.00
02384              -1.00   -12800.00
02385              -2.00   -13000.00
02386              -2.20   -12800.00
02387              -1.20   -12800.00
02388              -1.40   -12800.00
02389              -2.00   -12800.00
02390              -1.20   -12600.00
02391              -1.20   -12800.00
02392              -2.20   -12600.00
02393              -1.20   -12600.00
02394              -1.40   -12400.00
02395              -2.20   -12400.00
02396              -1.20   -12400.00
02397              -1.00   -12400.00
02398              -2.00   -12200.00
02399              -1.80   -12400.00
02400              -1.40   -12200.00
02401              -1.80   -12200.00
02402              -1.00   -12200.00
02403              -1.40   -12000.00
02404              -2.40   -12000.00
02405              -1.20   -12000.00
02406              -1.60   -11800.00
02407              -2.20   -11600.00
02408              -1.80   -11600.00
02409              -1.40   -11600.00
02410              -1.40   -11600.00
02411              -1.40   -11400.00
02412              -1.20   -11400.00
02413              -1.40   -11200.00
02414              -2.20   -11000.00
02415              -1.80   -11200.00
02416              -1.00   -11000.00
02417              -2.00   -10800.00
02418              -1.40   -10800.00
02419              -1.00   -10800.00
02420              -1.40   -10600.00
02421              -1.80   -10600.00
02422              -1.40   -10400.00
02423              -1.80   -10400.00
02424              -1.40   -10200.00
02425              -0.60   -10200.00
02426              -1.80   -10000.00
02427              -1.80    -9800.00
02428              -0.80    -9800.00
02429              -0.60    -9600.00
02430              -2.20    -9600.00
02431              -1.00    -9600.00
02432              -0.20    -9600.00
02433              -2.20    -9200.00
02434              -1.80    -9200.00
02435              -0.20    -9000.00
02436              -1.20    -8800.00
02437              -2.20    -8800.00
02438              -0.60    -8800.00
02439              -0.60    -8600.00
02440              -2.00    -8400.00
02441              -1.40    -8200.00
02442              -0.60    -8200.00
02443              -1.20    -8000.00
02444              -0.80    -8000.00
02445              -1.00    -7600.00
02446              -1.80    -7600.00
02447              -1.20    -7400.00
02448               0.00    -7200.00
02449              -1.20    -7200.00
02450              -1.40    -7000.00
02451              -0.60    -6800.00
02452              -0.40    -6800.00
02453              -1.00    -6600.00
02454              -1.00    -6400.00
02455              -1.00    -6400.00
02456              -0.80    -6200.00
02457              -1.00    -6000.00
02458              -0.60    -6000.00
02459              -1.20    -5800.00
02460              -0.80    -5600.00
02461              -1.20    -5400.00
02462              -0.60    -5200.00
02463              -1.00    -5000.00
02464              -0.40    -5000.00
02465               0.20    -4800.00
02466              -1.80    -4600.00
02467              -1.00    -4400.00
02468               0.20    -4200.00
02469              -2.00    -4200.00
02470              -0.40    -4000.00
02471               0.20    -4000.00
02472              -1.40    -3600.00
02473              -1.20    -3600.00
02474               0.00    -3400.00
02475              -1.20    -3200.00
02476              -1.20    -3200.00
02477              -0.60    -2800.00
02478              -0.60    -2600.00
02479              -0.60    -2600.00
02480              -0.20    -2400.00
02481              -1.00    -2200.00
02482              -0.80    -2000.00
02483              -0.60    -2000.00
02484              -1.00    -1800.00
02485              -0.60    -1600.00
02486              -0.40    -1200.00
02487              -0.60    -1200.00
02488               0.20    -1000.00
02489              -0.60     -800.00
02490              -1.20     -800.00
02491              -0.40     -400.00
02492              -0.40     -400.00
02493              -1.00     -200.00
02494              -0.20        0.00
02495               0.20        0.00
02496               0.60      400.00
02497               1.80      400.00
02498              -0.20      600.00
02499              -1.20      600.00
02500               0.40      800.00
02501               1.20     1200.00
02502              -0.20     1200.00
02503               1.40     1600.00
02504              12.20     1600.00
02505              17.20     1800.00
02506             -25.00     2200.00
02507             -25.00     2200.00
02508              10.00     2200.00
02509               0.00     2400.00
02510              25.00     2800.00
02511             -15.40     2600.00
02512             -25.00     3200.00
02513              25.00     3200.00
02514              21.80     3000.00
02515             -25.00     3600.00
02516              25.00     3600.00
02517              25.00     3600.00
02518             -25.00     4000.00
02519              25.00     4000.00
02520               4.40     4200.00
02521              -8.60     4400.00
02522              -0.40     4400.00
02523              -5.60     4800.00
02524              23.20     4800.00
02525             -19.00     5000.00
02526             -14.60     5200.00
02527              25.00     5400.00
02528              -1.40     5600.00
02529             -25.00     5800.00
02530              13.00     6000.00
02531              25.00     6200.00
02532             -25.00     6000.00
02533              -8.20     6400.00
02534              25.00     6400.00
02535             -12.20     6800.00
02536             -15.00     6800.00
02537              19.00     6800.00
02538               1.40     7000.00
02539             -18.20     7200.00
02540              11.60     7200.00
02541              11.60     7600.00
02542             -15.60     7600.00
02543               3.60     7800.00
02544              10.60     8000.00
02545              -7.60     8200.00
02546              -2.80     8200.00
02547               6.80     8400.00
02548               0.20     8400.00
02549              -2.20     8600.00
02550               2.00     8800.00
02551               2.40     8800.00
02552              -0.60     8800.00
02553              -2.00     9000.00
02554               3.60     9200.00
02555               1.00     9200.00
02556              -2.80     9400.00
02557               3.80     9600.00
02558               2.60     9400.00
02559              -3.60     9800.00
02560               1.40    10000.00
02561               4.60    10000.00
02562              -2.20    10000.00
02563              -0.60    10200.00
02564               5.20    10200.00
02565              -0.20    10400.00
02566              -1.80    10400.00
02567               3.20    10400.00
02568               0.60    10800.00
02569              -1.60    10800.00
02570               2.20    10800.00
02571               2.00    11000.00
02572              -0.60    11000.00
02573               0.60    11200.00
02574               2.80    11200.00
02575               0.60    11200.00
02576              -0.40    11400.00
02577               1.80    11600.00
02578               2.00    11600.00
02579               0.60    11800.00
02580               0.60    11800.00
02581               1.80    12000.00
02582               1.00    12000.00
02583               0.40    12000.00
02584               2.00    12000.00
02585               1.20    12000.00
02586               0.20    12000.00
02587               1.80    12200.00
02588               2.00    12400.00
02589               0.40    12400.00
02590               0.60    12400.00
02591               2.00    12400.00
02592               1.00    12400.00
02593               1.00    12600.00
02594               1.20    12400.00
02595               0.60    12600.00
02596               1.20    12600.00
02597               1.40    12600.00
02598               1.00    12600.00
02599               1.00    12800.00
02600               1.20    12800.00
02601               1.00    12800.00
02602               1.00    12800.00
02603               1.00    12800.00
02604               1.00    12800.00
02605               1.20    13000.00
02606               1.40    12800.00
02607               0.60    12800.00
02608               1.20    13000.00
02609               1.20    12800.00
02610               0.40    13000.00
02611               1.20    12800.00
02612               1.20    13000.00
02613               1.00    13000.00
02614               1.00    13200.00
02615               1.80    13200.00
02616               0.60    13000.00
02617               1.00    12800.00
02618               1.40    13000.00
02619               1.00    13000.00
02620               0.40    13000.00
02621               1.80    12800.00
02622               1.20    13000.00
02623               0.20    12800.00
02624               1.80    12800.00
02625               1.40    12800.00
02626               0.00    12800.00
02627               0.60    12800.00
02628               1.20    12800.00
02629               1.40    12800.00
02630               1.00    12800.00
02631               1.00    12600.00
02632               1.20    12600.00
02633               1.40    12600.00
02634               1.20    12400.00
02635               0.80    12600.00
02636               1.20    12400.00
02637               1.20    12400.00
02638               1.00    12400.00
02639               1.00    12400.00
02640               1.20    12400.00
02641               1.20    12400.00
02642               1.00    12000.00
02643               1.00    12000.00
02644               1.20    12000.00
02645               0.80    11800.00
02646               0.60    11800.00
02647               1.20    11800.00
02648               1.20    11800.00
02649               1.00    11600.00
02650               1.00    11600.00
02651               1.00    11400.00
02652               1.20    11400.00
02653               1.00    11200.00
02654               0.40    11200.00
02655               1.00    11000.00
02656               1.00    11000.00
02657               0.60    11000.00
02658               1.00    10800.00
02659               1.00    10800.00
02660               1.00    10800.00
02661               0.80    10600.00
02662               1.20    10400.00
02663               0.40    10400.00
02664               0.60    10200.00
02665               1.20    10000.00
02666               1.00    10000.00
02667               0.20    10000.00
02668               0.60     9600.00
02669               1.00     9800.00
02670               0.40     9400.00
02671               0.40     9400.00
02672               0.60     9200.00
02673               0.60     9200.00
02674               0.40     9200.00
02675               0.40     8800.00
02676               0.60     8800.00
02677               0.40     8600.00
02678               0.20     8600.00
02679               0.60     8400.00
02680               1.00     8400.00
02681              -0.20     8400.00
02682               0.40     8200.00
02683               1.00     7800.00
02684               0.40     8000.00
02685              -0.20     7800.00
02686               0.60     7600.00
02687               0.40     7600.00
02688               0.20     7200.00
02689               0.40     7200.00
02690               0.40     7000.00
02691               0.20     6800.00
02692               0.20     6800.00
02693               0.60     6600.00
02694               0.20     6400.00
02695               0.20     6400.00
02696               0.60     6200.00
02697               0.60     6000.00
02698               0.20     6000.00
02699               0.20     5800.00
02700               0.40     5600.00
02701               0.20     5400.00
02702               0.20     5200.00
02703               0.40     5000.00
02704               0.20     4800.00
02705               0.20     4600.00
02706               0.20     4600.00
02707               0.20     4400.00
02708               0.20     4400.00
02709               0.20     4000.00
02710               0.20     3800.00
02711               0.40     3800.00
02712               0.00     3600.00
02713               0.20     3600.00
02714               0.00     3400.00
02715               0.20     3200.00
02716              -0.20     3000.00
02717              -0.20     2800.00
02718              -0.20     2800.00
02719               0.20     2400.00
02720              -0.20     2400.00
02721               0.20     2200.00
02722               0.00     2000.00
02723              -0.20     1800.00
02724              -0.40     1800.00
02725               0.20     1600.00
02726              -0.20     1400.00
02727              -0.40     1200.00
02728              -0.40     1000.00
02729              -0.20      800.00
02730              -0.40      600.00
02731              -0.40      400.00
02732              -0.40      400.00
02733              -0.40      200.00
02734              -0.20        0.00
02735              -1.20     -200.00
02736               0.20     -400.00
02737               2.00     -600.00
02738              -0.60     -400.00
02739              -2.00     -800.00
02740               0.40     -800.00
02741               0.40    -1200.00
02742              -1.40    -1200.00
02743               5.80    -1400.00
02744              25.00    -1800.00
02745             -21.60    -2000.00
02746             -25.00    -2200.00
02747               5.20    -2400.00
02748              11.60    -2000.00
02749              25.00    -2600.00
02750             -25.00    -2800.00
02751             -25.00    -2600.00
02752              25.00    -3200.00
02753              25.00    -3200.00
02754             -25.00    -3200.00
02755              25.00    -3800.00
02756              25.00    -3600.00
02757             -25.00    -3600.00
02758              25.00    -4000.00
02759              -2.60    -4000.00
02760              -7.60    -4400.00
02761              -5.40    -4400.00
02762             -25.00    -4400.00
02763              25.00    -5000.00
02764             -25.00    -4600.00
02765             -25.00    -5200.00
02766              25.00    -5400.00
02767             -25.00    -5400.00
02768             -25.00    -5800.00
02769              19.60    -5600.00
02770              25.00    -6000.00
02771             -25.00    -6000.00
02772             -13.40    -6000.00
02773              25.00    -6400.00
02774             -25.00    -6400.00
02775             -11.80    -6800.00
02776              25.00    -6800.00
02777              -7.60    -6800.00
02778             -15.00    -7200.00
02779               2.60    -7200.00
02780              18.80    -7400.00
02781             -22.80    -7400.00
02782               3.00    -7800.00
02783              14.20    -8000.00
02784             -15.40    -8000.00
02785              -1.40    -8000.00
02786               5.40    -8200.00
02787              -2.00    -8400.00
02788              -6.00    -8400.00
02789               3.00    -8800.00
02790               1.00    -8800.00
02791              -3.40    -9000.00
02792              -4.40    -9000.00
02793               4.60    -9200.00
02794              -2.60    -9200.00
02795              -7.00    -9200.00
02796               6.20    -9400.00
02797              -2.80    -9600.00
02798              -5.40    -9600.00
02799               0.20    -9800.00
02800               3.20   -10000.00
02801              -5.80   -10000.00
02802              -3.60   -10000.00
02803               5.00   -10200.00
02804              -3.00   -10400.00
02805              -5.00   -10400.00
02806               1.80   -10600.00
02807              -1.00   -10800.00
02808              -5.20   -10800.00
02809               0.60   -10800.00
02810               0.40   -10800.00
02811              -3.20   -11000.00
02812              -2.80   -11000.00
02813               1.00   -11400.00
02814              -2.00   -11400.00
02815              -3.80   -11400.00
02816               0.60   -11600.00
02817              -1.40   -11600.00
02818              -2.20   -11600.00
02819              -1.20   -11800.00
02820              -1.20   -11800.00
02821              -1.80   -12000.00
02822              -2.00   -11800.00
02823              -0.60   -12200.00
02824              -1.40   -12000.00
02825              -2.20   -12200.00
02826              -0.60   -12200.00
02827              -1.00   -12400.00
02828              -2.20   -12400.00
02829              -2.20   -12400.00
02830              -1.20   -12400.00
02831              -1.40   -12400.00
02832              -1.80   -12400.00
02833              -1.20   -12400.00
02834              -1.80   -12600.00
02835              -1.20   -12800.00
02836              -0.60   -12800.00
02837              -2.20   -12800.00
02838              -1.20   -12800.00
02839              -1.20   -12800.00
02840              -1.80   -12800.00
02841              -1.60   -12800.00
02842              -1.80   -12800.00
02843              -1.40   -13000.00
02844              -2.00   -12800.00
02845              -1.40   -13000.00
02846              -1.20   -13000.00
02847              -1.40   -13000.00
02848              -2.00   -13000.00
02849              -1.80   -13000.00
02850              -1.00   -13000.00
02851              -2.00   -13000.00
02852              -2.00   -13000.00
02853              -1.20   -13000.00
02854              -1.40   -13000.00
02855              -1.80   -13000.00
02856              -2.00   -13000.00
02857              -1.60   -13000.00
02858              -1.40   -13000.00
02859              -2.00   -13000.00
02860              -1.20   -13000.00
02861              -2.00   -13000.00
02862              -2.00   -12800.00
02863              -1.20   -12800.00
02864              -1.40   -12800.00
02865              -2.20   -13000.00
02866              -1.80   -12800.00
02867              -1.40   -12800.00
02868              -1.40   -12800.00
02869              -1.80   -12800.00
02870              -1.60   -12800.00
02871              -1.80   -12600.00
02872              -1.80   -12600.00
02873              -2.00   -12600.00
02874              -2.00   -12400.00
02875              -1.80   -12400.00
02876              -1.20   -12400.00
02877              -2.20   -12400.00
02878              -1.80   -12400.00
02879              -1.20   -12200.00
02880              -2.00   -12200.00
02881              -2.20   -12200.00
02882              -0.40   -12000.00
02883              -2.20   -12000.00
02884              -2.20   -12000.00
02885              -1.20   -12000.00
02886              -1.40   -12000.00
02887              -1.80   -11800.00
02888              -1.40   -11600.00
02889              -2.20   -11600.00
02890              -1.20   -11600.00
02891              -1.20   -11400.00
02892              -1.80   -11400.00
02893              -1.20   -11400.00
02894              -1.60   -11200.00
02895              -2.20   -11000.00
02896              -1.20   -11000.00
02897              -1.20   -11000.00
02898              -2.20   -10800.00
02899              -1.40   -10800.00
02900              -0.40   -10600.00
02901              -1.60   -10600.00
02902              -2.20   -10400.00
02903              -1.00   -10400.00
02904              -1.20   -10200.00
02905              -1.80   -10000.00
02906              -1.20   -10000.00
02907              -1.00    -9800.00
02908              -1.20    -9800.00
02909              -1.40    -9600.00
02910              -1.00    -9600.00
02911              -1.40    -9600.00
02912              -1.40    -9200.00
02913              -0.60    -9400.00
02914              -1.00    -9000.00
02915              -1.20    -9000.00
02916              -1.00    -9000.00
02917              -2.20    -8800.00
02918              -0.40    -8800.00
02919              -1.00    -8400.00
02920              -1.40    -8400.00
02921              -1.20    -8200.00
02922              -0.60    -8200.00
02923              -1.00    -8200.00
02924              -2.20    -8000.00
02925              -1.20    -7800.00
02926               0.00    -7600.00
02927              -1.80    -7600.00
02928              -1.60    -7400.00
02929              -0.40    -7200.00
02930              -1.40    -7000.00
02931              -3.00    -6800.00
02932               1.00    -6800.00
02933               0.20    -6600.00
02934              -3.80    -6400.00
02935              -1.80    -6200.00
02936               1.80    -6200.00
02937              -0.60    -6000.00
02938              -3.40    -5800.00
02939              -0.60    -5800.00
02940               0.60    -5600.00
02941              -2.20    -5400.00
02942              -2.20    -5200.00
02943               1.00    -5000.00
02944              -0.20    -5000.00
02945              -3.00    -4600.00
02946              -0.40    -4600.00
02947               0.60    -4400.00
02948              -2.20    -4400.00
02949              -1.80    -4200.00
02950               0.60    -4000.00
02951              -1.00    -3800.00
02952              -2.20    -3800.00
02953              -0.20    -3400.00
02954              -0.20    -3400.00
02955              -1.20    -3200.00
02956              -0.20    -3000.00
02957              -0.40    -2800.00
02958              -1.20    -2600.00
02959              -0.60    -2600.00
02960               0.20    -2400.00
02961              -1.60    -2200.00
02962              -0.60    -2000.00
02963               0.60    -1800.00
02964              -0.80    -1800.00
02965              -1.00    -1600.00
02966               0.20    -1400.00
02967              -0.40    -1200.00
02968              -0.80    -1000.00
02969              -0.60     -800.00
02970               0.40     -800.00
02971               0.20     -400.00
02972              -0.60     -400.00
02973              -0.20     -200.00
02974               0.40        0.00
02975              -0.40      200.00
02976               1.20      400.00
02977               2.80      400.00
02978               0.60      600.00
02979              -7.00      600.00
02980               7.40     1000.00
02981              -3.20     1200.00
02982              -7.00     1400.00
02983              11.00     1600.00
02984              10.20     1800.00
02985              22.00     2000.00
02986             -25.00     2200.00
02987             -19.20     2000.00
02988              10.00     2200.00
02989              -2.00     2200.00
02990              25.00     2800.00
02991             -25.00     2800.00
02992             -25.00     3000.00
02993              25.00     3200.00
02994              -6.80     3200.00
02995             -25.00     3600.00
02996              25.00     3400.00
02997              -2.80     3800.00
02998             -25.00     4000.00
02999              25.00     4000.00
03000              -4.60     4200.00
03001               1.80     4400.00
03002              -5.40     4600.00
03003               0.40     4600.00
03004              25.00     4800.00
03005             -25.00     5200.00
03006              -9.40     5400.00
03007              25.00     5400.00
03008             -10.80     5600.00
03009             -25.00     5600.00
03010              19.80     6000.00
03011              24.40     6200.00
03012             -25.00     6200.00
03013               0.60     6400.00
03014              25.00     6400.00
03015             -17.80     6800.00
03016             -10.80     6800.00
03017              20.40     7000.00
03018              -3.60     7000.00
03019             -16.80     7200.00
03020              16.60     7400.00
03021               7.40     7600.00
03022             -15.60     7800.00
03023               7.00     7800.00
03024              10.80     8000.00
03025             -10.80     8200.00
03026              -1.80     8200.00
03027               7.80     8400.00
03028              -2.20     8400.00
03029              -1.40     8600.00
03030               3.40     8800.00
03031               3.40     8800.00
03032              -0.60     8800.00
03033              -1.40     9200.00
03034               3.20     9200.00
03035               0.60     9400.00
03036              -2.20     9400.00
03037               3.40     9600.00
03038               2.00     9800.00
03039              -2.60     9600.00
03040               2.00     9800.00
03041               4.00    10000.00
03042              -2.20    10000.00
03043              -0.20    10200.00
03044               4.80    10400.00
03045              -0.60    10400.00
03046              -1.60    10400.00
03047               2.80    10800.00
03048               1.20    10800.00
03049              -0.40    10800.00
03050               2.60    11000.00
03051               2.60    11000.00
03052              -0.40    11200.00
03053               1.00    11200.00
03054               2.00    11200.00
03055              -0.20    11200.00
03056              -0.60    11200.00
03057               1.80    11600.00
03058               1.80    11600.00
03059               0.60    11800.00
03060               0.60    11800.00
03061               2.00    11800.00
03062               0.60    12000.00
03063               0.20    12000.00
03064               1.40    12000.00
03065               0.60    12200.00
03066               0.40    12000.00
03067               1.80    12200.00
03068               1.80    12400.00
03069               0.20    12400.00
03070               0.40    12400.00
03071               1.80    12400.00
03072               1.00    12400.00
03073               0.60    12600.00
03074               1.00    12600.00
03075               0.40    12600.00
03076               1.40    12600.00
03077               1.20    12800.00
03078               0.60    12600.00
03079               1.20    12600.00
03080               1.80    12800.00
03081               1.00    12800.00
03082               0.60    12800.00
03083               1.20    12800.00
03084               1.40    12800.00
03085               0.60    13000.00
03086               1.20    12800.00
03087               2.00    13000.00
03088               0.60    13000.00
03089               0.40    12800.00
03090               1.80    13000.00
03091               1.20    12800.00
03092              -0.20    13000.00
03093               1.20    13000.00
03094               2.00    13000.00
03095               1.20    13200.00
03096               1.20    13200.00
03097               1.80    13000.00
03098               1.00    13000.00
03099               0.60    13000.00
03100               1.80    13000.00
03101               0.60    12800.00
03102               0.40    12800.00
03103               1.80    12800.00
03104               1.80    12800.00
03105               0.80    12800.00
03106               1.20    12800.00
03107               1.20    12800.00
03108               0.40    12800.00
03109               1.80    12600.00
03110               1.60    12600.00
03111               0.20    12600.00
03112               1.60    12600.00
03113               1.80    12400.00
03114               0.40    12600.00
03115               1.00    12400.00
03116               2.00    12400.00
03117               0.60    12400.00
03118               1.00    12400.00
03119               1.00    12200.00
03120               0.40    12000.00
03121               1.20    12200.00
03122               1.00    12000.00
03123               0.60    12000.00
03124               1.80    12000.00
03125              -0.20    11800.00
03126               0.40    11800.00
03127               2.60    11600.00
03128               0.40    11600.00
03129              -0.20    11600.00
03130               2.00    11600.00
03131               0.40    11400.00
03132              -0.40    11400.00
03133               2.20    11200.00
03134               1.00    11200.00
03135              -0.60    11200.00
03136               1.80    11000.00
03137               1.00    10800.00
03138              -0.60    10800.00
03139               1.40    10800.00
03140               1.80    10600.00
03141               0.20    10600.00
03142               1.00    10200.00
03143               1.40    10400.00
03144              -0.40    10400.00
03145               1.00    10000.00
03146               1.80    10000.00
03147              -0.40    10000.00
03148               0.40     9800.00
03149               1.60     9800.00
03150              -0.20     9600.00
03151               0.40     9400.00
03152               1.60     9200.00
03153               0.40     9200.00
03154               0.60     9200.00
03155               1.20     9000.00
03156               0.40     8800.00
03157               0.40     8800.00
03158               1.00     8600.00
03159               0.60     8600.00
03160               0.40     8400.00
03161               1.00     8200.00
03162               0.80     8000.00
03163               0.40     8000.00
03164               0.20     7800.00
03165               0.40     7800.00
03166               0.40     7600.00
03167               0.40     7600.00
03168               0.60     7200.00
03169               0.20     7200.00
03170               1.00     7000.00
03171               0.40     6800.00
03172               0.20     6600.00
03173               1.00     6400.00
03174               0.40     6400.00
03175              -1.00     6400.00
03176               1.20     6200.00
03177               1.20     6000.00
03178              -0.20     6000.00
03179               0.20     5600.00
03180               1.00     5400.00
03181               0.40     5400.00
03182              -1.00     5200.00
03183               0.40     5000.00
03184               1.00     4800.00
03185              -0.60     4600.00
03186              -0.60     4400.00
03187               1.20     4400.00
03188               0.40     4400.00
03189              -1.40     4000.00
03190               0.40     3800.00
03191               1.40     3800.00
03192              -1.00     3600.00
03193              -0.80     3400.00
03194               1.20     3400.00
03195              -0.20     3000.00
03196              -1.20     3000.00
03197               0.40     2800.00
03198               0.20     2800.00
03199              -1.20     2400.00
03200              -0.40     2400.00
03201               0.80     2200.00
03202              -0.20     2000.00
03203              -0.60     1800.00
03204              -0.20     1600.00
03205              -0.20     1600.00
03206              -0.40     1200.00
03207              -0.60     1200.00
03208               0.20     1000.00
03209               0.40      800.00
03210              -0.60      600.00
03211              -2.20      400.00
03212               0.60      400.00
03213               0.40      200.00
03214              -2.00        0.00
03215               1.00     -200.00
03216               1.40     -400.00
03217               0.20     -400.00
03218              -1.00     -800.00
03219              -0.40     -800.00
03220               0.40    -1000.00
03221              -1.40    -1200.00
03222               1.80    -1200.00
03223               8.40    -1600.00
03224              25.00    -1800.00
03225             -25.00    -2000.00
03226             -25.00    -2200.00
03227               6.20    -2400.00
03228              18.80    -2000.00
03229              25.00    -2600.00
03230             -25.00    -2800.00
03231             -25.00    -2400.00
03232              25.00    -3400.00
03233              -9.20    -3200.00
03234             -25.00    -3200.00
03235              25.00    -3600.00
03236              25.00    -3600.00
03237             -25.00    -3600.00
03238              25.00    -4000.00
03239             -18.80    -4000.00
03240               3.80    -4400.00
03241             -17.40    -4400.00
03242             -13.40    -4600.00
03243              25.00    -5000.00
03244             -25.00    -4600.00
03245              -8.60    -5200.00
03246              25.00    -5200.00
03247             -25.00    -5400.00
03248             -25.00    -5800.00
03249              24.40    -5800.00
03250              25.00    -6000.00
03251             -25.00    -6000.00
03252               2.00    -6400.00
03253              25.00    -6600.00
03254             -25.00    -6400.00
03255              -1.20    -6800.00
03256              23.00    -6800.00
03257              -9.20    -7200.00
03258             -16.40    -7200.00
03259               6.80    -7200.00
03260              15.40    -7400.00
03261             -25.00    -7600.00
03262               9.00    -7800.00
03263               9.40    -8000.00
03264             -16.20    -8000.00
03265               0.60    -8200.00
03266               5.00    -8200.00
03267              -3.40    -8400.00
03268              -5.00    -8600.00
03269               3.40    -8800.00
03270               0.20    -8800.00
03271              -3.80    -8800.00
03272              -5.20    -9000.00
03273               5.40    -9200.00
03274              -4.40    -9200.00
03275              -4.60    -9200.00
03276               5.40    -9600.00
03277              -3.20    -9600.00
03278              -4.20    -9800.00
03279              -0.60    -9800.00
03280               3.00    -9800.00
03281              -6.20   -10000.00
03282              -2.20   -10000.00
03283               4.20   -10400.00
03284              -3.40   -10400.00
03285              -3.60   -10600.00
03286               0.60   -10600.00
03287              -2.00   -10600.00
03288              -3.60   -10800.00
03289               1.00   -10800.00
03290              -0.60   -10800.00
03291              -2.40   -11000.00
03292              -2.00   -11000.00
03293               0.40   -11200.00
03294              -2.60   -11200.00
03295              -2.80   -11400.00
03296               0.60   -11600.00
03297              -2.20   -11600.00
03298              -1.80   -11600.00
03299              -0.60   -11600.00
03300              -1.80   -11800.00
03301              -2.00   -11800.00
03302              -1.40   -12000.00
03303              -0.40   -12200.00
03304              -2.40   -12200.00
03305              -2.20   -12200.00
03306              -0.20   -12200.00
03307              -1.20   -12400.00
03308              -2.60   -12200.00
03309              -1.40   -12400.00
03310              -0.60   -12400.00
03311              -2.00   -12400.00
03312              -2.00   -12600.00
03313              -0.60   -12600.00
03314              -3.00   -12600.00
03315              -1.40   -12600.00
03316              -0.40   -12600.00
03317              -2.80   -12800.00
03318              -2.20   -12800.00
03319              -0.60   -12800.00
03320              -1.80   -12800.00
03321              -2.60   -12800.00
03322              -1.40   -13000.00
03323              -1.20   -12800.00
03324              -2.60   -13000.00
03325              -1.40   -13000.00
03326              -1.20   -13000.00
03327              -2.00   -13200.00
03328              -2.00   -13000.00
03329              -1.40   -13000.00
03330              -1.20   -13000.00
03331              -2.60   -13200.00
03332              -2.20   -13000.00
03333              -0.60   -13000.00
03334              -2.00   -13000.00
03335              -2.00   -13000.00
03336              -1.40   -13000.00
03337              -2.00   -13000.00
03338              -2.00   -13000.00
03339              -1.80   -13000.00
03340              -1.40   -13000.00
03341              -1.40   -13000.00
03342              -2.60   -12800.00
03343              -0.60   -12800.00
03344              -1.20   -13000.00
03345              -2.20   -12800.00
03346              -2.00   -13000.00
03347              -1.20   -12800.00
03348              -1.40   -12800.00
03349              -2.80   -12800.00
03350              -1.00   -12800.00
03351              -0.60   -12600.00
03352              -3.00   -12600.00
03353              -1.20   -12600.00
03354              -0.60   -12400.00
03355              -2.60   -12400.00
03356              -2.00   -12400.00
03357              -0.60   -12400.00
03358              -1.80   -12200.00
03359              -2.20   -12400.00
03360              -1.00   -12200.00
03361              -1.40   -12200.00
03362              -1.20   -12000.00
03363              -2.20   -12000.00
03364              -1.20   -12000.00
03365              -0.60   -12000.00
03366              -2.20   -12000.00
03367              -2.20   -12000.00
03368              -0.20   -11600.00
03369              -2.00   -11600.00
03370              -2.00   -11600.00
03371              -0.40   -11400.00
03372              -1.20   -11400.00
03373              -2.40   -11200.00
03374              -0.80   -11000.00
03375              -1.20   -11000.00
03376              -1.40   -10800.00
03377              -1.40   -10800.00
03378              -1.40   -10800.00
03379              -1.40   -10600.00
03380              -1.00   -10600.00
03381              -2.00   -10400.00
03382              -2.20   -10400.00
03383              -0.40   -10000.00
03384              -1.80   -10400.00
03385              -1.60   -10000.00
03386              -0.60   -10000.00
03387              -1.40   -10000.00
03388              -1.40    -9800.00
03389              -1.20    -9600.00
03390              -1.20    -9600.00
03391              -1.80    -9600.00
03392              -1.40    -9400.00
03393              -1.20    -9200.00
03394              -1.00    -9200.00
03395              -1.60    -9000.00
03396              -1.40    -8800.00
03397              -1.00    -8800.00
03398              -1.00    -8600.00
03399              -1.40    -8400.00
03400              -1.20    -8400.00
03401              -1.40    -8200.00
03402              -1.80    -8200.00
03403              -1.00    -8000.00
03404              -1.20    -8000.00
03405              -1.40    -7600.00
03406              -1.20    -7600.00
03407              -0.80    -7400.00
03408              -1.20    -7200.00
03409              -1.40    -7200.00
03410              -0.80    -7000.00
03411              -1.00    -6800.00
03412              -1.00    -6800.00
03413              -1.00    -6600.00
03414              -1.00    -6400.00
03415              -1.20    -6400.00
03416              -0.80    -6000.00
03417              -0.60    -6000.00
03418              -1.20    -5800.00
03419              -1.20    -5800.00
03420              -0.60    -5600.00
03421              -0.60    -5200.00
03422              -1.00    -5200.00
03423              -0.80    -5000.00
03424              -0.60    -5000.00
03425              -1.00    -4600.00
03426              -0.60    -4600.00
03427              -0.80    -4400.00
03428              -1.20    -4200.00
03429              -0.60    -4200.00
03430              -0.60    -4000.00
03431              -0.60    -3800.00
03432              -0.60    -3600.00
03433              -0.60    -3600.00
03434              -0.40    -3400.00
03435              -0.60    -3200.00
03436              -0.60    -3000.00
03437              -0.60    -2800.00
03438              -1.00    -2800.00
03439              -0.60    -2400.00
03440              -0.60    -2400.00
03441              -0.60    -2200.00
03442              -0.60    -2000.00
03443              -0.20    -1800.00
03444              -0.20    -1800.00
03445              -0.60    -1600.00
03446              -0.60    -1200.00
03447              -1.00    -1200.00
03448              -0.60    -1000.00
03449              -0.20     -800.00
03450              -0.60     -600.00
03451              -0.60     -400.00
03452              -0.20     -200.00
03453               0.00        0.00
03454              -0.60        0.00
03455              -0.40      200.00
03456               1.20      400.00
03457               1.80      400.00
03458              -1.40      600.00
03459              -0.60      800.00
03460               1.20      800.00
03461               0.20     1000.00
03462              -0.60     1400.00
03463               3.40     1600.00
03464              17.00     2000.00
03465               6.80     2000.00
03466             -25.00     2200.00
03467             -12.20     2200.00
03468              10.00     2200.00
03469               2.20     2600.00
03470              25.00     2800.00
03471             -25.00     2800.00
03472             -21.40     3200.00
03473              25.00     3200.00
03474             -25.00     3200.00
03475             -25.00     3600.00
03476              25.00     3600.00
03477             -21.60     3600.00
03478             -25.00     4000.00
03479              25.00     4000.00
03480             -11.40     4200.00
03481              -0.20     4400.00
03482              -7.60     4600.00
03483               4.40     4800.00
03484              20.00     4800.00
03485             -25.00     5400.00
03486               4.40     5400.00
03487              25.00     5600.00
03488             -17.00     5600.00
03489             -25.00     5600.00
03490              25.00     6000.00
03491              14.00     6000.00
03492             -25.00     6200.00
03493              11.40     6400.00
03494              25.00     6600.00
03495             -22.20     6800.00
03496              -3.00     6800.00
03497              20.20     6800.00
03498              -8.80     7200.00
03499             -13.20     7200.00
03500              18.80     7200.00
03501               1.80     7600.00
03502             -14.80     7600.00
03503              11.60     7800.00
03504               5.20     8200.00
03505              -9.80     8200.00
03506               2.00     8400.00
03507               6.00     8400.00
03508              -2.20     8400.00
03509               0.20     8600.00
03510               2.60     8600.00
03511               1.40     8800.00
03512              -0.40     8800.00
03513              -1.20     9200.00
03514               2.80     9200.00
03515               0.40     9400.00
03516              -1.20     9400.00
03517               3.40     9400.00
03518               1.80     9600.00
03519              -2.80     9800.00
03520               2.20     9800.00
03521               3.00    10000.00
03522              -2.80    10000.00
03523               0.60    10200.00
03524               4.40    10200.00
03525              -1.20    10400.00
03526              -0.20    10600.00
03527               3.40    10800.00
03528               0.00    10800.00
03529              -0.60    11000.00
03530               2.60    10800.00
03531               1.00    11000.00
03532              -0.40    11000.00
03533               1.20    11200.00
03534               2.60    11200.00
03535              -0.60    11200.00
03536              -0.60    11400.00
03537               2.00    11600.00
03538               1.80    11600.00
03539               0.40    11600.00
03540               0.40    11800.00
03541               2.00    12000.00
03542               0.20    12000.00
03543               1.00    11800.00
03544               2.00    12000.00
03545               0.40    12200.00
03546               0.40    12200.00
03547               2.00    12400.00
03548               1.40    12400.00
03549               0.00    12400.00
03550               0.60    12200.00
03551               1.80    12400.00
03552               1.00    12600.00
03553               1.80    12600.00
03554               1.20    12600.00
03555               0.40    12600.00
03556               1.40    12600.00
03557               1.20    12800.00
03558               0.60    12800.00
03559               1.40    12800.00
03560               1.40    12800.00
03561               0.80    12800.00
03562               1.80    12600.00
03563               1.20    12800.00
03564               1.00    12800.00
03565               1.40    13000.00
03566               1.00    13000.00
03567               1.40    13000.00
03568               1.80    13000.00
03569               0.60    13000.00
03570               1.00    13200.00
03571               2.00    12800.00
03572               1.00    13000.00
03573               0.20    13000.00
03574               2.00    12800.00
03575               1.80    13200.00
03576               0.40    13000.00
03577               0.80    12800.00
03578               1.80    12800.00
03579               0.60    13000.00
03580               0.60    13000.00
03581               1.20    13000.00
03582               1.00    12800.00
03583               0.80    13000.00
03584               1.20    12800.00
03585               1.00    12800.00
03586               0.60    12800.00
03587               1.00    12800.00
03588               1.20    12800.00
03589               1.00    12600.00
03590               1.00    12600.00
03591               1.00    12800.00
03592               1.00    12600.00
03593               0.60    12400.00
03594               1.20    12400.00
03595               0.80    12400.00
03596               1.00    12400.00
03597               1.20    12400.00
03598               1.00    12200.00
03599               0.40    12400.00
03600               0.60    12200.00
03601               1.00    12000.00
03602               1.00    12200.00
03603               1.20    12000.00
03604               1.00    12000.00
03605               1.00    12000.00
03606               1.20    11800.00
03607               1.00    11800.00
03608               0.60    11800.00
03609               0.60    11600.00
03610               1.20    11400.00
03611               1.00    11400.00
03612               1.20    11200.00
03613               1.00    11200.00
03614               0.60    11200.00
03615               1.00    11000.00
03616               0.60    11000.00
03617               1.00    10800.00
03618               1.20    10800.00
03619               0.60    10800.00
03620               1.00    10600.00
03621               1.20    10400.00
03622               0.60    10400.00
03623               0.40    10200.00
03624               1.00    10200.00
03625               1.00    10200.00
03626               0.60    10000.00
03627               1.20    10000.00
03628               0.60     9800.00
03629               0.40     9600.00
03630               1.00     9600.00
03631               0.40     9400.00
03632               0.40     9400.00
03633               1.00     9200.00
03634               1.00     9000.00
03635               0.60     9000.00
03636               0.80     8800.00
03637               0.60     8800.00
03638               0.40     8600.00
03639               0.60     8400.00
03640               0.60     8400.00
03641               0.40     8200.00
03642               0.40     8200.00
03643               0.40     8000.00
03644               0.60     7800.00
03645               0.20     7600.00
03646               0.20     7600.00
03647               0.40     7400.00
03648               0.20     7200.00
03649               0.20     7200.00
03650               0.40     7000.00
03651               0.40     6800.00
03652               0.40     6600.00
03653               0.40     6400.00
03654               0.20     6400.00
03655               0.20     6200.00
03656               0.20     6000.00
03657               0.40     6000.00
03658               0.20     5800.00
03659               0.20     5600.00
03660               0.20     5400.00
03661               0.20     5200.00
03662              -0.20     5200.00
03663               0.20     5000.00
03664               0.00     4800.00
03665               0.20     4800.00
03666               0.20     4600.00
03667               0.20     4400.00
03668              -0.40     4200.00
03669               0.20     4000.00
03670               0.00     3800.00
03671               0.20     3600.00
03672               0.00     3600.00
03673              -0.20     3600.00
03674               0.20     3200.00
03675              -0.20     3000.00
03676               0.20     3000.00
03677               0.20     2800.00
03678              -0.20     2600.00
03679               0.00     2400.00
03680               0.20     2400.00
03681              -0.20     2000.00
03682              -0.40     2000.00
03683               0.20     1800.00
03684              -0.20     1600.00
03685               0.20     1400.00
03686               0.20     1400.00
03687              -0.40     1200.00
03688              -0.20      800.00
03689              -0.40      600.00
03690              -0.20      600.00
03691              -0.40      400.00
03692              -0.40      200.00
03693              -0.20        0.00
03694               0.20     -200.00
03695              -0.40     -200.00
03696               0.80     -400.00
03697               2.00     -600.00
03698              -1.20     -800.00
03699              -1.40     -800.00
03700               1.80    -1000.00
03701               0.20    -1200.00
03702              -1.20    -1400.00
03703              13.20    -1600.00
03704              25.00    -1800.00
03705             -25.00    -2000.00
03706             -25.00    -2400.00
03707               9.00    -2400.00
03708              25.00    -2000.00
03709              25.00    -2800.00
03710             -25.00    -2800.00
03711              -8.40    -2600.00
03712              25.00    -3400.00
03713             -25.00    -3200.00
03714             -25.00    -3400.00
03715              25.00    -3600.00
03716             -15.60    -3400.00
03717             -25.00    -4000.00
03718              25.00    -4200.00
03719             -25.00    -4000.00
03720              10.80    -4400.00
03721             -25.00    -4400.00
03722               5.40    -4600.00
03723              25.00    -5000.00
03724             -25.00    -4600.00
03725              17.60    -5200.00
03726              25.00    -5200.00
03727             -25.00    -5400.00
03728             -16.60    -5800.00
03729              25.00    -5800.00
03730              17.20    -6000.00
03731             -25.00    -6000.00
03732              19.80    -6200.00
03733              25.00    -6400.00
03734             -25.00    -6400.00
03735              10.20    -6800.00
03736              17.80    -6800.00
03737             -11.80    -7200.00
03738             -15.00    -7200.00
03739              12.60    -7400.00
03740               9.20    -7400.00
03741             -25.00    -7400.00
03742              14.80    -7800.00
03743               3.40    -8000.00
03744             -14.20    -8000.00
03745               3.00    -8000.00
03746               4.40    -8400.00
03747              -4.60    -8400.00
03748              -3.80    -8400.00
03749               4.00    -8800.00
03750              -1.00    -8800.00
03751              -4.40    -8800.00
03752              -2.80    -9000.00
03753               5.20    -9200.00
03754              -6.60    -9200.00
03755              -1.40    -9200.00
03756               5.80    -9400.00
03757              -5.40    -9600.00
03758              -3.40    -9600.00
03759               2.00    -9800.00
03760               0.60   -10000.00
03761              -7.00   -10000.00
03762               1.20   -10200.00
03763               3.00   -10200.00
03764              -5.80   -10400.00
03765              -2.00   -10600.00
03766               2.80   -10800.00
03767              -4.20   -10600.00
03768              -3.60   -10800.00
03769               2.20   -10800.00
03770              -1.20   -10800.00
03771              -3.60   -11000.00
03772              -1.40   -11200.00
03773               1.40   -11400.00
03774              -3.60   -11400.00
03775              -3.20   -11400.00
03776               1.20   -11600.00
03777              -1.80   -11400.00
03778              -2.80   -11600.00
03779              -1.00   -11800.00
03780              -0.60   -12000.00
03781              -2.80   -12000.00
03782              -2.00   -12000.00
03783               0.00   -12000.00
03784              -2.20   -12200.00
03785              -3.00   -12200.00
03786               0.00   -12200.00
03787              -1.00   -12400.00
03788              -3.60   -12400.00
03789              -1.40   -12200.00
03790              -0.40   -12400.00
03791              -2.20   -12400.00
03792              -2.20   -12400.00
03793              -0.60   -12600.00
03794              -2.20   -12600.00
03795              -1.80   -12800.00
03796              -1.20   -12800.00
03797              -2.20   -12800.00
03798              -1.40   -12800.00
03799              -2.00   -13000.00
03800              -1.80   -12800.00
03801              -1.80   -13000.00
03802              -1.80   -12800.00
03803              -1.80   -12800.00
03804              -1.80   -13000.00
03805              -1.40   -13000.00
03806              -2.00   -13000.00
03807              -2.00   -13000.00
03808              -1.20   -13000.00
03809              -1.80   -13000.00
03810              -1.40   -13200.00
03811              -1.80   -13000.00
03812              -2.00   -13000.00
03813              -1.20   -13000.00
03814              -1.40   -13000.00
03815              -1.80   -13000.00
03816              -2.00   -13000.00
03817              -1.20   -13000.00
03818              -1.80   -13000.00
03819              -1.80   -13000.00
03820              -1.20   -13000.00
03821              -1.80   -13000.00
03822              -2.00   -12800.00
03823              -0.80   -13000.00
03824              -1.60   -12800.00
03825              -2.60   -12800.00
03826              -1.40   -12800.00
03827              -1.40   -12800.00
03828              -2.00   -12800.00
03829              -1.80   -12800.00
03830              -1.20   -12800.00
03831              -2.00   -12800.00
03832              -1.40   -12600.00
03833              -1.20   -12600.00
03834              -2.00   -12400.00
03835              -2.00   -12400.00
03836              -0.40   -12400.00
03837              -2.00   -12400.00
03838              -2.20   -12400.00
03839              -1.40   -12400.00
03840              -1.40   -12200.00
03841              -1.60   -12200.00
03842              -1.20   -12200.00
03843              -1.80   -12000.00
03844              -2.00   -12000.00
03845              -2.00   -12000.00
03846              -1.20   -12000.00
03847              -1.80   -11800.00
03848              -1.40   -11800.00
03849              -1.60   -11600.00
03850              -1.00   -11600.00
03851              -1.60   -11600.00
03852              -1.60   -11400.00
03853              -2.00   -11400.00
03854              -1.40   -11000.00
03855              -1.60   -11200.00
03856              -1.40   -11000.00
03857              -1.20   -10800.00
03858              -1.80   -10800.00
03859              -2.00   -10800.00
03860              -1.00   -10600.00
03861              -1.60   -10600.00
03862              -2.00   -10400.00
03863              -0.60   -10400.00
03864              -1.20   -10000.00
03865              -1.40   -10000.00
03866              -1.00   -10000.00
03867              -1.60    -9800.00
03868              -1.20    -9600.00
03869              -1.20    -9600.00
03870              -1.20    -9600.00
03871              -1.20    -9400.00
03872              -1.20    -9200.00
03873              -1.20    -9200.00
03874              -1.00    -9000.00
03875              -1.20    -9000.00
03876              -1.80    -8800.00
03877              -0.20    -8800.00
03878              -1.20    -8600.00
03879              -1.80    -8400.00
03880              -0.60    -8400.00
03881              -1.20    -8200.00
03882              -1.80    -8000.00
03883               0.40    -8000.00
03884              -1.00    -7600.00
03885              -2.00    -7800.00
03886              -0.20    -7400.00
03887              -0.80    -7400.00
03888              -1.80    -7200.00
03889              -0.60    -7200.00
03890              -0.40    -7000.00
03891              -1.20    -6800.00
03892              -1.40    -6800.00
03893              -0.40    -6600.00
03894              -1.20    -6400.00
03895              -1.20    -6400.00
03896              -0.20    -6200.00
03897              -0.60    -6000.00
03898              -1.20    -5800.00
03899              -0.60    -5800.00
03900              -0.60    -5400.00
03901              -0.80    -5200.00
03902              -1.00    -5200.00
03903              -0.60    -5000.00
03904              -0.60    -4800.00
03905              -0.60    -4600.00
03906              -1.00    -4600.00
03907              -1.00    -4400.00
03908              -1.00    -4200.00
03909              -1.00    -4200.00
03910              -0.60    -4000.00
03911              -0.80    -3600.00
03912              -1.00    -3600.00
03913              -0.60    -3400.00
03914              -0.40    -3400.00
03915              -0.60    -3200.00
03916              -0.60    -2800.00
03917              -0.60    -2800.00
03918              -0.60    -2600.00
03919              -0.60    -2400.00
03920              -0.40    -2400.00
03921              -0.60    -2000.00
03922              -1.00    -2000.00
03923              -0.40    -1800.00
03924              -0.40    -1600.00
03925              -0.60    -1600.00
03926              -0.60    -1200.00
03927              -0.40    -1200.00
03928              -0.60    -1000.00
03929              -0.40     -800.00
03930              -0.40     -400.00
03931              -0.40     -400.00
03932              -0.40     -200.00
03933              -0.20        0.00
03934              -0.20        0.00
03935              -0.20      200.00
03936               1.20      400.00
03937               1.80      600.00
03938              -1.40      600.00
03939              -0.40      800.00
03940               1.20     1000.00
03941               0.00     1200.00
03942              -0.20     1400.00
03943               4.60     1400.00
03944              19.00     1800.00
03945               0.20     2000.00
03946             -25.00     2200.00
03947              -5.20     2200.00
03948               8.40     2200.00
03949               7.80     2600.00
03950              25.00     2800.00
03951             -25.00     2800.00
03952               5.60     3200.00
03953              25.00     3000.00
03954             -25.00     3200.00
03955             -25.00     3600.00
03956              25.00     3600.00
03957             -25.00     3600.00
03958             -16.60     4200.00
03959              25.00     4200.00
03960             -15.80     4200.00
03961               3.40     4600.00
03962              -9.40     4600.00
03963               9.00     4800.00
03964              14.60     5000.00
03965             -25.00     5200.00
03966              13.80     5400.00
03967              25.00     5400.00
03968             -23.00     5600.00
03969             -18.40     5600.00
03970              25.00     5800.00
03971               4.40     6200.00
03972             -25.00     6200.00
03973              19.60     6400.00
03974              18.20     6400.00
03975             -24.40     6800.00
03976               3.00     6800.00
03977              18.20     6800.00
03978             -13.40     7200.00
03979              -8.60     7200.00
03980              20.20     7600.00
03981              -3.80     7600.00
03982             -12.00     7800.00
03983              13.60     7800.00
03984               1.40     7800.00
03985              -9.80     8200.00
03986               3.80     8200.00
03987               5.00     8400.00
03988              -2.60     8400.00
03989               0.20     8600.00
03990               2.60     8800.00
03991               1.20     8800.00
03992              -1.40     9000.00
03993               0.20     9200.00
03994               3.40     9200.00
03995              -1.20     9400.00
03996              -0.20     9600.00
03997               4.40     9600.00
03998              -0.20     9600.00
03999              -2.80    10000.00
04000               3.40    10000.00
04001               2.40    10000.00
04002              -3.00    10200.00
04003               2.40    10400.00
04004               3.60    10400.00
04005              -1.80    10400.00
04006               0.40    10600.00
04007               3.40    10800.00
04008              -0.60    10800.00
04009               0.20    10800.00
04010               3.00    11000.00
04011               0.60    11000.00
04012              -0.40    11200.00
04013               2.00    11200.00
04014               2.00    11200.00
04015              -0.20    11600.00
04016               0.20    11600.00
04017               2.60    11600.00
04018               1.60    11600.00
04019              -0.20    11600.00
04020               1.40    12000.00
04021               2.00    11800.00
04022               0.40    12000.00
04023               1.00    12000.00
04024               2.20    12000.00
04025               0.60    12000.00
04026               0.40    12200.00
04027               2.00    12200.00
04028               1.80    12400.00
04029               0.20    12400.00
04030               1.00    12400.00
04031               1.80    12400.00
04032               0.60    12600.00
04033               1.20    12400.00
04034               1.40    12600.00
04035               1.00    12600.00
04036               1.40    12600.00
04037               1.20    12600.00
04038               0.40    12600.00
04039               1.00    12800.00
04040               1.40    12800.00
04041               1.20    12800.00
04042               1.20    12800.00
04043               1.00    12800.00
04044               0.80    12800.00
04045               1.20    13000.00
04046               1.20    12800.00
04047               0.60    12800.00
04048               1.20    13000.00
04049               1.20    12800.00
04050               1.20    12800.00
04051               1.60    12800.00
04052               0.40    13200.00
04053               1.00    13200.00
04054               1.40    13000.00
04055               1.00    13200.00
04056               0.80    13000.00
04057               1.20    12800.00
04058               1.20    13000.00
04059               1.40    12800.00
04060               1.20    13000.00
04061               0.20    12800.00
04062               1.40    13000.00
04063               1.20    12800.00
04064               0.60    12800.00
04065               1.20    12800.00
04066               1.00    12800.00
04067               0.60    12800.00
04068               1.40    12600.00
04069               1.00    12800.00
04070               1.40    12800.00
04071               0.60    12600.00
04072               1.00    12600.00
04073               1.40    12600.00
04074               1.20    12400.00
04075               0.20    12400.00
04076               1.80    12400.00
04077               1.20    12400.00
04078               0.60    12400.00
04079               1.20    12400.00
04080               1.20    12200.00
04081               0.40    12000.00
04082               1.60    12000.00
04083               1.40    12000.00
04084               0.40    12000.00
04085               1.20    11800.00
04086               1.40    11800.00
04087               0.60    11600.00
04088               1.00    11600.00
04089               1.20    11600.00
04090               1.00    11400.00
04091               1.00    11400.00
04092               1.40    11200.00
04093               0.80    11200.00
04094               1.00    11200.00
04095               1.20    11000.00
04096               1.00    11000.00
04097               0.60    10800.00
04098               0.80    10800.00
04099               0.60    10800.00
04100               1.20    10400.00
04101               0.60    10600.00
04102               0.60    10400.00
04103               0.40    10400.00
04104               1.20    10200.00
04105               0.40    10000.00
04106              -0.20    10000.00
04107               1.80    10000.00
04108               0.20     9800.00
04109               0.00     9600.00
04110               1.20     9600.00
04111               0.60     9400.00
04112               0.20     9200.00
04113               0.40     9200.00
04114               1.00     9000.00
04115               0.40     9000.00
04116               0.00     8800.00
04117               0.80     8800.00
04118               0.60     8600.00
04119               0.20     8400.00
04120               0.40     8400.00
04121               0.60     8200.00
04122               0.20     8000.00
04123               0.20     8000.00
04124               1.00     7800.00
04125               0.40     7800.00
04126              -0.20     7600.00
04127               1.00     7200.00
04128               1.00     7200.00
04129              -0.20     7000.00
04130               0.40     6800.00
04131               0.60     6800.00
04132               0.00     6800.00
04133               0.20     6400.00
04134               1.00     6400.00
04135               0.20     6200.00
04136              -0.20     6000.00
04137               0.60     6000.00
04138               0.60     6000.00
04139              -0.40     5600.00
04140               0.40     5600.00
04141               1.00     5400.00
04142              -0.40     5200.00
04143               0.20     4800.00
04144               0.60     4600.00
04145               0.20     4600.00
04146               0.20     4400.00
04147               0.60     4400.00
04148               0.20     4200.00
04149              -0.20     4000.00
04150               0.00     4000.00
04151               0.40     3600.00
04152              -0.20     3600.00
04153               0.20     3200.00
04154               0.40     3200.00
04155              -0.40     3000.00
04156              -0.20     3000.00
04157               0.60     2800.00
04158               0.20     2600.00
04159              -0.20     2400.00
04160               0.40     2200.00
04161               0.20     2200.00
04162              -0.60     2000.00
04163              -0.40     1800.00
04164              -0.20     1600.00
04165              -0.40     1200.00
04166              -0.60     1200.00
04167              -0.20     1000.00
04168              -0.40     1000.00
04169              -0.60      600.00
04170              -0.40      600.00
04171              -0.20      400.00
04172              -0.60      200.00
04173              -0.40      200.00
04174               0.00        0.00
04175              -0.60     -200.00
04176               0.80     -400.00
04177               1.80     -600.00
04178              -1.60     -800.00
04179              -1.00     -800.00
04180               1.00    -1000.00
04181              -0.60    -1200.00
04182              -0.20    -1200.00
04183              17.00    -1600.00
04184              18.00    -2000.00
04185             -25.00    -2200.00
04186             -21.20    -2400.00
04187               7.00    -2200.00
04188              25.00    -2400.00
04189              25.00    -2800.00
04190             -25.00    -2600.00
04191              25.00    -2600.00
04192              25.00    -3200.00
04193             -25.00    -3200.00
04194             -25.00    -3400.00
04195              25.00    -3800.00
04196             -25.00    -3400.00
04197             -25.00    -3800.00
04198              25.00    -4000.00
04199             -25.00    -4000.00
04200              15.60    -4400.00
04201             -25.00    -4400.00
04202              24.20    -4800.00
04203              25.00    -4600.00
04204             -25.00    -4800.00
04205              25.00    -5200.00
04206              25.00    -5200.00
04207             -25.00    -5400.00
04208              -8.40    -5800.00
04209              25.00    -5800.00
04210               7.00    -6000.00
04211             -25.00    -6000.00
04212              25.00    -6400.00
04213              24.40    -6400.00
04214             -25.00    -6600.00
04215              18.80    -6800.00
04216              12.20    -6800.00
04217             -12.60    -6800.00
04218             -13.20    -7200.00
04219              17.20    -7200.00
04220               2.20    -7400.00
04221             -22.00    -7600.00
04222              18.80    -7800.00
04223              -2.80    -8000.00
04224             -12.20    -8000.00
04225               4.60    -8200.00
04226               3.00    -8400.00
04227              -5.80    -8400.00
04228              -2.60    -8600.00
04229               4.00    -8800.00
04230              -1.40    -9000.00
04231              -5.00    -9000.00
04232              -1.40    -9200.00
04233               4.40    -9200.00
04234              -8.20    -9200.00
04235               0.40    -9400.00
04236               4.60    -9600.00
04237              -6.20    -9600.00
04238              -3.00    -9800.00
04239               2.80    -9800.00
04240              -0.40   -10000.00
04241              -7.80   -10000.00
04242               2.60   -10200.00
04243               2.00   -10400.00
04244              -6.80   -10400.00
04245              -1.00   -10600.00
04246               3.00   -10600.00
04247              -5.40   -10800.00
04248              -3.00   -10800.00
04249               2.80   -10800.00
04250              -2.20   -10800.00
04251              -4.00   -11200.00
04252              -0.40   -11000.00
04253               1.40   -11400.00
04254              -4.40   -11200.00
04255              -2.60   -11400.00
04256               1.80   -11400.00
04257              -2.60   -11600.00
04258              -2.00   -11600.00
04259              -0.40   -11600.00
04260              -1.00   -12000.00
04261              -2.80   -12000.00
04262              -2.20   -12000.00
04263               0.40   -12000.00
04264              -2.60   -12200.00
04265              -2.20   -12200.00
04266               0.20   -12200.00
04267              -0.80   -12400.00
04268              -3.00   -12400.00
04269              -1.40   -12400.00
04270               0.20   -12400.00
04271              -2.00   -12600.00
04272              -2.20   -12400.00
04273              -0.60   -12600.00
04274              -1.60   -12800.00
04275              -1.80   -12800.00
04276              -1.40   -12800.00
04277              -1.20   -12800.00
04278              -1.40   -12800.00
04279              -2.20   -12800.00
04280              -1.20   -12800.00
04281              -1.00   -13000.00
04282              -2.20   -13000.00
04283              -1.40   -12800.00
04284              -1.00   -13000.00
04285              -2.00   -13000.00
04286              -1.40   -13000.00
04287              -1.20   -13000.00
04288              -2.20   -13000.00
04289              -1.80   -13000.00
04290              -1.20   -13000.00
04291              -2.20   -13000.00
04292              -1.80   -13000.00
04293              -1.00   -13000.00
04294              -2.00   -13000.00
04295              -2.20   -13000.00
04296              -1.20   -13000.00
04297              -1.80   -13000.00
04298              -2.00   -13000.00
04299              -1.80   -13000.00
04300              -1.80   -13000.00
04301              -2.20   -13000.00
04302              -1.60   -13000.00
04303              -0.60   -13000.00
04304              -2.20   -13000.00
04305              -2.80   -12800.00
04306              -1.60   -13000.00
04307              -1.40   -12800.00
04308              -2.20   -12800.00
04309              -1.20   -12800.00
04310              -1.80   -12800.00
04311              -2.60   -12800.00
04312              -1.20   -12800.00
04313              -1.20   -12800.00
04314              -2.20   -12600.00
04315              -2.00   -12600.00
04316              -1.00   -12400.00
04317              -1.40   -12400.00
04318              -2.20   -12200.00
04319              -1.80   -12200.00
04320              -1.20   -12400.00
04321              -1.20   -12200.00
04322              -1.40   -12000.00
04323              -2.20   -12200.00
04324              -1.20   -12000.00
04325              -1.40   -12000.00
04326              -2.20   -12000.00
04327              -1.20   -11800.00
04328              -0.40   -11800.00
04329              -2.80   -11600.00
04330              -1.20   -11400.00
04331              -0.40   -11400.00
04332              -1.40   -11200.00
04333              -2.80   -11400.00
04334              -0.60   -11000.00
04335              -0.60   -11200.00
04336              -2.60   -10800.00
04337              -1.60   -11000.00
04338              -0.60   -10800.00
04339              -2.20   -10800.00
04340              -0.80   -10600.00
04341              -0.60   -10600.00
04342              -2.80   -10400.00
04343              -1.60   -10400.00
04344              -0.20   -10400.00
04345              -1.20   -10000.00
04346              -2.80   -10000.00
04347              -0.40    -9800.00
04348               0.20    -9800.00
04349              -2.40    -9600.00
04350              -2.00    -9600.00
04351              -0.40    -9600.00
04352              -2.00    -9200.00
04353              -1.40    -9200.00
04354               0.00    -9000.00
04355              -1.40    -9000.00
04356              -1.80    -8800.00
04357              -1.00    -8800.00
04358              -1.40    -8600.00
04359              -2.00    -8400.00
04360              -0.60    -8400.00
04361              -1.00    -8200.00
04362              -1.40    -8200.00
04363              -0.60    -8000.00
04364              -1.00    -7800.00
04365              -1.40    -7800.00
04366              -1.40    -7600.00
04367              -1.00    -7400.00
04368              -1.00    -7200.00
04369              -1.60    -7000.00
04370              -1.00    -7000.00
04371              -0.60    -6800.00
04372              -1.40    -6600.00
04373              -1.80    -6600.00
04374              -0.60    -6400.00
04375              -1.20    -6200.00
04376              -1.20    -6200.00
04377              -0.60    -6000.00
04378              -1.00    -5800.00
04379              -1.20    -5600.00
04380              -0.60    -5600.00
04381              -1.00    -5200.00
04382              -1.40    -5200.00
04383              -0.60    -5000.00
04384              -0.40    -4600.00
04385              -1.20    -4600.00
04386              -0.60    -4400.00
04387              -0.40    -4200.00
04388              -1.20    -4400.00
04389              -1.20    -4000.00
04390              -0.60    -4000.00
04391              -0.40    -3800.00
04392              -0.60    -3600.00
04393              -0.60    -3400.00
04394              -0.40    -3200.00
04395              -0.60    -3200.00
04396              -0.80    -3000.00
04397              -0.40    -2800.00
04398              -0.20    -2800.00
04399              -0.80    -2400.00
04400              -0.60    -2200.00
04401               0.00    -2000.00
04402              -0.60    -2000.00
04403              -0.60    -1800.00
04404               0.20    -1800.00
04405              -0.40    -1600.00
04406              -1.00    -1200.00
04407               0.00    -1200.00
04408              -0.20    -1000.00
04409              -0.60     -600.00
04410              -0.20     -600.00
04411              -0.20     -400.00
04412              -0.40     -200.00
04413              -0.20     -200.00
04414              -0.20      200.00
04415               0.20      200.00
04416               1.40      400.00
04417               1.40      600.00
04418              -1.20      600.00
04419               0.00      800.00
04420               1.40     1200.00
04421               0.20     1200.00
04422               0.40     1400.00
04423               5.80     1800.00
04424              20.60     1800.00
04425              -7.60     2000.00
04426             -25.00     2200.00
04427               0.60     2200.00
04428               6.60     2400.00
04429              15.60     2800.00
04430              25.00     2800.00
04431             -25.00     2800.00
04432              25.00     3200.00
04433              25.00     3200.00
04434             -25.00     3200.00
04435              -3.00     3600.00
04436              25.00     3600.00
04437             -25.00     4000.00
04438              -1.40     4200.00
04439              25.00     4000.00
04440             -16.60     4200.00
04441               4.60     4600.00
04442             -11.60     4600.00
04443              14.20     4800.00
04444               7.00     4800.00
04445             -25.00     5200.00
04446              22.00     5200.00
04447              22.00     5600.00
04448             -25.00     5800.00
04449             -11.60     5600.00
04450              25.00     6000.00
04451              -4.60     6200.00
04452             -25.00     6200.00
04453              25.00     6400.00
04454              11.00     6600.00
04455             -24.20     6800.00
04456               8.60     6800.00
04457              15.20     7000.00
04458             -16.40     7200.00
04459              -3.80     7200.00
04460              19.60     7600.00
04461              -8.20     7600.00
04462              -8.60     7600.00
04463              14.60     7800.00
04464              -1.00     8000.00
04465              -8.40     8200.00
04466               5.20     8200.00
04467               3.80     8400.00
04468              -2.20     8600.00
04469               0.40     8800.00
04470               2.60     8800.00
04471               1.40     8800.00
04472              -1.40     9000.00
04473               1.00     9200.00
04474               3.40     9200.00
04475              -2.20     9400.00
04476               0.40     9400.00
04477               4.40     9600.00
04478              -1.00     9600.00
04479              -2.20     9800.00
04480               4.40    10000.00
04481               1.20    10000.00
04482              -3.00    10200.00
04483               3.60    10200.00
04484               3.00    10400.00
04485              -2.20    10400.00
04486               1.20    10600.00
04487               3.20    10800.00
04488              -1.00    10800.00
04489               0.20    10800.00
04490               3.00    11000.00
04491               0.40    11000.00
04492              -0.60    11200.00
04493               2.00    11200.00
04494               1.80    11200.00
04495              -0.60    11400.00
04496               0.40    11600.00
04497               2.00    11600.00
04498               1.20    11800.00
04499               0.20    11800.00
04500               1.20    11800.00
04501               1.40    11800.00
04502               0.40    12000.00
04503               1.00    12000.00
04504               1.80    12000.00
04505               0.20    12200.00
04506               0.40    12400.00
04507               1.80    12400.00
04508               1.20    12400.00
04509               0.00    12400.00
04510               1.40    12400.00
04511               1.20    12400.00
04512               0.40    12600.00
04513               1.20    12600.00
04514               1.20    12600.00
04515               0.40    12600.00
04516               1.80    12800.00
04517               1.80    12600.00
04518               0.40    12800.00
04519               0.80    12800.00
04520               2.00    12800.00
04521               1.00    12800.00
04522               0.40    12800.00
04523               1.40    12800.00
04524               1.80    12800.00
04525               0.40    12800.00
04526               1.20    13200.00
04527               1.40    13000.00
04528               1.00    13000.00
04529               1.20    13000.00
04530               2.00    13000.00
04531               1.20    13000.00
04532               1.00    13000.00
04533               1.20    13000.00
04534               1.40    13000.00
04535               1.00    13000.00
04536               1.00    12800.00
04537               1.20    13000.00
04538               1.40    13000.00
04539               1.00    12800.00
04540               1.60    13000.00
04541               1.20    12800.00
04542               1.00    12800.00
04543               1.00    12800.00
04544               1.20    12800.00
04545               1.00    12800.00
04546               1.20    12800.00
04547               1.40    12800.00
04548               1.60    12800.00
04549               1.00    12800.00
04550               1.20    12600.00
04551               1.40    12600.00
04552               1.00    12600.00
04553               1.20    12600.00
04554               1.00    12400.00
04555               0.40    12400.00
04556               1.00    12400.00
04557               1.40    12400.00
04558               1.00    12400.00
04559               0.60    12400.00
04560               1.00    12000.00
04561               1.40    12000.00
04562               1.00    12000.00
04563               1.00    12000.00
04564               1.20    12000.00
04565               1.00    11800.00
04566               0.60    11800.00
04567               1.20    11600.00
04568               1.20    11600.00
04569               0.20    11600.00
04570               0.80    11400.00
04571               1.40    11200.00
04572               0.60    11200.00
04573               0.40    11200.00
04574               1.40    11200.00
04575               1.00    11000.00
04576               0.60    11000.00
04577               1.00    10800.00
04578               1.20    10800.00
04579               0.40    10800.00
04580               0.60    10600.00
04581               1.20    10400.00
04582               0.80    10400.00
04583               0.40    10200.00
04584               1.20    10000.00
04585               1.20    10200.00
04586               0.40    10000.00
04587               0.40    10000.00
04588               1.20     9600.00
04589               0.60     9600.00
04590               0.60     9400.00
04591               1.00     9400.00
04592               0.80     9200.00
04593               1.00     9200.00
04594               0.60     9000.00
04595               1.00     9000.00
04596               0.60     8800.00
04597               0.40     8600.00
04598               0.60     8400.00
04599               0.80     8400.00
04600               0.60     8400.00
04601               0.60     8200.00
04602               0.60     8200.00
04603               0.40     8000.00
04604               0.60     7800.00
04605               0.60     7600.00
04606               0.40     7600.00
04607               1.00     7200.00
04608               1.00     7200.00
04609               0.20     7000.00
04610               0.40     6800.00
04611               0.60     6800.00
04612               0.40     6600.00
04613               0.40     6400.00
04614               0.40     6400.00
04615               0.60     6200.00
04616               0.20     6000.00
04617               0.40     6000.00
04618               0.40     6000.00
04619              -0.20     5600.00
04620               0.20     5400.00
04621               0.60     5200.00
04622               0.20     5200.00
04623              -0.20     4800.00
04624               0.40     4800.00
04625               0.20     4600.00
04626              -0.20     4400.00
04627               0.00     4400.00
04628               0.20     4000.00
04629               0.00     4000.00
04630               0.00     3800.00
04631               0.20     3600.00
04632               0.20     3600.00
04633              -0.20     3200.00
04634              -0.20     3200.00
04635               0.20     3000.00
04636               0.20     2800.00
04637              -0.40     2800.00
04638              -0.40     2400.00
04639               0.00     2200.00
04640              -0.20     2400.00
04641              -0.60     2000.00
04642               0.20     2000.00
04643              -0.40     1600.00
04644              -0.20     1400.00
04645               0.20     1600.00
04646              -0.60     1200.00
04647              -1.00     1000.00
04648               0.20      800.00
04649              -0.40      600.00
04650              -0.60      600.00
04651               0.20      400.00
04652              -0.20      400.00
04653              -0.80        0.00
04654               0.20        0.00
04655              -0.20     -400.00
04656               1.00     -400.00
04657               1.40     -400.00
04658              -1.20     -800.00
04659              -1.00    -1000.00
04660               1.20    -1000.00
04661              -0.40    -1200.00
04662               0.60    -1200.00
04663              22.80    -1600.00
04664               8.80    -2000.00
04665             -25.00    -2000.00
04666             -12.60    -2200.00
04667               6.60    -2200.00
04668              25.00    -2400.00
04669              23.80    -2800.00
04670             -25.00    -2600.00
04671              25.00    -2800.00
04672              25.00    -3400.00
04673             -25.00    -3200.00
04674             -12.60    -3400.00
04675              25.00    -3800.00
04676             -25.00    -3600.00
04677               5.80    -4000.00
04678              25.00    -4000.00
04679             -25.00    -4200.00
04680              16.20    -4400.00
04681             -25.00    -4400.00
04682              25.00    -4800.00
04683              23.00    -4800.00
04684             -25.00    -5000.00
04685              25.00    -5200.00
04686              24.20    -5200.00
04687             -25.00    -5600.00
04688              -0.60    -5800.00
04689              25.00    -5800.00
04690              -5.20    -6000.00
04691             -25.00    -6000.00
04692              25.00    -6400.00
04693               7.40    -6400.00
04694             -25.00    -6600.00
04695              24.40    -6800.00
04696               5.80    -6800.00
04697             -13.80    -7000.00
04698             -10.60    -7200.00
04699              20.20    -7400.00
04700              -6.00    -7400.00
04701             -16.60    -7600.00
04702              20.20    -8000.00
04703              -8.40    -8000.00
04704             -10.00    -8000.00
04705               5.80    -8200.00
04706               2.00    -8400.00
04707              -6.80    -8400.00
04708              -1.20    -8800.00
04709               3.40    -8800.00
04710              -2.20    -8800.00
04711              -5.40    -9000.00
04712               0.60    -9000.00
04713               3.40    -9200.00
04714              -9.40    -9200.00
04715               3.00    -9200.00
04716               3.00    -9600.00
04717              -6.40    -9600.00
04718              -2.80    -9800.00
04719               3.60    -9800.00
04720              -2.00   -10000.00
04721              -7.00   -10200.00
04722               4.20   -10200.00
04723               0.40   -10200.00
04724              -6.20   -10400.00
04725               0.40   -10600.00
04726               2.00   -10600.00
04727              -5.60   -10600.00
04728              -1.40   -10800.00
04729               2.20   -10800.00
04730              -2.40   -10800.00
04731              -3.80   -11200.00
04732               0.40   -11200.00
04733               1.00   -11400.00
04734              -5.20   -11400.00
04735              -0.60   -11600.00
04736               1.80   -11400.00
04737              -3.20   -11600.00
04738              -2.00   -11800.00
04739              -0.20   -11800.00
04740              -1.40   -12000.00
04741              -3.40   -12000.00
04742              -0.20   -12000.00
04743               0.20   -12000.00
04744              -3.20   -12000.00
04745              -1.80   -12200.00
04746               0.40   -12200.00
04747              -2.20   -12400.00
04748              -3.00   -12400.00
04749              -0.60   -12400.00
04750              -1.20   -12600.00
04751              -2.60   -12400.00
04752              -1.20   -12400.00
04753              -1.00   -12600.00
04754              -2.80   -12800.00
04755              -1.20   -12800.00
04756              -1.20   -12800.00
04757              -2.20   -12800.00
04758              -2.00   -12800.00
04759              -1.00   -12800.00
04760              -1.80   -12800.00
04761              -2.20   -13000.00
04762              -1.40   -12800.00
04763              -1.20   -13000.00
04764              -2.00   -13000.00
04765              -2.00   -13000.00
04766              -1.20   -13000.00
04767              -1.80   -13000.00
04768              -2.20   -13000.00
04769              -1.20   -13000.00
04770              -1.20   -13000.00
04771              -2.80   -13000.00
04772              -2.00   -13000.00
04773              -1.00   -13000.00
04774              -1.40   -13000.00
04775              -2.20   -13000.00
04776              -1.80   -13200.00
04777              -1.20   -13000.00
04778              -1.80   -13200.00
04779              -2.00   -13000.00
04780              -1.20   -13000.00
04781              -1.80   -12800.00
04782              -2.00   -13000.00
04783              -1.20   -13000.00
04784              -1.60   -13000.00
04785              -2.00   -12800.00
04786              -1.80   -12800.00
04787              -1.00   -12800.00
04788              -1.80   -12800.00
04789              -2.00   -12800.00
04790              -1.40   -12800.00
04791              -1.40   -12600.00
04792              -1.40   -12800.00
04793              -1.80   -12600.00
04794              -2.00   -12600.00
04795              -1.20   -12400.00
04796              -1.00   -12400.00
04797              -2.00   -12200.00
04798              -1.20   -12200.00
04799              -1.60   -12200.00
04800              -2.00   -12200.00
04801              -1.00   -12200.00
04802              -0.40   -12200.00
04803              -3.00   -12200.00
04804              -1.60   -12000.00
04805              -1.20   -12000.00
04806              -1.40   -11800.00
04807              -2.00   -11600.00
04808              -1.20   -11600.00
04809              -0.60   -11600.00
04810              -0.60   -11600.00
04811              -3.00   -11400.00
04812              -1.20   -11400.00
04813              -0.40   -11400.00
04814              -3.00   -11000.00
04815              -2.00   -11200.00
04816              -0.20   -11000.00
04817              -1.80   -10800.00
04818              -2.60   -10800.00
04819              -0.40   -10600.00
04820              -1.20   -10600.00
04821              -3.40   -10600.00
04822              -1.40   -10600.00
04823               1.20   -10400.00
04824              -2.20   -10200.00
04825              -4.20   -10000.00
04826               0.20   -10000.00
04827               0.40   -10000.00
04828              -2.60    -9800.00
04829              -2.40    -9600.00
04830              -0.20    -9800.00
04831              -1.80    -9600.00
04832              -3.00    -9600.00
04833              -0.60    -9200.00
04834               0.20    -9200.00
04835              -2.40    -8800.00
04836              -2.20    -9000.00
04837               1.00    -8800.00
04838              -1.80    -8600.00
04839              -3.40    -8400.00
04840               0.40    -8400.00
04841              -0.60    -8200.00
04842              -2.60    -8200.00
04843              -1.00    -8000.00
04844               0.00    -7800.00
04845              -2.20    -7600.00
04846              -0.60    -7600.00
04847               0.80    -7400.00
04848              -2.60    -7400.00
04849              -2.00    -7200.00
04850              -0.20    -6800.00
04851              -1.00    -6800.00
04852              -2.20    -6600.00
04853              -0.20    -6400.00
04854               0.40    -6400.00
04855              -2.00    -6200.00
04856              -0.60    -6000.00
04857               0.40    -6000.00
04858              -2.00    -5800.00
04859              -1.40    -5600.00
04860              -0.40    -5600.00
04861              -0.60    -5200.00
04862              -1.00    -5000.00
04863              -1.00    -5000.00
04864              -0.60    -4600.00
04865              -0.40    -4600.00
04866              -0.60    -4400.00
04867              -0.60    -4400.00
04868              -0.60    -4200.00
04869              -0.60    -4000.00
04870              -0.40    -4000.00
04871              -0.60    -3800.00
04872              -1.00    -3600.00
04873              -0.60    -3400.00
04874              -0.60    -3400.00
04875              -0.60    -3000.00
04876              -0.60    -2800.00
04877              -1.00    -2800.00
04878              -0.40    -2600.00
04879              -0.60    -2400.00
04880              -1.00    -2200.00
04881              -0.60    -2000.00
04882              -0.60    -2000.00
04883              -0.80    -1800.00
04884              -0.40    -1600.00
04885              -0.20    -1200.00
04886              -1.20    -1400.00
04887              -0.60    -1000.00
04888               0.00     -800.00
04889              -0.80     -800.00
04890              -1.00     -600.00
04891               0.00     -400.00
04892              -0.20     -200.00
04893              -1.00     -200.00
04894              -0.60        0.00
04895               0.60        0.00
04896               1.80      400.00
04897               0.00      600.00
04898              -1.40      600.00
04899               0.60      800.00
04900               0.60     1200.00
04901              -0.60     1200.00
04902               1.40     1200.00
04903               7.40     1800.00
04904              20.60     2000.00
04905             -15.00     2000.00
04906             -25.00     2200.00
04907               5.00     2400.00
04908               3.80     2200.00
04909              24.60     2800.00
04910              13.60     2600.00
04911             -25.00     2800.00
04912              25.00     3200.00
04913              25.00     3000.00
04914             -25.00     3400.00
04915              24.40     3600.00
04916              25.00     3600.00
04917             -25.00     4000.00
04918              14.00     4000.00
04919              21.80     4000.00
04920             -15.80     4200.00
04921               4.20     4600.00
04922             -10.60     4600.00
04923              18.60     4800.00
04924              -2.20     5000.00
04925             -25.00     5200.00
04926              25.00     5400.00
04927              14.20     5600.00
04928             -25.00     5600.00
04929              -2.20     6000.00
04930              25.00     6000.00
04931             -14.60     6200.00
04932             -23.60     6200.00
04933              25.00     6200.00
04934               2.20     6800.00
04935             -22.00     6800.00
04936              14.20     7000.00
04937              10.60     7000.00
04938             -18.80     7200.00
04939               2.60     7200.00
04940              18.40     7600.00
04941             -12.60     7600.00
04942              -4.20     7800.00
04943              14.80     7800.00
04944              -4.40     8000.00
04945              -6.80     8200.00
04946               6.80     8200.00
04947               2.20     8400.00
04948              -2.20     8600.00
04949               1.60     8800.00
04950               2.00     8600.00
04951               0.60     8800.00
04952              -1.60     9000.00
04953               1.80     9200.00
04954               2.60     9200.00
04955              -2.20     9600.00
04956               1.80     9400.00
04957               3.80     9600.00
04958              -2.00     9600.00
04959              -1.20    10000.00
04960               4.40    10000.00
04961              -0.20    10200.00
04962              -2.80    10200.00
04963               4.40    10200.00
04964               2.00    10400.00
04965              -2.60    10400.00
04966               1.80    10400.00
04967               2.60    10800.00
04968              -1.40    10800.00
04969               0.80    10800.00
04970               3.00    11000.00
04971              -0.20    11000.00
04972              -0.40    11200.00
04973               2.60    11200.00
04974               1.80    11200.00
04975              -1.00    11400.00
04976               1.00    11600.00
04977               2.20    11600.00
04978               1.00    11800.00
04979               0.20    11800.00
04980               1.80    11800.00
04981               1.20    11800.00
04982               0.20    12000.00
04983               1.80    12000.00
04984               1.60    12000.00
04985               0.40    12200.00
04986               1.00    12200.00
04987               2.20    12000.00
04988               0.60    12400.00
04989               0.20    12400.00
04990               1.40    12400.00
04991               1.20    12400.00
04992               0.80    12600.00
04993               1.80    12600.00
04994               0.60    12600.00
04995               1.40    12600.00
04996               1.80    12600.00
04997               0.80    12800.00
04998               1.00    12800.00
04999               1.20    12800.00
05000               1.40    12800.00
