Unit:(mV)
                     CH1         CH2
Frequency              ? 208.255 kHz
00001              -8.20    -6800.00
00002              -7.60    -6600.00
00003              -8.40    -6600.00
00004              -7.40    -6600.00
00005              -7.00    -6600.00
00006              -7.20    -6600.00
00007              -6.80    -6400.00
00008              -7.60    -6400.00
00009              -7.00    -6400.00
00010              -6.20    -6400.00
00011              -6.60    -6200.00
00012              -7.20    -6400.00
00013              -6.60    -6200.00
00014              -5.80    -6200.00
00015              -6.20    -6000.00
00016              -6.20    -6000.00
00017              -6.00    -6000.00
00018              -5.80    -6000.00
00019              -5.60    -6000.00
00020              -5.40    -5800.00
00021              -5.40    -5800.00
00022              -5.40    -5600.00
00023              -5.40    -5600.00
00024              -5.20    -5600.00
00025              -5.20    -5600.00
00026              -5.20    -5600.00
00027              -5.00    -5200.00
00028              -4.40    -5200.00
00029              -4.40    -5200.00
00030              -4.60    -5200.00
00031              -4.40    -5000.00
00032              -4.40    -5000.00
00033              -4.40    -4600.00
00034              -4.40    -5000.00
00035              -4.40    -4600.00
00036              -3.40    -4600.00
00037              -3.00    -4600.00
00038              -3.80    -4400.00
00039              -4.40    -4400.00
00040              -2.60    -4400.00
00041              -3.80    -4200.00
00042              -4.40    -4400.00
00043              -2.80    -4000.00
00044              -2.80    -4000.00
00045              -3.40    -4000.00
00046              -3.00    -4000.00
00047              -3.00    -4000.00
00048              -2.80    -3800.00
00049              -3.40    -3800.00
00050              -3.00    -3600.00
00051              -1.00    -3600.00
00052              -3.00    -3600.00
00053              -4.80    -3400.00
00054              -0.80    -3200.00
00055              -0.60    -3200.00
00056              -4.40    -3200.00
00057              -2.80    -3000.00
00058               0.00    -2800.00
00059              -3.20    -2800.00
00060              -3.80    -2800.00
00061              -0.60    -2800.00
00062              -1.00    -2600.00
00063              -4.20    -2600.00
00064              -2.00    -2400.00
00065              -0.40    -2400.00
00066              -2.20    -2400.00
00067              -2.80    -2400.00
00068              -1.00    -2000.00
00069              -1.20    -2000.00
00070              -2.60    -2000.00
00071              -1.80    -1800.00
00072              -1.20    -1800.00
00073              -1.80    -1600.00
00074              -0.60    -1600.00
00075              -1.00    -1600.00
00076              -1.80    -1200.00
00077              -1.20    -1200.00
00078              -1.20    -1200.00
00079              -1.80    -1000.00
00080              -1.00    -1000.00
00081              -0.40    -1000.00
00082              -1.00     -800.00
00083              -1.40     -800.00
00084              -0.20     -600.00
00085              -0.60     -600.00
00086              -1.80     -400.00
00087              -1.00     -400.00
00088               0.40     -200.00
00089              -0.60     -200.00
00090              -0.60        0.00
00091               0.20        0.00
00092               0.20      200.00
00093               0.20      200.00
00094               0.60      400.00
00095              -0.60      400.00
00096              -0.20      400.00
00097               0.60      600.00
00098               0.60      800.00
00099               2.20      800.00
00100              13.20     1000.00
00101               5.20     1200.00
00102             -25.00     1000.00
00103             -25.00      800.00
00104              25.00     1200.00
00105              25.00     1400.00
00106             -25.00     1400.00
00107             -25.00     1600.00
00108              25.00     1800.00
00109              25.00     1800.00
00110             -25.00     1800.00
00111              25.00     2000.00
00112              25.00     2000.00
00113             -25.00     2400.00
00114             -25.00     2200.00
00115              25.00     2400.00
00116             -25.00     2200.00
00117             -25.00     2800.00
00118              25.00     2600.00
00119              22.20     2400.00
00120             -25.00     3200.00
00121              25.00     2800.00
00122              25.00     3000.00
00123             -25.00     3200.00
00124             -25.00     3000.00
00125              25.00     3200.00
00126              25.00     3200.00
00127             -25.00     3400.00
00128              -8.20     3200.00
00129              25.00     3400.00
00130             -25.00     3600.00
00131             -25.00     3600.00
00132              25.00     3800.00
00133               6.00     4000.00
00134             -25.00     4000.00
00135              25.00     4000.00
00136              25.00     4000.00
00137             -25.00     4400.00
00138               9.40     4000.00
00139              25.00     4000.00
00140             -25.00     4600.00
00141             -12.60     4400.00
00142              25.00     4600.00
00143              -4.40     4600.00
00144             -16.60     4800.00
00145              22.60     4800.00
00146               6.00     4600.00
00147             -11.40     5000.00
00148               9.20     4800.00
00149              11.40     5200.00
00150              -3.80     5200.00
00151               0.40     5200.00
00152              12.80     5200.00
00153               2.60     5400.00
00154              -2.80     5400.00
00155               8.20     5600.00
00156               9.40     5400.00
00157              -0.60     5600.00
00158               2.00     5800.00
00159              13.00     5600.00
00160               3.40     5800.00
00161              -1.20     6000.00
00162              10.80     6000.00
00163               6.80     6000.00
00164              -0.20     6000.00
00165               8.40     6000.00
00166               9.80     6200.00
00167               1.60     6400.00
00168               5.00     6200.00
00169              10.80     6200.00
00170               4.40     6400.00
00171               3.60     6400.00
00172               9.20     6400.00
00173               7.60     6400.00
00174               5.40     6400.00
00175               6.80     6600.00
00176               8.60     6800.00
00177               6.80     6600.00
00178               6.80     6600.00
00179               9.20     6800.00
00180               7.80     6800.00
00181               6.80     6800.00
00182               8.60     6800.00
00183               9.40     6800.00
00184               7.60     6800.00
00185               7.80     6800.00
00186               9.80     7000.00
00187               9.40     7000.00
00188               8.60     7000.00
00189               9.40     7000.00
00190              10.00     7000.00
00191               9.20     7000.00
00192               9.80     7000.00
00193              10.60     7200.00
00194              10.00     7000.00
00195              10.00     7200.00
00196              10.80     7000.00
00197              10.80     7200.00
00198              10.00     7200.00
00199              11.00     7200.00
00200              11.60     7000.00
00201              11.60     7200.00
00202              11.40     7200.00
00203              11.80     7200.00
00204              11.60     7200.00
00205              11.60     7200.00
00206              13.00     7200.00
00207              11.60     7200.00
00208              11.80     7200.00
00209              13.20     7200.00
00210              13.00     7200.00
00211              12.00     7200.00
00212              12.20     7200.00
00213              12.60     7200.00
00214              12.40     7200.00
00215              12.40     7200.00
00216              12.20     7000.00
00217              12.20     7200.00
00218              11.60     7200.00
00219              11.80     7200.00
00220              11.40     7200.00
00221              11.00     7000.00
00222              11.00     7200.00
00223              11.40     7200.00
00224              10.60     7000.00
00225              10.00     7000.00
00226              10.00     7000.00
00227               9.80     7200.00
00228               9.20     7000.00
00229               9.60     7000.00
00230               9.40     7000.00
00231               8.60     7000.00
00232               8.80     7000.00
00233               9.40     6800.00
00234               8.60     7000.00
00235               7.60     7000.00
00236               8.40     6800.00
00237               8.60     6800.00
00238               7.40     6800.00
00239               7.40     6600.00
00240               8.20     6800.00
00241               7.40     6600.00
00242               6.80     6600.00
00243               7.60     6600.00
00244               7.40     6400.00
00245               6.20     6400.00
00246               6.60     6400.00
00247               7.00     6400.00
00248               6.20     6400.00
00249               5.80     6200.00
00250               6.60     6200.00
00251               6.40     6200.00
00252               5.80     6200.00
00253               6.00     6000.00
00254               6.00     6000.00
00255               5.40     6000.00
00256               5.80     6000.00
00257               5.40     5800.00
00258               4.60     5800.00
00259               4.60     5600.00
00260               5.20     5600.00
00261               5.00     5600.00
00262               4.20     5600.00
00263               4.20     5600.00
00264               4.60     5600.00
00265               4.40     5400.00
00266               3.80     5400.00
00267               4.20     5200.00
00268               4.20     5200.00
00269               4.00     5200.00
00270               3.60     5200.00
00271               3.80     5000.00
00272               3.80     4800.00
00273               3.00     4800.00
00274               3.40     4800.00
00275               3.80     4600.00
00276               3.40     4600.00
00277               2.20     4600.00
00278               3.00     4400.00
00279               3.60     4400.00
00280               2.60     4400.00
00281               2.80     4000.00
00282               3.00     4200.00
00283               2.60     4000.00
00284               2.00     4000.00
00285               2.60     4000.00
00286               2.60     3800.00
00287               2.60     3800.00
00288               2.60     3800.00
00289               2.60     3600.00
00290               2.60     3600.00
00291               1.80     3400.00
00292               1.80     3400.00
00293               2.60     3200.00
00294               2.00     3200.00
00295               1.40     3200.00
00296               2.20     3000.00
00297               1.80     3000.00
00298               1.80     2800.00
00299               2.00     2800.00
00300               1.60     2600.00
00301               1.40     2800.00
00302               1.40     2600.00
00303               1.20     2400.00
00304               1.20     2200.00
00305               1.20     2200.00
00306               1.20     2200.00
00307               1.20     2000.00
00308               1.20     2000.00
00309               1.00     2000.00
00310               1.00     2000.00
00311               1.40     1800.00
00312               1.00     1600.00
00313               0.40     1400.00
00314               1.00     1400.00
00315               1.20     1400.00
00316               0.40     1400.00
00317               0.20     1200.00
00318               1.00     1200.00
00319               0.40     1000.00
00320               0.20      800.00
00321               0.20      800.00
00322               0.40      800.00
00323              -0.40      600.00
00324              -0.60      600.00
00325               0.20      400.00
00326               0.00      400.00
00327              -0.20      400.00
00328              -0.20        0.00
00329              -0.60        0.00
00330              -0.40        0.00
00331               0.20     -200.00
00332               0.20     -200.00
00333              -0.40     -200.00
00334              -0.20     -400.00
00335              -0.60     -400.00
00336              -0.80     -400.00
00337              -0.60     -800.00
00338              -0.20     -800.00
00339               6.20     -800.00
00340              20.40    -1000.00
00341             -23.80    -1200.00
00342             -25.00    -1200.00
00343              25.00    -1200.00
00344              25.00    -1200.00
00345             -25.00    -1800.00
00346             -25.00    -1200.00
00347              25.00    -1600.00
00348              25.00    -1800.00
00349             -25.00    -1600.00
00350             -25.00    -2000.00
00351              25.00    -2000.00
00352              25.00    -2400.00
00353             -25.00    -1800.00
00354              25.00    -2400.00
00355              25.00    -2800.00
00356             -25.00    -2000.00
00357              25.00    -2800.00
00358              25.00    -2600.00
00359             -25.00    -2600.00
00360             -14.20    -3200.00
00361              25.00    -2800.00
00362              -8.40    -3200.00
00363             -25.00    -3000.00
00364             -11.00    -3200.00
00365              25.00    -3400.00
00366             -14.40    -3000.00
00367             -25.00    -3600.00
00368              25.00    -3400.00
00369              25.00    -3600.00
00370             -25.00    -3600.00
00371              25.00    -3600.00
00372              25.00    -4000.00
00373             -25.00    -3800.00
00374              10.60    -4200.00
00375              25.00    -4000.00
00376             -25.00    -4000.00
00377             -20.40    -4400.00
00378              25.00    -4200.00
00379              -9.80    -4400.00
00380             -25.00    -4400.00
00381              21.20    -4400.00
00382              10.00    -4600.00
00383             -25.00    -4400.00
00384               7.40    -4800.00
00385              13.80    -4800.00
00386             -24.20    -4800.00
00387              -4.60    -5000.00
00388               9.80    -5000.00
00389             -11.00    -5200.00
00390             -12.20    -5000.00
00391               4.40    -5200.00
00392               0.00    -5200.00
00393             -17.20    -5400.00
00394              -2.60    -5600.00
00395               5.40    -5600.00
00396             -13.60    -5600.00
00397             -10.20    -5600.00
00398               4.60    -5600.00
00399              -4.60    -5800.00
00400             -15.80    -6000.00
00401              -1.20    -6000.00
00402               2.00    -5800.00
00403             -16.20    -6000.00
00404              -6.20    -6000.00
00405               3.60    -6000.00
00406             -11.40    -6200.00
00407             -11.80    -6200.00
00408              -0.20    -6400.00
00409              -4.80    -6400.00
00410             -13.40    -6400.00
00411              -6.00    -6400.00
00412              -2.00    -6400.00
00413             -10.80    -6400.00
00414              -9.40    -6400.00
00415              -4.20    -6600.00
00416              -8.60    -6600.00
00417              -9.40    -6600.00
00418              -7.00    -6800.00
00419              -7.00    -6600.00
00420              -9.20    -6800.00
00421              -9.40    -6800.00
00422              -6.80    -6800.00
00423              -8.60    -6800.00
00424             -10.00    -6800.00
00425              -9.00    -6800.00
00426              -9.20    -7000.00
00427              -8.20    -6800.00
00428             -10.20    -7200.00
00429             -11.00    -7000.00
00430              -8.60    -7200.00
00431              -9.20    -7200.00
00432             -11.80    -7000.00
00433             -10.80    -7200.00
00434              -8.60    -7200.00
00435             -12.20    -7200.00
00436             -11.60    -7200.00
00437              -9.00    -7200.00
00438             -12.60    -7200.00
00439             -13.20    -7200.00
00440              -9.20    -7200.00
00441             -11.60    -7200.00
00442             -14.20    -7200.00
00443             -11.60    -7200.00
00444             -10.20    -7200.00
00445             -13.40    -7200.00
00446             -13.80    -7200.00
00447             -11.80    -7400.00
00448             -12.60    -7200.00
00449             -14.00    -7200.00
00450             -12.40    -7400.00
00451             -12.40    -7400.00
00452             -14.00    -7200.00
00453             -13.40    -7400.00
00454             -13.40    -7200.00
00455             -12.40    -7200.00
00456             -12.20    -7200.00
00457             -14.00    -7400.00
00458             -12.20    -7200.00
00459             -10.80    -7400.00
00460             -13.40    -7200.00
00461             -13.40    -7200.00
00462             -10.20    -7200.00
00463             -10.80    -7200.00
00464             -12.40    -7200.00
00465             -10.60    -7000.00
00466             -10.00    -7200.00
00467             -11.40    -7200.00
00468             -10.80    -7000.00
00469              -9.40    -7200.00
00470              -9.20    -7200.00
00471             -10.80    -7000.00
00472              -9.00    -7000.00
00473              -9.00    -7000.00
00474             -10.20    -7000.00
00475              -9.00    -6800.00
00476              -7.40    -6800.00
00477              -9.20    -6800.00
00478              -9.20    -6800.00
00479              -7.60    -6800.00
00480              -7.80    -6800.00
00481              -8.80    -6600.00
00482              -7.40    -6600.00
00483              -6.80    -6600.00
00484              -7.60    -6600.00
00485              -8.40    -6600.00
00486              -6.60    -6600.00
00487              -6.40    -6400.00
00488              -8.40    -6400.00
00489              -7.40    -6400.00
00490              -5.00    -6200.00
00491              -7.00    -6200.00
00492              -7.40    -6400.00
00493              -5.00    -6000.00
00494              -5.80    -6000.00
00495              -7.40    -6000.00
00496              -5.80    -6000.00
00497              -4.60    -6000.00
00498              -6.20    -6000.00
00499              -6.20    -6000.00
00500              -4.20    -5800.00
00501              -5.40    -5600.00
00502              -6.00    -5600.00
00503              -4.40    -5600.00
00504              -4.60    -5400.00
00505              -6.00    -5600.00
00506              -5.00    -5600.00
00507              -4.20    -5200.00
00508              -5.00    -5200.00
00509              -5.00    -5200.00
00510              -3.60    -5200.00
00511              -4.40    -5000.00
00512              -5.00    -5000.00
00513              -3.60    -4800.00
00514              -3.60    -4600.00
00515              -5.00    -4800.00
00516              -4.20    -4600.00
00517              -3.20    -4600.00
00518              -4.20    -4400.00
00519              -3.80    -4400.00
00520              -3.60    -4400.00
00521              -3.80    -4200.00
00522              -3.80    -4200.00
00523              -3.40    -4200.00
00524              -3.00    -4000.00
00525              -3.60    -4000.00
00526              -3.80    -4000.00
00527              -2.80    -3800.00
00528              -3.00    -3800.00
00529              -3.80    -3600.00
00530              -2.60    -3600.00
00531              -2.60    -3600.00
00532              -3.40    -3400.00
00533              -2.60    -3400.00
00534              -2.40    -3200.00
00535              -2.80    -3200.00
00536              -2.20    -3200.00
00537              -2.40    -3000.00
00538              -2.60    -2800.00
00539              -2.80    -2800.00
00540              -2.00    -2800.00
00541              -2.20    -2600.00
00542              -2.20    -2800.00
00543              -2.00    -2600.00
00544              -1.80    -2400.00
00545              -1.80    -2400.00
00546              -2.00    -2200.00
00547              -1.80    -2200.00
00548              -1.80    -2000.00
00549              -2.00    -2000.00
00550              -1.40    -1800.00
00551              -1.20    -1800.00
00552              -1.60    -1600.00
00553              -1.40    -1600.00
00554              -1.20    -1600.00
00555              -1.00    -1400.00
00556              -1.00    -1400.00
00557              -1.00    -1200.00
00558              -1.00    -1000.00
00559              -0.60    -1000.00
00560              -0.60    -1000.00
00561              -1.00     -800.00
00562              -1.20     -800.00
00563              -0.60     -800.00
00564              -0.40     -600.00
00565              -0.40     -400.00
00566              -0.60     -400.00
00567              -0.60     -400.00
00568              -0.40     -200.00
00569              -0.40        0.00
00570              -1.00        0.00
00571               0.40        0.00
00572               0.40      200.00
00573               0.40      200.00
00574               0.60      400.00
00575              -0.40      400.00
00576               0.40      400.00
00577               0.60      600.00
00578               0.20      600.00
00579               2.20      800.00
00580              11.00     1000.00
00581               8.60     1000.00
00582             -24.60     1200.00
00583             -25.00     1200.00
00584              25.00     1400.00
00585              25.00     1600.00
00586             -25.00     1400.00
00587             -25.00     1600.00
00588              25.00     1800.00
00589              25.00     1800.00
00590             -25.00     2000.00
00591              23.80     2000.00
00592              25.00     2000.00
00593             -25.00     2200.00
00594             -25.00     2000.00
00595              25.00     2400.00
00596              -3.20     2200.00
00597             -25.00     2800.00
00598              25.00     2400.00
00599              25.00     2400.00
00600             -25.00     3000.00
00601               3.00     2800.00
00602              25.00     2800.00
00603             -15.40     3200.00
00604             -25.00     3000.00
00605              25.00     3200.00
00606              25.00     3200.00
00607             -25.00     3400.00
00608             -25.00     3200.00
00609              25.00     3600.00
00610              -6.20     3800.00
00611             -25.00     3600.00
00612              25.00     3800.00
00613              25.00     3800.00
00614             -25.00     4000.00
00615              25.00     4000.00
00616              25.00     4000.00
00617             -25.00     4400.00
00618              -4.60     4200.00
00619              25.00     4400.00
00620             -16.80     4400.00
00621             -22.00     4400.00
00622              25.00     4600.00
00623               3.00     4600.00
00624             -20.40     4800.00
00625              19.00     4800.00
00626              11.60     4800.00
00627             -12.20     5000.00
00628               6.00     4800.00
00629              14.60     5000.00
00630              -2.80     5200.00
00631              -1.00     5200.00
00632              12.80     5400.00
00633               4.40     5400.00
00634              -2.80     5600.00
00635               6.60     5600.00
00636              10.60     5600.00
00637               0.40     5600.00
00638               0.20     5600.00
00639              12.60     5800.00
00640               5.00     5800.00
00641              -2.00     5800.00
00642               9.80     6000.00
00643               9.00     5800.00
00644              -0.40     6000.00
00645               6.00     6000.00
00646              11.40     6200.00
00647               2.60     6200.00
00648               2.80     6200.00
00649              11.00     6400.00
00650               5.40     6200.00
00651               2.80     6400.00
00652               8.60     6400.00
00653               8.20     6400.00
00654               5.00     6400.00
00655               6.60     6600.00
00656               9.00     6600.00
00657               6.60     6600.00
00658               6.20     6600.00
00659               8.80     6600.00
00660               8.20     6800.00
00661               7.00     6800.00
00662               8.00     6800.00
00663               9.20     6800.00
00664               7.60     6800.00
00665               7.40     7000.00
00666              10.00     7000.00
00667               9.80     7000.00
00668               8.20     7000.00
00669               9.00     7000.00
00670              10.20     7000.00
00671               9.40     7000.00
00672               9.20     7200.00
00673              10.20     7200.00
00674              10.00     7200.00
00675               9.80     7000.00
00676              11.40     7200.00
00677              11.00     7200.00
00678              10.40     7200.00
00679              10.80     7200.00
00680              11.40     7200.00
00681              11.80     7200.00
00682              11.40     7200.00
00683              11.60     7200.00
00684              12.20     7200.00
00685              12.20     7200.00
00686              12.20     7200.00
00687              12.20     7200.00
00688              12.60     7200.00
00689              12.80     7200.00
00690              13.00     7200.00
00691              12.20     7200.00
00692              12.60     7200.00
00693              13.00     7200.00
00694              12.00     7200.00
00695              12.60     7200.00
00696              13.00     7200.00
00697              11.60     7400.00
00698              12.20     7200.00
00699              12.40     7200.00
00700              11.80     7200.00
00701              10.60     7200.00
00702              10.80     7200.00
00703              11.40     7000.00
00704              11.00     7200.00
00705               9.80     7200.00
00706              10.40     7200.00
00707               9.80     7200.00
00708               9.20     7000.00
00709               9.40     7000.00
00710               9.80     7000.00
00711               8.40     6800.00
00712               8.80     7000.00
00713               9.20     6800.00
00714               8.40     7000.00
00715               8.20     6800.00
00716               8.20     6800.00
00717               8.20     6800.00
00718               7.60     7000.00
00719               7.60     6600.00
00720               7.40     6600.00
00721               7.00     6600.00
00722               7.40     6800.00
00723               7.20     6600.00
00724               6.60     6400.00
00725               6.60     6400.00
00726               6.60     6400.00
00727               6.80     6400.00
00728               6.00     6400.00
00729               6.00     6200.00
00730               6.20     6200.00
00731               6.00     6200.00
00732               5.80     6200.00
00733               5.80     6200.00
00734               5.40     6000.00
00735               5.80     6000.00
00736               5.40     5800.00
00737               5.00     6000.00
00738               5.20     5800.00
00739               5.20     6000.00
00740               5.00     5600.00
00741               4.80     5600.00
00742               4.60     5800.00
00743               4.60     5600.00
00744               4.60     5400.00
00745               4.40     5400.00
00746               4.40     5400.00
00747               4.20     5400.00
00748               4.20     5200.00
00749               4.20     5200.00
00750               3.80     5200.00
00751               3.80     5000.00
00752               4.20     4800.00
00753               3.40     4800.00
00754               3.40     4800.00
00755               4.20     4800.00
00756               3.00     4600.00
00757               2.80     4600.00
00758               3.80     4400.00
00759               3.60     4400.00
00760               3.00     4400.00
00761               3.00     4400.00
00762               3.20     4000.00
00763               3.00     4200.00
00764               2.60     4000.00
00765               2.60     4000.00
00766               2.80     3800.00
00767               2.00     4000.00
00768               2.60     3800.00
00769               3.00     3600.00
00770               2.20     3600.00
00771               2.00     3600.00
00772               2.20     3400.00
00773               2.20     3400.00
00774               1.80     3200.00
00775               1.80     3200.00
00776               2.00     3200.00
00777               2.20     3000.00
00778               1.80     2800.00
00779               1.20     2800.00
00780               1.80     2800.00
00781               1.80     2600.00
00782               1.20     2400.00
00783               1.40     2400.00
00784               1.00     2200.00
00785               1.40     2200.00
00786               1.20     2200.00
00787               0.40     2000.00
00788               1.00     2000.00
00789               1.40     1800.00
00790               0.40     1800.00
00791               0.20     1800.00
00792               1.40     1600.00
00793               0.80     1800.00
00794              -0.20     1600.00
00795               1.00     1400.00
00796               1.00     1200.00
00797              -0.20     1400.00
00798               0.20     1200.00
00799               0.40     1000.00
00800              -0.20      800.00
00801              -0.20      800.00
00802               0.40      800.00
00803               0.00      600.00
00804              -0.40      600.00
00805               0.20      400.00
00806               0.00      400.00
00807              -0.40      400.00
00808              -0.40      200.00
00809               0.20      200.00
00810              -0.40        0.00
00811               0.20        0.00
00812               0.20     -200.00
00813               0.20     -400.00
00814               0.00     -400.00
00815              -1.00     -400.00
00816              -0.80     -400.00
00817               0.20     -400.00
00818              -0.80     -800.00
00819               3.60     -800.00
00820              21.20    -1000.00
00821             -14.20    -1200.00
00822             -25.00    -1000.00
00823               9.00    -1000.00
00824              25.00    -1200.00
00825             -10.00    -1600.00
00826             -25.00    -1200.00
00827              25.00    -1600.00
00828              25.00    -1800.00
00829             -25.00    -2000.00
00830             -25.00    -1800.00
00831              25.00    -2000.00
00832              25.00    -2400.00
00833             -25.00    -1600.00
00834              25.00    -2400.00
00835              25.00    -2600.00
00836             -25.00    -2000.00
00837             -24.00    -2800.00
00838              25.00    -2400.00
00839             -25.00    -2600.00
00840             -25.00    -2800.00
00841              25.00    -2800.00
00842               8.40    -3200.00
00843             -25.00    -2800.00
00844             -25.00    -3400.00
00845              25.00    -3200.00
00846              12.40    -3200.00
00847             -25.00    -3600.00
00848              25.00    -3200.00
00849              25.00    -3600.00
00850             -25.00    -3400.00
00851              17.80    -3600.00
00852              25.00    -4000.00
00853             -25.00    -3600.00
00854             -14.80    -4200.00
00855              25.00    -4000.00
00856             -25.00    -4200.00
00857             -25.00    -4200.00
00858              25.00    -4200.00
00859               1.20    -4400.00
00860             -25.00    -4400.00
00861              11.60    -4600.00
00862              20.00    -4400.00
00863             -25.00    -4400.00
00864              -2.80    -4800.00
00865              20.60    -4600.00
00866             -22.60    -5000.00
00867             -10.60    -4800.00
00868              11.20    -5200.00
00869              -7.00    -5000.00
00870             -14.80    -5000.00
00871               1.40    -5200.00
00872               4.60    -5200.00
00873             -17.00    -5400.00
00874              -7.00    -5600.00
00875               7.80    -5600.00
00876             -10.80    -5600.00
00877             -13.20    -5800.00
00878               2.60    -5800.00
00879              -0.40    -5800.00
00880             -15.60    -5800.00
00881              -5.40    -6000.00
00882               5.00    -6000.00
00883             -13.80    -6000.00
00884             -10.20    -6000.00
00885               4.20    -6000.00
00886              -8.20    -6200.00
00887             -13.40    -6000.00
00888              -2.20    -6200.00
00889              -2.00    -6400.00
00890             -12.40    -6400.00
00891              -8.40    -6400.00
00892              -0.60    -6600.00
00893             -10.20    -6400.00
00894              -9.80    -6400.00
00895              -3.80    -6600.00
00896              -8.60    -6600.00
00897              -9.40    -6600.00
00898              -6.60    -6600.00
00899              -7.00    -6800.00
00900              -9.00    -6800.00
00901              -9.00    -6800.00
00902              -7.60    -6800.00
00903              -8.20    -6800.00
00904              -9.20    -6800.00
00905             -10.20    -7000.00
00906              -9.00    -7000.00
00907              -6.80    -6800.00
00908             -11.60    -7000.00
00909             -11.40    -7000.00
00910              -7.80    -7000.00
00911             -10.20    -7200.00
00912             -12.20    -7200.00
00913             -10.00    -7200.00
00914              -8.80    -7200.00
00915             -11.80    -7200.00
00916             -12.60    -7200.00
00917              -8.40    -7200.00
00918             -11.60    -7200.00
00919             -15.00    -7200.00
00920             -10.20    -7200.00
00921              -9.20    -7200.00
00922             -14.40    -7200.00
00923             -14.60    -7400.00
00924              -9.00    -7200.00
00925             -11.80    -7400.00
00926             -15.60    -7200.00
00927             -11.00    -7200.00
00928             -11.00    -7400.00
00929             -14.60    -7400.00
00930             -15.00    -7200.00
00931             -10.80    -7200.00
00932             -13.00    -7400.00
00933             -15.80    -7200.00
00934             -11.80    -7400.00
00935             -10.80    -7400.00
00936             -15.00    -7200.00
00937             -14.20    -7200.00
00938             -10.20    -7200.00
00939             -11.80    -7200.00
00940             -13.80    -7200.00
00941             -11.40    -7200.00
00942             -11.20    -7200.00
00943             -12.20    -7200.00
00944             -11.40    -7200.00
00945             -10.00    -7200.00
00946             -10.80    -7200.00
00947             -10.80    -7200.00
00948              -9.20    -7000.00
00949              -9.80    -7000.00
00950             -10.20    -7200.00
00951             -10.00    -7000.00
00952              -8.60    -7000.00
00953              -9.20    -6800.00
00954              -9.40    -7000.00
00955              -8.60    -6800.00
00956              -8.40    -6800.00
00957              -9.40    -6800.00
00958              -8.20    -6800.00
00959              -7.60    -6800.00
00960              -8.20    -6800.00
00961              -7.80    -6600.00
00962              -7.40    -6600.00
00963              -7.80    -6600.00
00964              -7.60    -6600.00
00965              -7.00    -6600.00
00966              -7.00    -6400.00
00967              -7.40    -6400.00
00968              -7.00    -6400.00
00969              -6.60    -6200.00
00970              -7.00    -6400.00
00971              -7.40    -6200.00
00972              -5.80    -6200.00
00973              -6.20    -6200.00
00974              -7.00    -6000.00
00975              -6.20    -6000.00
00976              -5.20    -6000.00
00977              -6.20    -5800.00
00978              -6.60    -5800.00
00979              -5.00    -5800.00
00980              -5.20    -5800.00
00981              -6.60    -5800.00
00982              -5.00    -5600.00
00983              -4.60    -5600.00
00984              -6.00    -5600.00
00985              -5.20    -5200.00
00986              -4.60    -5200.00
00987              -5.60    -5400.00
00988              -5.00    -5200.00
00989              -4.20    -5200.00
00990              -4.20    -5000.00
00991              -5.40    -5000.00
00992              -4.40    -5000.00
00993              -3.60    -5000.00
00994              -4.60    -4600.00
00995              -4.60    -4600.00
00996              -3.40    -4600.00
00997              -4.00    -4600.00
00998              -4.60    -4400.00
00999              -3.00    -4400.00
01000              -4.20    -4400.00
01001              -4.20    -4400.00
01002              -2.80    -4200.00
01003              -3.60    -4200.00
01004              -4.20    -4000.00
01005              -2.60    -4200.00
01006              -3.00    -4000.00
01007              -4.00    -4000.00
01008              -2.60    -3800.00
01009              -3.00    -3600.00
01010              -3.60    -3600.00
01011              -2.40    -3400.00
01012              -2.00    -3600.00
01013              -3.00    -3200.00
01014              -2.80    -3200.00
01015              -2.40    -3200.00
01016              -2.60    -3000.00
01017              -2.60    -3000.00
01018              -2.20    -2800.00
01019              -2.20    -2800.00
01020              -2.40    -2800.00
01021              -2.00    -2600.00
01022              -2.00    -2600.00
01023              -2.20    -2600.00
01024              -2.00    -2400.00
01025              -1.80    -2400.00
01026              -1.80    -2400.00
01027              -1.60    -2000.00
01028              -1.80    -2200.00
01029              -1.80    -2000.00
01030              -1.40    -1800.00
01031              -1.40    -1800.00
01032              -1.80    -1600.00
01033              -1.20    -1800.00
01034              -1.20    -1600.00
01035              -1.20    -1400.00
01036              -1.00    -1200.00
01037              -1.20    -1200.00
01038              -1.20    -1200.00
01039              -1.00    -1000.00
01040              -0.80    -1000.00
01041              -1.00     -800.00
01042              -0.80     -800.00
01043              -1.00     -800.00
01044              -0.80     -400.00
01045              -1.00     -600.00
01046              -0.60     -400.00
01047              -0.40     -400.00
01048              -0.60     -200.00
01049              -0.60     -200.00
01050              -0.40        0.00
01051              -0.20        0.00
01052              -0.20        0.00
01053               0.40      200.00
01054               1.00      200.00
01055              -0.60      400.00
01056              -0.60      400.00
01057               0.60      600.00
01058               0.20      600.00
01059               1.00      800.00
01060               9.00      800.00
01061              12.40     1200.00
01062             -20.40     1200.00
01063             -25.00     1200.00
01064              22.60     1200.00
01065              25.00     1400.00
01066             -25.00     1800.00
01067             -25.00     1600.00
01068              25.00     2000.00
01069              25.00     1600.00
01070             -25.00     2000.00
01071             -25.00     2000.00
01072              25.00     2000.00
01073             -25.00     2000.00
01074             -25.00     2200.00
01075              25.00     2400.00
01076              25.00     2000.00
01077             -25.00     2800.00
01078              25.00     2600.00
01079              25.00     2400.00
01080             -25.00     3000.00
01081             -21.20     2800.00
01082              25.00     3000.00
01083               2.60     3000.00
01084             -25.00     3000.00
01085              14.20     3200.00
01086              25.00     3000.00
01087             -25.00     3600.00
01088             -25.00     3200.00
01089              25.00     3600.00
01090              18.20     3800.00
01091             -25.00     3600.00
01092              25.00     3600.00
01093              25.00     3800.00
01094             -25.00     4000.00
01095               6.20     4000.00
01096              25.00     4000.00
01097             -25.00     4200.00
01098             -22.00     4000.00
01099              25.00     4400.00
01100              -3.00     4400.00
01101             -25.00     4400.00
01102              25.00     4600.00
01103              13.80     4600.00
01104             -22.00     4800.00
01105              11.60     4600.00
01106              18.00     4800.00
01107             -10.80     5000.00
01108               0.40     4800.00
01109              16.60     5200.00
01110              -1.00     5200.00
01111              -3.40     5200.00
01112              11.80     5400.00
01113               7.00     5400.00
01114              -2.80     5600.00
01115               3.80     5400.00
01116              12.20     5600.00
01117               1.40     5600.00
01118              -1.20     5600.00
01119              11.60     5800.00
01120               6.80     5600.00
01121              -2.00     5800.00
01122               7.60     6000.00
01123              10.20     6000.00
01124               0.40     6000.00
01125               3.60     6000.00
01126              11.80     6200.00
01127               3.80     6000.00
01128               1.80     6200.00
01129              10.40     6400.00
01130               7.60     6400.00
01131               2.60     6400.00
01132               6.80     6400.00
01133               9.20     6400.00
01134               5.80     6600.00
01135               5.80     6400.00
01136               9.00     6800.00
01137               7.20     6400.00
01138               6.20     6800.00
01139               8.20     6800.00
01140               8.60     6800.00
01141               7.00     6800.00
01142               7.00     6800.00
01143              10.20     6800.00
01144               8.40     6800.00
01145               6.80     6800.00
01146               9.40     7000.00
01147              10.00     7000.00
01148               8.60     7000.00
01149               9.00     6800.00
01150              10.00     7200.00
01151               9.40     7000.00
01152              10.20     7000.00
01153              10.20     7200.00
01154               9.20     7200.00
01155              10.80     7200.00
01156              11.20     7200.00
01157               9.80     7200.00
01158              11.40     7200.00
01159              11.20     7200.00
01160              10.80     7200.00
01161              11.60     7200.00
01162              12.20     7200.00
01163              11.80     7200.00
01164              11.60     7200.00
01165              12.40     7200.00
01166              12.20     7200.00
01167              12.20     7200.00
01168              11.80     7400.00
01169              13.00     7200.00
01170              12.80     7200.00
01171              12.40     7200.00
01172              12.40     7200.00
01173              13.00     7200.00
01174              11.80     7200.00
01175              12.40     7200.00
01176              12.80     7200.00
01177              12.20     7000.00
01178              11.40     7200.00
01179              11.60     7000.00
01180              13.20     7200.00
01181              10.60     7200.00
01182               9.80     7200.00
01183              11.60     7000.00
01184              11.60     7200.00
01185               8.40     7000.00
01186              10.60     7000.00
01187              10.80     7000.00
01188               8.40     7200.00
01189               9.00     7200.00
01190              10.60     7000.00
01191               8.20     7000.00
01192               7.80     7000.00
01193               9.80     7000.00
01194               8.60     6800.00
01195               7.20     6800.00
01196               8.40     6800.00
01197               8.40     6800.00
01198               7.20     6800.00
01199               7.60     6800.00
01200               7.80     6800.00
01201               7.00     6600.00
01202               7.00     6600.00
01203               7.40     6400.00
01204               7.20     6400.00
01205               6.00     6600.00
01206               6.60     6400.00
01207               7.40     6600.00
01208               6.40     6400.00
01209               5.80     6400.00
01210               6.80     6200.00
01211               6.00     6400.00
01212               5.80     6200.00
01213               6.00     6200.00
01214               5.80     6200.00
01215               5.00     6000.00
01216               5.40     6000.00
01217               5.80     6000.00
01218               5.20     6000.00
01219               4.80     6000.00
01220               5.20     5800.00
01221               5.40     5600.00
01222               4.20     5600.00
01223               4.60     5600.00
01224               5.20     5400.00
01225               4.20     5600.00
01226               4.20     5400.00
01227               4.40     5200.00
01228               4.00     5200.00
01229               3.80     5200.00
01230               4.40     5200.00
01231               3.80     5000.00
01232               3.40     4800.00
01233               3.40     4800.00
01234               3.60     4800.00
01235               3.60     4800.00
01236               2.80     4600.00
01237               3.00     4600.00
01238               3.60     4600.00
01239               2.80     4400.00
01240               2.80     4400.00
01241               3.00     4000.00
01242               3.00     4200.00
01243               2.60     4000.00
01244               3.00     4000.00
01245               2.80     4000.00
01246               1.80     3800.00
01247               2.60     3800.00
01248               2.80     3800.00
01249               1.80     3600.00
01250               2.00     3600.00
01251               2.60     3600.00
01252               1.80     3400.00
01253               2.00     3400.00
01254               2.60     3200.00
01255               2.00     3200.00
01256               1.40     3000.00
01257               2.40     3000.00
01258               1.80     3000.00
01259               1.00     2800.00
01260               1.80     2800.00
01261               1.80     2600.00
01262               1.20     2600.00
01263               1.40     2600.00
01264               1.40     2400.00
01265               1.40     2200.00
01266               1.20     2200.00
01267               1.00     2200.00
01268               1.20     2000.00
01269               1.00     2000.00
01270               0.80     2000.00
01271               1.20     1600.00
01272               1.20     1800.00
01273               0.60     1600.00
01274               0.80     1800.00
01275               1.00     1400.00
01276               0.60     1400.00
01277               0.40     1400.00
01278               0.60     1200.00
01279               0.20     1000.00
01280               0.40      800.00
01281               0.40      800.00
01282               0.40      800.00
01283               0.20      600.00
01284               0.20      600.00
01285               0.40      600.00
01286               0.20      400.00
01287              -0.20      200.00
01288               0.20      200.00
01289               0.20        0.00
01290              -0.40        0.00
01291              -0.20     -200.00
01292               0.20        0.00
01293               0.20     -400.00
01294               0.40     -200.00
01295              -0.60     -400.00
01296              -0.60     -400.00
01297               0.20     -800.00
01298              -0.60     -400.00
01299               1.80     -800.00
01300              19.60    -1000.00
01301              -4.60    -1200.00
01302             -25.00    -1400.00
01303             -15.00    -1000.00
01304              25.00    -1200.00
01305              16.40    -1600.00
01306             -25.00    -1400.00
01307              25.00    -1600.00
01308              25.00    -1600.00
01309             -25.00    -2000.00
01310             -25.00    -1600.00
01311              25.00    -2000.00
01312              25.00    -2400.00
01313             -25.00    -1600.00
01314              13.40    -2400.00
01315              25.00    -2400.00
01316             -25.00    -2200.00
01317             -25.00    -2800.00
01318              25.00    -2600.00
01319             -25.00    -2800.00
01320             -25.00    -2400.00
01321              25.00    -3000.00
01322              25.00    -3200.00
01323             -25.00    -2800.00
01324             -25.00    -3400.00
01325              25.00    -3200.00
01326              25.00    -3200.00
01327             -25.00    -3600.00
01328              24.60    -3200.00
01329              25.00    -3600.00
01330             -25.00    -3400.00
01331             -17.60    -3800.00
01332              25.00    -4000.00
01333             -25.00    -3600.00
01334             -25.00    -4200.00
01335              25.00    -3800.00
01336             -16.60    -4200.00
01337             -25.00    -4200.00
01338              25.00    -4200.00
01339              12.60    -4400.00
01340             -25.00    -4200.00
01341               0.00    -4400.00
01342              25.00    -4600.00
01343             -25.00    -4600.00
01344             -12.00    -4800.00
01345              23.60    -4600.00
01346             -17.40    -4800.00
01347             -14.20    -4600.00
01348               9.80    -5000.00
01349              -4.40    -5000.00
01350             -14.00    -5200.00
01351              -2.00    -5200.00
01352               6.80    -5200.00
01353             -14.60    -5400.00
01354             -10.00    -5600.00
01355               8.20    -5400.00
01356              -8.80    -5600.00
01357             -13.80    -5600.00
01358               0.80    -5800.00
01359               1.20    -5800.00
01360             -14.20    -5800.00
01361              -8.20    -5800.00
01362               5.80    -6000.00
01363             -12.20    -6000.00
01364             -12.40    -6000.00
01365               3.60    -6000.00
01366              -6.20    -6200.00
01367             -14.00    -6000.00
01368              -3.60    -6400.00
01369              -0.60    -6400.00
01370             -12.60    -6400.00
01371              -9.40    -6400.00
01372              -0.60    -6400.00
01373              -9.00    -6400.00
01374             -10.60    -6600.00
01375              -4.60    -6400.00
01376              -7.00    -6600.00
01377             -10.20    -6600.00
01378              -7.60    -6800.00
01379              -5.80    -6800.00
01380              -9.80    -6800.00
01381             -10.00    -6800.00
01382              -6.80    -6800.00
01383              -8.60    -6800.00
01384             -10.60    -6800.00
01385              -9.00    -6800.00
01386              -8.20    -6800.00
01387              -9.80    -7000.00
01388             -10.20    -7000.00
01389             -10.00    -7000.00
01390              -9.80    -7200.00
01391             -10.20    -7200.00
01392             -10.40    -7200.00
01393             -10.80    -7200.00
01394             -10.60    -7200.00
01395             -10.20    -7200.00
01396             -11.60    -7200.00
01397             -11.20    -7200.00
01398             -10.20    -7200.00
01399             -12.40    -7200.00
01400             -12.20    -7200.00
01401             -10.60    -7200.00
01402             -12.00    -7200.00
01403             -13.40    -7200.00
01404             -11.40    -7400.00
01405             -11.60    -7200.00
01406             -13.40    -7400.00
01407             -13.00    -7200.00
01408             -12.20    -7200.00
01409             -12.80    -7400.00
01410             -13.20    -7400.00
01411             -13.20    -7200.00
01412             -12.60    -7400.00
01413             -13.40    -7200.00
01414             -13.20    -7400.00
01415             -11.80    -7400.00
01416             -13.80    -7200.00
01417             -13.60    -7200.00
01418             -11.40    -7400.00
01419             -12.40    -7200.00
01420             -12.40    -7200.00
01421             -11.40    -7200.00
01422             -11.80    -7200.00
01423             -11.40    -7200.00
01424             -11.00    -7200.00
01425             -11.00    -7200.00
01426             -10.40    -7200.00
01427             -10.40    -7000.00
01428             -10.40    -7200.00
01429              -9.40    -7200.00
01430              -9.80    -7200.00
01431             -10.80    -7000.00
01432              -9.00    -7200.00
01433              -8.40    -7000.00
01434             -10.20    -7000.00
01435              -9.40    -7000.00
01436              -7.40    -6800.00
01437              -9.40    -6800.00
01438              -9.20    -6800.00
01439              -7.20    -6800.00
01440              -8.40    -6800.00
01441              -8.60    -6600.00
01442              -7.00    -6600.00
01443              -8.20    -6600.00
01444              -7.60    -6600.00
01445              -7.00    -6600.00
01446              -7.60    -6400.00
01447              -7.40    -6600.00
01448              -7.00    -6400.00
01449              -7.60    -6400.00
01450              -7.00    -6400.00
01451              -6.20    -6200.00
01452              -6.60    -6200.00
01453              -6.80    -6200.00
01454              -6.20    -6000.00
01455              -6.00    -6000.00
01456              -6.60    -6000.00
01457              -5.40    -5800.00
01458              -6.20    -6000.00
01459              -6.00    -6000.00
01460              -4.60    -5800.00
01461              -5.60    -5600.00
01462              -5.80    -5600.00
01463              -5.20    -5600.00
01464              -5.00    -5600.00
01465              -5.00    -5600.00
01466              -5.20    -5600.00
01467              -4.60    -5200.00
01468              -4.40    -5400.00
01469              -5.20    -5200.00
01470              -4.40    -5200.00
01471              -4.40    -5200.00
01472              -4.20    -5000.00
01473              -4.40    -5000.00
01474              -3.80    -5000.00
01475              -4.20    -4600.00
01476              -4.20    -4600.00
01477              -3.80    -4600.00
01478              -3.60    -4600.00
01479              -3.80    -4400.00
01480              -3.40    -4400.00
01481              -3.80    -4400.00
01482              -4.00    -4200.00
01483              -2.80    -4200.00
01484              -3.40    -4200.00
01485              -3.80    -4000.00
01486              -3.40    -4000.00
01487              -2.20    -3800.00
01488              -3.00    -3800.00
01489              -3.40    -3600.00
01490              -2.60    -3600.00
01491              -2.60    -3600.00
01492              -3.40    -3600.00
01493              -3.00    -3400.00
01494              -1.80    -3400.00
01495              -3.60    -3200.00
01496              -2.20    -3200.00
01497              -1.80    -3200.00
01498              -2.80    -3200.00
01499              -2.80    -3200.00
01500              -2.20    -2800.00
01501              -2.00    -2800.00
01502              -2.80    -2800.00
01503              -1.80    -2400.00
01504              -2.00    -2600.00
01505              -2.20    -2400.00
01506              -1.80    -2400.00
01507              -2.20    -2200.00
01508              -1.80    -2000.00
01509              -2.20    -2000.00
01510              -1.20    -2000.00
01511              -0.80    -1800.00
01512              -2.80    -1600.00
01513              -2.00    -1600.00
01514              -0.20    -1600.00
01515              -1.80    -1600.00
01516              -2.20    -1400.00
01517              -0.20    -1200.00
01518              -1.20    -1200.00
01519              -2.40    -1200.00
01520               0.20    -1000.00
01521              -0.20     -800.00
01522              -1.80     -800.00
01523              -0.40     -800.00
01524              -0.20     -600.00
01525              -1.40     -600.00
01526              -0.60     -400.00
01527              -1.00     -400.00
01528              -1.00     -200.00
01529              -0.20     -200.00
01530              -0.40        0.00
01531               0.20        0.00
01532               0.60      200.00
01533               0.20      400.00
01534               1.00      400.00
01535              -0.20      400.00
01536              -1.00      600.00
01537               0.40      600.00
01538               1.00      600.00
01539               0.40      800.00
01540               6.60     1000.00
01541              15.40     1200.00
01542             -13.80     1200.00
01543             -25.00     1200.00
01544               4.60     1200.00
01545              25.00     1400.00
01546              -4.20     1800.00
01547             -25.00     1400.00
01548              25.00     1800.00
01549              25.00     1600.00
01550             -25.00     1800.00
01551             -25.00     2000.00
01552              25.00     2000.00
01553              16.20     2000.00
01554             -25.00     2400.00
01555              25.00     2400.00
01556              25.00     2200.00
01557             -25.00     2800.00
01558              25.00     2400.00
01559              25.00     2800.00
01560             -25.00     2600.00
01561             -25.00     2800.00
01562              25.00     2800.00
01563              20.60     2800.00
01564             -25.00     3200.00
01565              -4.60     3200.00
01566              25.00     3000.00
01567             -11.40     3600.00
01568             -25.00     3200.00
01569              25.00     3600.00
01570              25.00     3600.00
01571             -25.00     3600.00
01572              19.40     3800.00
01573              25.00     3600.00
01574             -25.00     4000.00
01575             -13.20     3800.00
01576              25.00     4000.00
01577             -16.60     4000.00
01578             -25.00     4000.00
01579              25.00     4400.00
01580               9.00     4400.00
01581             -25.00     4600.00
01582              21.60     4400.00
01583              21.80     4600.00
01584             -21.20     4600.00
01585               4.20     4600.00
01586              21.40     4800.00
01587              -8.00     4800.00
01588              -3.40     4800.00
01589              16.40     5200.00
01590               2.00     5000.00
01591              -4.00     5200.00
01592               9.40     5200.00
01593               9.20     5400.00
01594              -2.20     5400.00
01595               1.20     5400.00
01596              12.60     5600.00
01597               3.40     5600.00
01598              -2.00     5600.00
01599              10.20     5800.00
01600               8.60     5800.00
01601              -1.20     6000.00
01602               5.20     6000.00
01603              11.40     6000.00
01604               1.80     6000.00
01605               2.60     6000.00
01606              11.80     6200.00
01607               4.80     6200.00
01608               1.80     6200.00
01609               9.60     6200.00
01610               8.20     6400.00
01611               3.00     6400.00
01612               6.40     6400.00
01613              10.20     6600.00
01614               5.80     6400.00
01615               5.20     6400.00
01616               9.00     6800.00
01617               6.80     6600.00
01618               6.60     6600.00
01619               8.40     6600.00
01620               9.00     6800.00
01621               7.00     6800.00
01622               7.40     6800.00
01623              10.00     7000.00
01624               8.40     6800.00
01625               7.00     6800.00
01626               9.20     6800.00
01627               9.40     7000.00
01628               9.40     7000.00
01629               8.40     7000.00
01630              10.00     7200.00
01631              10.00     7000.00
01632               9.00     7000.00
01633              10.00     7000.00
01634              10.00     7200.00
01635              10.20     7000.00
01636              10.20     7200.00
01637              11.40     7200.00
01638              11.00     7200.00
01639              10.00     7200.00
01640              11.00     7200.00
01641              11.60     7200.00
01642              11.60     7200.00
01643              11.60     7200.00
01644              11.60     7200.00
01645              12.40     7200.00
01646              12.40     7200.00
01647              11.80     7200.00
01648              11.80     7200.00
01649              11.80     7200.00
01650              13.00     7400.00
01651              13.40     7200.00
01652              13.00     7200.00
01653              12.60     7400.00
01654              12.40     7200.00
01655              12.40     7200.00
01656              12.20     7200.00
01657              12.60     7200.00
01658              11.80     7200.00
01659              11.00     7200.00
01660              12.60     7000.00
01661              11.00     7200.00
01662               9.80     7200.00
01663              11.60     7000.00
01664              11.60     7000.00
01665               9.00     7200.00
01666              10.60     7200.00
01667              10.60     7000.00
01668               8.80     7200.00
01669               9.20     7000.00
01670              10.60     7000.00
01671               8.60     7000.00
01672               8.20     7000.00
01673               9.80     7000.00
01674               9.00     7000.00
01675               7.40     7000.00
01676               8.60     6800.00
01677               9.00     6800.00
01678               7.00     6800.00
01679               7.40     6800.00
01680               8.20     6800.00
01681               6.80     6800.00
01682               6.80     6400.00
01683               7.80     6400.00
01684               6.80     6600.00
01685               6.60     6400.00
01686               6.60     6400.00
01687               6.80     6400.00
01688               6.20     6400.00
01689               6.20     6200.00
01690               6.60     6200.00
01691               5.80     6200.00
01692               6.00     6000.00
01693               5.80     6200.00
01694               5.20     6000.00
01695               5.20     6000.00
01696               5.80     6000.00
01697               5.40     6000.00
01698               4.60     6000.00
01699               4.60     6000.00
01700               5.40     5800.00
01701               5.00     5600.00
01702               4.20     5600.00
01703               5.00     5600.00
01704               4.40     5600.00
01705               4.20     5600.00
01706               4.20     5400.00
01707               4.20     5400.00
01708               3.60     5200.00
01709               3.80     5200.00
01710               4.40     5200.00
01711               3.80     5000.00
01712               3.00     5000.00
01713               3.60     4800.00
01714               3.80     4800.00
01715               3.40     4800.00
01716               3.00     4600.00
01717               3.40     4600.00
01718               3.60     4600.00
01719               3.20     4400.00
01720               3.00     4400.00
01721               3.00     4400.00
01722               2.60     4400.00
01723               2.80     4000.00
01724               2.80     4000.00
01725               2.60     4000.00
01726               2.80     4000.00
01727               2.40     3800.00
01728               2.20     3800.00
01729               2.80     3800.00
01730               2.60     3600.00
01731               1.80     3600.00
01732               2.20     3600.00
01733               2.60     3400.00
01734               2.00     3200.00
01735               1.80     3200.00
01736               2.00     3200.00
01737               2.00     3200.00
01738               1.80     3000.00
01739               1.40     3000.00
01740               1.80     2800.00
01741               1.40     2600.00
01742               1.20     2400.00
01743               1.60     2400.00
01744               1.40     2400.00
01745               1.20     2400.00
01746               1.00     2400.00
01747               2.00     2000.00
01748               1.20     2200.00
01749               0.20     2000.00
01750               1.80     2000.00
01751               1.20     1800.00
01752              -0.40     1600.00
01753               1.20     1800.00
01754               1.20     1600.00
01755              -0.40     1400.00
01756               1.00     1200.00
01757               1.20     1400.00
01758              -0.60     1200.00
01759               0.40      800.00
01760               1.20     1000.00
01761              -0.40      800.00
01762              -0.20      800.00
01763               0.60      600.00
01764              -0.20      600.00
01765              -0.20      400.00
01766               0.40      400.00
01767              -0.20      200.00
01768              -0.40      400.00
01769               0.20      200.00
01770              -0.60        0.00
01771              -0.40        0.00
01772               0.20     -200.00
01773              -0.20     -400.00
01774               0.20     -200.00
01775              -0.60     -400.00
01776              -0.60     -400.00
01777              -0.60     -400.00
01778              -0.60     -600.00
01779               1.00     -800.00
01780              16.40    -1000.00
01781               4.40    -1200.00
01782             -25.00    -1200.00
01783             -25.00    -1000.00
01784              25.00    -1200.00
01785              25.00    -1400.00
01786             -25.00    -1600.00
01787             -13.00    -1400.00
01788              25.00    -1600.00
01789              -6.60    -2000.00
01790             -25.00    -1400.00
01791              25.00    -2000.00
01792              25.00    -2200.00
01793             -25.00    -1600.00
01794             -25.00    -2400.00
01795              25.00    -2400.00
01796             -14.80    -2600.00
01797             -25.00    -2400.00
01798              25.00    -2600.00
01799              23.40    -2800.00
01800             -25.00    -2400.00
01801              25.00    -3200.00
01802              25.00    -2800.00
01803             -25.00    -2800.00
01804             -25.00    -3400.00
01805              25.00    -2800.00
01806              25.00    -3200.00
01807             -25.00    -3400.00
01808              -9.20    -3200.00
01809              25.00    -3600.00
01810             -25.00    -3400.00
01811             -25.00    -4000.00
01812              25.00    -3800.00
01813             -25.00    -3600.00
01814             -25.00    -4000.00
01815              25.00    -4000.00
01816               1.40    -4200.00
01817             -25.00    -4000.00
01818              18.40    -4400.00
01819              22.00    -4400.00
01820             -25.00    -4200.00
01821             -10.60    -4600.00
01822              25.00    -4400.00
01823             -22.60    -4600.00
01824             -20.60    -4600.00
01825              24.80    -4600.00
01826             -11.80    -4800.00
01827             -19.40    -4800.00
01828               8.40    -5000.00
01829               0.40    -5000.00
01830             -15.00    -5200.00
01831              -5.80    -5200.00
01832               8.60    -5200.00
01833             -12.60    -5400.00
01834             -14.20    -5600.00
01835               7.20    -5600.00
01836              -4.20    -5600.00
01837             -15.20    -5600.00
01838              -2.60    -5600.00
01839               4.40    -5600.00
01840             -13.20    -5800.00
01841             -12.40    -5800.00
01842               6.00    -5800.00
01843              -8.40    -6000.00
01844             -15.00    -6000.00
01845               2.00    -6000.00
01846              -3.00    -6000.00
01847             -14.60    -6200.00
01848              -6.40    -6200.00
01849               0.40    -6400.00
01850             -11.00    -6400.00
01851             -10.80    -6400.00
01852              -1.00    -6600.00
01853              -7.40    -6600.00
01854             -11.20    -6400.00
01855              -5.80    -6400.00
01856              -6.00    -6800.00
01857              -9.80    -6600.00
01858              -7.60    -6800.00
01859              -5.40    -6600.00
01860              -9.20    -6600.00
01861             -10.20    -6800.00
01862              -7.00    -6800.00
01863              -8.20    -6800.00
01864             -10.40    -6800.00
01865              -9.20    -7000.00
01866              -7.00    -6800.00
01867              -9.80    -7000.00
01868             -10.20    -6800.00
01869              -9.20    -6800.00
01870             -10.80    -7200.00
01871             -10.00    -7200.00
01872              -9.00    -7200.00
01873             -10.80    -7200.00
01874             -11.00    -7200.00
01875              -9.80    -7200.00
01876             -10.80    -7200.00
01877             -11.80    -7200.00
01878             -10.20    -7200.00
01879             -11.80    -7200.00
01880             -12.40    -7400.00
01881             -10.80    -7200.00
01882             -11.80    -7200.00
01883             -13.20    -7200.00
01884             -12.40    -7200.00
01885             -11.80    -7400.00
01886             -13.00    -7200.00
01887             -13.00    -7400.00
01888             -12.40    -7400.00
01889             -13.00    -7200.00
01890             -13.60    -7200.00
01891             -13.00    -7200.00
01892             -13.20    -7400.00
01893             -13.20    -7400.00
01894             -13.80    -7200.00
01895             -13.00    -7400.00
01896             -12.40    -7200.00
01897             -13.80    -7400.00
01898             -13.40    -7400.00
01899             -11.40    -7200.00
01900             -12.40    -7200.00
01901             -13.40    -7200.00
01902             -11.00    -7200.00
01903             -10.80    -7000.00
01904             -12.00    -7200.00
01905             -11.20    -7200.00
01906             -10.20    -7200.00
01907             -11.20    -7200.00
01908             -10.80    -7200.00
01909              -9.80    -7200.00
01910             -10.20    -7000.00
01911             -10.80    -7000.00
01912              -8.60    -7000.00
01913              -8.40    -7000.00
01914             -10.00    -6800.00
01915              -9.40    -6800.00
01916              -7.60    -7000.00
01917              -8.60    -6800.00
01918              -9.40    -6800.00
01919              -7.80    -6800.00
01920              -8.20    -6800.00
01921              -8.80    -6800.00
01922              -7.60    -6600.00
01923              -7.40    -6600.00
01924              -7.60    -6600.00
01925              -7.40    -6600.00
01926              -6.80    -6400.00
01927              -7.00    -6400.00
01928              -7.40    -6400.00
01929              -7.00    -6400.00
01930              -6.40    -6400.00
01931              -6.80    -6400.00
01932              -6.60    -6200.00
01933              -6.20    -6200.00
01934              -6.00    -6200.00
01935              -5.80    -6200.00
01936              -6.00    -6000.00
01937              -5.40    -6000.00
01938              -5.80    -6000.00
01939              -6.00    -6000.00
01940              -5.20    -5800.00
01941              -5.40    -5800.00
01942              -5.40    -5600.00
01943              -5.40    -5600.00
01944              -5.20    -5600.00
01945              -4.40    -5400.00
01946              -5.00    -5600.00
01947              -5.20    -5200.00
01948              -4.40    -5200.00
01949              -4.60    -5400.00
01950              -4.60    -5000.00
01951              -4.40    -5000.00
01952              -4.40    -5000.00
01953              -4.20    -5000.00
01954              -3.80    -4800.00
01955              -4.20    -5000.00
01956              -4.40    -4600.00
01957              -4.20    -4600.00
01958              -4.20    -4400.00
01959              -3.60    -4400.00
01960              -3.40    -4400.00
01961              -4.20    -4400.00
01962              -3.60    -4200.00
01963              -2.80    -4000.00
01964              -3.80    -4200.00
01965              -3.60    -4000.00
01966              -3.00    -4000.00
01967              -3.40    -4000.00
01968              -3.00    -3800.00
01969              -2.80    -3600.00
01970              -3.40    -3600.00
01971              -3.00    -3600.00
01972              -2.80    -3400.00
01973              -2.20    -3600.00
01974              -3.40    -3400.00
01975              -3.00    -3200.00
01976              -1.80    -3200.00
01977              -2.00    -3200.00
01978              -3.40    -3200.00
01979              -2.20    -2800.00
01980              -1.20    -2800.00
01981              -3.00    -2800.00
01982              -2.60    -2600.00
01983              -1.20    -2600.00
01984              -1.20    -2400.00
01985              -2.80    -2400.00
01986              -1.20    -2400.00
01987              -0.80    -2200.00
01988              -2.80    -2000.00
01989              -2.80    -2000.00
01990               1.00    -1800.00
01991              -1.20    -1800.00
01992              -3.80    -1800.00
01993              -0.40    -1600.00
01994               0.60    -1600.00
01995              -1.80    -1600.00
01996              -2.60    -1400.00
01997              -0.20    -1200.00
01998              -0.60    -1200.00
01999              -2.20    -1000.00
02000              -0.80    -1000.00
02001               0.60    -1000.00
02002              -1.20     -800.00
02003              -1.80     -800.00
02004               0.20     -400.00
02005              -0.40     -400.00
02006              -1.20     -400.00
02007              -0.40     -200.00
02008               0.40     -200.00
02009              -0.40     -200.00
02010              -1.00        0.00
02011               0.00        0.00
02012               0.40        0.00
02013               0.20      200.00
02014               1.20      400.00
02015              -0.20      400.00
02016              -0.60      400.00
02017               0.40      600.00
02018               0.40      600.00
02019              -0.40      800.00
02020               5.00     1000.00
02021              16.60      800.00
02022              -7.80     1200.00
02023             -25.00     1200.00
02024             -11.00     1200.00
02025              25.00     1400.00
02026              15.00     1400.00
02027             -25.00     1400.00
02028              25.00     1800.00
02029              25.00     1800.00
02030             -25.00     1800.00
02031             -25.00     2000.00
02032              25.00     2000.00
02033              25.00     2000.00
02034             -25.00     2200.00
02035              25.00     2400.00
02036              25.00     2200.00
02037             -25.00     2800.00
02038              -9.60     2400.00
02039              25.00     2800.00
02040             -25.00     2600.00
02041             -25.00     3000.00
02042              25.00     3000.00
02043              25.00     2800.00
02044             -25.00     3200.00
02045             -22.20     3000.00
02046              25.00     3000.00
02047              10.20     3400.00
02048             -25.00     3200.00
02049              25.00     3600.00
02050              25.00     3600.00
02051             -25.00     3800.00
02052              -4.20     3600.00
02053              25.00     3800.00
02054             -25.00     4200.00
02055             -25.00     3800.00
02056              25.00     4200.00
02057               0.20     4000.00
02058             -25.00     4400.00
02059              25.00     4400.00
02060              22.20     4200.00
02061             -25.00     4600.00
02062              10.20     4400.00
02063              25.00     4600.00
02064             -17.20     4800.00
02065              -4.40     4600.00
02066              24.40     4800.00
02067              -3.20     5000.00
02068              -7.00     5000.00
02069              14.80     4800.00
02070               5.40     5000.00
02071              -4.00     5200.00
02072               6.00     5400.00
02073              10.60     5400.00
02074               0.20     5400.00
02075              -0.40     5400.00
02076              11.60     5600.00
02077               5.80     5600.00
02078              -2.00     5600.00
02079               6.80     5600.00
02080              10.60     5600.00
02081               0.20     5800.00
02082               2.20     6000.00
02083              12.00     6000.00
02084               3.80     6000.00
02085               0.40     6000.00
02086              10.60     6000.00
02087               7.00     6000.00
02088               1.20     6200.00
02089               7.20     6200.00
02090               9.80     6400.00
02091               3.60     6400.00
02092               4.40     6400.00
02093              10.00     6400.00
02094               6.60     6400.00
02095               5.00     6400.00
02096               8.20     6600.00
02097               7.80     6600.00
02098               6.00     6800.00
02099               7.40     6600.00
02100               9.00     6800.00
02101               7.00     6800.00
02102               7.00     6800.00
02103               9.40     6800.00
02104               9.00     6800.00
02105               7.40     6800.00
02106               8.60     6800.00
02107              10.00     7000.00
02108               8.80     7000.00
02109               8.20     7000.00
02110              10.00     7200.00
02111               9.60     7000.00
02112               9.60     7000.00
02113              10.60     7000.00
02114              10.00     7200.00
02115              10.00     7200.00
02116              10.80     7000.00
02117              10.80     7200.00
02118              10.80     7200.00
02119              11.00     7200.00
02120              11.60     7200.00
02121              11.60     7200.00
02122              11.60     7200.00
02123              11.60     7200.00
02124              11.60     7200.00
02125              12.20     7200.00
02126              12.60     7200.00
02127              12.40     7200.00
02128              11.80     7200.00
02129              12.60     7200.00
02130              13.00     7200.00
02131              12.40     7200.00
02132              12.60     7200.00
02133              13.00     7200.00
02134              12.60     7400.00
02135              12.60     7400.00
02136              12.60     7200.00
02137              12.60     7200.00
02138              12.20     7200.00
02139              11.60     7200.00
02140              12.20     7200.00
02141              11.40     7200.00
02142              10.60     7200.00
02143              10.80     7200.00
02144              11.80     7000.00
02145              10.00     7200.00
02146               9.20     7200.00
02147              10.40     7000.00
02148              10.60     7200.00
02149               8.40     7000.00
02150              10.00     7200.00
02151               9.80     7000.00
02152               7.60     7000.00
02153               9.00     7000.00
02154               9.80     7000.00
02155               7.60     6800.00
02156               7.20     7000.00
02157               8.40     6800.00
02158               8.20     6800.00
02159               7.20     6800.00
02160               7.80     6600.00
02161               7.40     6800.00
02162               7.20     6600.00
02163               7.00     6600.00
02164               7.00     6600.00
02165               6.60     6600.00
02166               6.60     6400.00
02167               6.80     6400.00
02168               6.80     6400.00
02169               6.00     6400.00
02170               6.00     6200.00
02171               6.40     6200.00
02172               6.00     6200.00
02173               5.80     6200.00
02174               5.60     6200.00
02175               5.80     6200.00
02176               5.80     6000.00
02177               5.20     6000.00
02178               5.20     6000.00
02179               5.00     6000.00
02180               5.00     6000.00
02181               5.40     5800.00
02182               5.00     5600.00
02183               4.20     5600.00
02184               4.80     5400.00
02185               4.40     5400.00
02186               3.80     5400.00
02187               4.40     5200.00
02188               4.20     5400.00
02189               3.60     5200.00
02190               4.20     5200.00
02191               4.40     5200.00
02192               3.40     5000.00
02193               3.60     5000.00
02194               4.20     4800.00
02195               3.60     4800.00
02196               3.40     4800.00
02197               3.40     4800.00
02198               3.40     4600.00
02199               2.80     4600.00
02200               3.20     4400.00
02201               3.40     4200.00
02202               2.60     4400.00
02203               2.60     4200.00
02204               3.40     4000.00
02205               2.60     4000.00
02206               2.00     4000.00
02207               2.80     3800.00
02208               2.80     4000.00
02209               2.20     3600.00
02210               2.20     3600.00
02211               2.60     3600.00
02212               1.80     3600.00
02213               1.80     3600.00
02214               2.60     3200.00
02215               2.00     3200.00
02216               1.20     3200.00
02217               2.00     3000.00
02218               2.40     3000.00
02219               0.80     3000.00
02220               1.40     2800.00
02221               2.20     2800.00
02222               1.40     2600.00
02223               1.00     2400.00
02224               1.00     2400.00
02225               1.40     2400.00
02226               1.00     2200.00
02227               1.00     2000.00
02228               1.40     2200.00
02229               1.20     2000.00
02230               0.40     1800.00
02231               0.80     2000.00
02232               1.20     1600.00
02233               0.40     1600.00
02234               0.40     1600.00
02235               1.00     1400.00
02236               0.40     1400.00
02237               0.20     1200.00
02238               0.20     1200.00
02239               0.40     1200.00
02240               0.60     1000.00
02241               0.20      800.00
02242               0.20      800.00
02243               0.40      800.00
02244               0.20      600.00
02245               0.20      600.00
02246               0.20      400.00
02247              -0.40      400.00
02248              -0.40      400.00
02249              -0.20        0.00
02250              -0.40        0.00
02251               0.00        0.00
02252              -0.20        0.00
02253               0.20     -400.00
02254               1.00     -200.00
02255              -0.60     -400.00
02256              -1.20     -400.00
02257               0.40     -400.00
02258              -0.20     -600.00
02259              -0.80     -800.00
02260              13.40     -800.00
02261              12.40    -1000.00
02262             -25.00    -1200.00
02263             -25.00    -1200.00
02264              25.00    -1000.00
02265              25.00    -1400.00
02266             -25.00    -1800.00
02267             -25.00    -1200.00
02268              25.00    -1600.00
02269              25.00    -2000.00
02270             -25.00    -1400.00
02271              25.00    -2000.00
02272              25.00    -2000.00
02273             -25.00    -2000.00
02274             -25.00    -2200.00
02275              25.00    -2200.00
02276              25.00    -2600.00
02277             -25.00    -2000.00
02278              25.00    -2600.00
02279              25.00    -2800.00
02280             -25.00    -2200.00
02281              25.00    -3200.00
02282              25.00    -2800.00
02283             -25.00    -2600.00
02284             -25.00    -3400.00
02285              23.80    -3000.00
02286              25.00    -3400.00
02287             -25.00    -3200.00
02288             -25.00    -3400.00
02289              25.00    -3600.00
02290             -25.00    -3400.00
02291             -25.00    -4000.00
02292              25.00    -3600.00
02293               3.60    -3600.00
02294             -25.00    -4000.00
02295              25.00    -4000.00
02296              21.80    -4000.00
02297             -25.00    -4000.00
02298               4.60    -4200.00
02299              25.00    -4200.00
02300             -25.00    -4400.00
02301             -22.20    -4400.00
02302              25.00    -4600.00
02303             -11.60    -4600.00
02304             -25.00    -4600.00
02305              21.20    -4800.00
02306              -2.80    -4800.00
02307             -21.80    -4800.00
02308               4.40    -5200.00
02309               3.40    -5000.00
02310             -14.20    -5200.00
02311              -8.00    -5200.00
02312               8.40    -5200.00
02313              -8.40    -5400.00
02314             -15.40    -5400.00
02315               4.60    -5600.00
02316              -1.00    -5600.00
02317             -15.00    -5600.00
02318              -5.00    -5600.00
02319               5.80    -5600.00
02320              -9.80    -6000.00
02321             -14.00    -5800.00
02322               4.20    -6000.00
02323              -4.20    -6000.00
02324             -15.80    -6000.00
02325              -1.40    -6000.00
02326               1.00    -6000.00
02327             -12.40    -6200.00
02328             -10.20    -6200.00
02329               0.60    -6400.00
02330              -6.80    -6400.00
02331             -14.00    -6400.00
02332              -3.20    -6400.00
02333              -3.00    -6400.00
02334             -11.00    -6400.00
02335              -8.60    -6600.00
02336              -3.60    -6600.00
02337              -8.60    -6600.00
02338             -10.80    -6600.00
02339              -4.60    -6600.00
02340              -6.80    -6600.00
02341             -12.40    -6800.00
02342              -8.20    -6800.00
02343              -5.00    -6800.00
02344             -11.60    -6800.00
02345             -11.40    -6800.00
02346              -5.80    -6800.00
02347              -9.20    -7000.00
02348             -11.80    -7000.00
02349              -9.20    -7000.00
02350              -9.20    -7200.00
02351             -10.80    -7200.00
02352             -10.00    -7000.00
02353              -9.40    -7200.00
02354             -11.00    -7200.00
02355             -10.80    -7200.00
02356             -10.60    -7200.00
02357             -12.20    -7200.00
02358             -10.60    -7200.00
02359             -11.00    -7200.00
02360             -13.20    -7200.00
02361             -11.60    -7200.00
02362             -10.80    -7200.00
02363             -13.40    -7200.00
02364             -13.80    -7200.00
02365             -10.80    -7200.00
02366             -12.20    -7400.00
02367             -14.20    -7400.00
02368             -12.60    -7200.00
02369             -12.00    -7200.00
02370             -13.00    -7400.00
02371             -14.40    -7400.00
02372             -13.20    -7400.00
02373             -12.20    -7400.00
02374             -14.00    -7200.00
02375             -12.40    -7200.00
02376             -12.40    -7400.00
02377             -14.80    -7400.00
02378             -12.60    -7400.00
02379             -11.00    -7200.00
02380             -12.60    -7400.00
02381             -12.00    -7200.00
02382             -11.00    -7200.00
02383             -11.80    -7200.00
02384             -10.80    -7200.00
02385             -10.60    -7200.00
02386             -12.00    -7200.00
02387             -10.60    -7200.00
02388              -9.20    -7200.00
02389             -10.20    -7000.00
02390             -10.00    -7200.00
02391             -10.20    -7200.00
02392              -9.60    -7000.00
02393              -8.60    -6800.00
02394              -9.40    -6800.00
02395             -10.00    -6800.00
02396              -7.60    -6800.00
02397              -7.60    -6800.00
02398             -10.20    -6800.00
02399              -8.00    -6800.00
02400              -7.00    -6600.00
02401              -9.00    -6600.00
02402              -8.40    -6600.00
02403              -6.80    -6600.00
02404              -7.60    -6600.00
02405              -7.60    -6600.00
02406              -7.60    -6600.00
02407              -7.00    -6400.00
02408              -7.00    -6400.00
02409              -8.00    -6400.00
02410              -6.40    -6400.00
02411              -6.20    -6400.00
02412              -6.40    -6200.00
02413              -6.80    -6000.00
02414              -7.00    -6200.00
02415              -5.60    -6000.00
02416              -6.20    -6000.00
02417              -6.20    -6000.00
02418              -5.80    -6000.00
02419              -5.80    -5800.00
02420              -5.60    -5800.00
02421              -5.40    -5800.00
02422              -6.00    -5800.00
02423              -5.20    -5600.00
02424              -5.40    -5600.00
02425              -5.20    -5400.00
02426              -4.80    -5200.00
02427              -5.40    -5400.00
02428              -5.00    -5200.00
02429              -4.40    -5200.00
02430              -4.40    -5200.00
02431              -5.00    -5000.00
02432              -4.20    -5000.00
02433              -4.00    -5000.00
02434              -4.60    -4600.00
02435              -4.20    -4800.00
02436              -3.80    -4600.00
02437              -4.40    -4600.00
02438              -4.20    -4600.00
02439              -3.60    -4600.00
02440              -3.80    -4400.00
02441              -4.20    -4400.00
02442              -3.20    -4400.00
02443              -2.80    -4200.00
02444              -3.80    -4200.00
02445              -3.40    -4200.00
02446              -2.60    -4000.00
02447              -3.40    -4000.00
02448              -3.00    -3600.00
02449              -2.80    -3800.00
02450              -3.00    -3600.00
02451              -3.00    -3600.00
02452              -2.60    -3600.00
02453              -2.80    -3400.00
02454              -2.60    -3400.00
02455              -2.20    -3200.00
02456              -2.80    -3200.00
02457              -2.80    -3000.00
02458              -2.00    -3000.00
02459              -2.20    -3000.00
02460              -2.60    -2800.00
02461              -2.20    -2600.00
02462              -1.20    -2800.00
02463              -1.80    -2600.00
02464              -2.80    -2400.00
02465              -1.80    -2400.00
02466              -1.20    -2200.00
02467              -2.80    -2400.00
02468              -1.40    -2000.00
02469              -1.20    -2000.00
02470              -2.20    -2000.00
02471              -1.00    -1800.00
02472              -1.40    -1800.00
02473              -1.60    -1600.00
02474              -2.00    -1600.00
02475              -0.60    -1600.00
02476              -0.40    -1400.00
02477              -2.60    -1200.00
02478              -0.20    -1200.00
02479              -1.40    -1000.00
02480              -1.40    -1000.00
02481              -0.60    -1000.00
02482              -1.80    -1000.00
02483              -1.00     -800.00
02484              -0.40     -800.00
02485              -0.80     -400.00
02486              -0.60     -400.00
02487              -0.40     -400.00
02488              -0.40     -400.00
02489              -1.00     -200.00
02490              -0.60        0.00
02491              -0.40        0.00
02492               0.20        0.00
02493              -0.40      200.00
02494               1.00      400.00
02495               0.40      400.00
02496              -1.20      400.00
02497               0.20      400.00
02498               1.00      600.00
02499               0.20      600.00
02500               3.00      800.00
02501              16.20     1200.00
02502              -1.20     1200.00
02503             -25.00     1000.00
02504             -24.60     1000.00
02505              25.00     1400.00
02506              25.00     1400.00
02507             -25.00     1400.00
02508             -15.00     1800.00
02509              25.00     1800.00
02510             -12.60     1800.00
02511             -25.00     1800.00
02512              25.00     2200.00
02513              25.00     1800.00
02514             -25.00     2400.00
02515              16.60     2200.00
02516              25.00     2400.00
02517             -25.00     2400.00
02518             -25.00     2400.00
02519              25.00     2800.00
02520              -8.60     2400.00
02521             -25.00     3000.00
02522              25.00     2800.00
02523              25.00     2800.00
02524             -25.00     3200.00
02525             -25.00     2800.00
02526              25.00     3200.00
02527              25.00     3400.00
02528             -25.00     3200.00
02529              14.00     3600.00
02530              25.00     3600.00
02531             -25.00     3800.00
02532             -25.00     3600.00
02533              25.00     3800.00
02534             -14.40     3800.00
02535             -25.00     3800.00
02536              25.00     4200.00
02537              16.20     4000.00
02538             -25.00     4200.00
02539              23.40     4400.00
02540              25.00     4200.00
02541             -25.00     4600.00
02542              -1.20     4400.00
02543              25.00     4600.00
02544             -11.60     4600.00
02545             -10.80     4800.00
02546              24.20     4800.00
02547               1.00     4800.00
02548             -10.00     5200.00
02549              12.20     5000.00
02550               8.40     5000.00
02551              -4.00     5200.00
02552               3.00     5200.00
02553              12.20     5200.00
02554               1.40     5400.00
02555              -2.00     5600.00
02556               9.80     5400.00
02557               7.80     5600.00
02558              -1.80     5600.00
02559               3.60     5600.00
02560              12.20     5800.00
02561               1.80     5600.00
02562              -0.40     5800.00
02563              11.80     6000.00
02564               5.80     6000.00
02565              -0.20     6000.00
02566               9.20     6000.00
02567               8.60     6200.00
02568               1.80     6200.00
02569               5.60     6200.00
02570               9.80     6200.00
02571               4.20     6400.00
02572               4.40     6400.00
02573               9.40     6400.00
02574               7.60     6400.00
02575               5.20     6600.00
02576               7.00     6400.00
02577               8.20     6800.00
02578               6.60     6800.00
02579               7.00     6800.00
02580               9.40     6800.00
02581               7.80     6600.00
02582               6.80     6800.00
02583               9.00     6800.00
02584               9.40     6800.00
02585               6.80     6800.00
02586               8.20     6800.00
02587              11.60     7000.00
02588               8.60     7000.00
02589               7.20     7000.00
02590              10.60     7200.00
02591               9.20     7000.00
02592               9.00     7200.00
02593              11.40     7200.00
02594              10.60     7000.00
02595               9.00     7200.00
02596              11.00     7200.00
02597              11.00     7200.00
02598               9.40     7200.00
02599              11.40     7200.00
02600              11.80     7200.00
02601              10.60     7200.00
02602              12.00     7200.00
02603              12.20     7200.00
02604              10.60     7200.00
02605              11.60     7200.00
02606              12.60     7200.00
02607              11.80     7200.00
02608              11.40     7200.00
02609              13.00     7200.00
02610              12.60     7200.00
02611              11.80     7200.00
02612              12.60     7200.00
02613              13.00     7200.00
02614              12.20     7200.00
02615              12.60     7600.00
02616              12.80     7200.00
02617              12.20     7200.00
02618              11.60     7200.00
02619              11.20     7200.00
02620              12.20     7200.00
02621              11.40     7200.00
02622              10.60     7200.00
02623              11.00     7000.00
02624              10.80     7000.00
02625              10.60     7200.00
02626               9.60     7200.00
02627               9.80     7000.00
02628              10.20     7000.00
02629               9.00     7000.00
02630               9.20     7000.00
02631               9.80     7000.00
02632               9.00     7000.00
02633               8.60     7200.00
02634               9.00     7000.00
02635               8.20     6800.00
02636               8.20     6800.00
02637               8.00     6800.00
02638               7.80     6800.00
02639               8.20     6800.00
02640               7.60     6800.00
02641               6.80     6800.00
02642               7.40     6800.00
02643               8.20     6400.00
02644               7.00     6600.00
02645               7.00     6600.00
02646               6.80     6400.00
02647               6.40     6600.00
02648               6.60     6400.00
02649               6.80     6400.00
02650               6.00     6400.00
02651               6.00     6400.00
02652               6.60     6200.00
02653               6.00     6200.00
02654               5.80     6200.00
02655               5.80     6000.00
02656               5.80     6000.00
02657               5.40     6000.00
02658               5.60     6000.00
02659               5.20     5800.00
02660               5.00     5800.00
02661               5.20     5600.00
02662               5.20     5600.00
02663               4.40     5600.00
02664               4.40     5600.00
02665               5.00     5400.00
02666               4.40     5400.00
02667               3.80     5400.00
02668               4.20     5200.00
02669               4.00     5200.00
02670               3.80     5200.00
02671               3.80     5200.00
02672               3.60     5000.00
02673               3.60     5000.00
02674               3.60     4800.00
02675               3.60     4800.00
02676               3.40     4800.00
02677               3.40     4600.00
02678               3.40     4600.00
02679               2.80     4400.00
02680               3.20     4400.00
02681               3.00     4400.00
02682               2.60     4400.00
02683               3.00     4200.00
02684               2.80     4200.00
02685               2.20     4000.00
02686               2.60     4000.00
02687               2.60     3800.00
02688               2.00     3800.00
02689               2.60     3800.00
02690               2.60     3600.00
02691               1.80     3600.00
02692               2.20     3600.00
02693               2.80     3400.00
02694               1.80     3200.00
02695               1.80     3200.00
02696               2.60     3200.00
02697               1.60     3000.00
02698               1.40     3000.00
02699               2.40     3000.00
02700               1.20     2800.00
02701               1.20     2800.00
02702               2.20     2600.00
02703               1.40     2600.00
02704               0.40     2400.00
02705               2.00     2400.00
02706               1.80     2200.00
02707               0.20     2200.00
02708               1.40     2000.00
02709               2.00     2000.00
02710               0.20     2000.00
02711               0.40     2000.00
02712               2.00     1800.00
02713               1.00     1600.00
02714               0.20     1800.00
02715               1.00     1600.00
02716               1.20     1400.00
02717               0.20     1400.00
02718               0.00     1200.00
02719               1.00     1200.00
02720               0.60     1000.00
02721               0.00      800.00
02722               0.20      800.00
02723               1.00      600.00
02724               0.40      600.00
02725              -0.60      600.00
02726               0.40      400.00
02727               0.40      400.00
02728              -0.60      200.00
02729              -0.40      200.00
02730               0.40        0.00
02731              -0.20     -200.00
02732              -1.00     -200.00
02733               0.20     -200.00
02734               0.40     -400.00
02735              -0.60     -400.00
02736              -1.20     -400.00
02737               0.40     -800.00
02738              -0.20     -600.00
02739              -1.20     -800.00
02740               9.00     -800.00
02741              18.20    -1200.00
02742             -25.00    -1200.00
02743             -25.00    -1200.00
02744              25.00    -1200.00
02745              25.00    -1200.00
02746             -25.00    -1600.00
02747             -25.00    -1200.00
02748              25.00    -1800.00
02749              25.00    -2000.00
02750             -25.00    -1600.00
02751              -7.60    -2000.00
02752              25.00    -2000.00
02753             -14.20    -2000.00
02754             -25.00    -1800.00
02755              25.00    -2400.00
02756              25.00    -2800.00
02757             -25.00    -2000.00
02758              25.00    -3000.00
02759              25.00    -2600.00
02760             -25.00    -2400.00
02761              14.80    -3200.00
02762              25.00    -2800.00
02763             -19.80    -3200.00
02764             -25.00    -3200.00
02765               5.40    -3000.00
02766              25.00    -3400.00
02767             -25.00    -3000.00
02768             -25.00    -3600.00
02769              25.00    -3400.00
02770              11.20    -3400.00
02771             -25.00    -3800.00
02772              25.00    -3600.00
02773              25.00    -3800.00
02774             -25.00    -3800.00
02775              25.00    -4200.00
02776              25.00    -4000.00
02777             -25.00    -4200.00
02778              -8.60    -4400.00
02779              25.00    -4200.00
02780             -18.20    -4400.00
02781             -25.00    -4400.00
02782              25.00    -4600.00
02783              -0.20    -4800.00
02784             -25.00    -4600.00
02785              14.80    -4800.00
02786               5.40    -4800.00
02787             -23.40    -4600.00
02788               0.40    -5200.00
02789               6.80    -5000.00
02790             -12.40    -5200.00
02791             -10.60    -5200.00
02792               6.60    -5200.00
02793              -3.80    -5400.00
02794             -17.00    -5200.00
02795               1.00    -5600.00
02796               3.00    -5600.00
02797             -14.80    -5600.00
02798              -7.80    -5600.00
02799               5.20    -5800.00
02800              -7.60    -5800.00
02801             -15.00    -5800.00
02802               2.00    -6000.00
02803              -1.40    -6000.00
02804             -16.40    -6000.00
02805              -3.80    -6200.00
02806               2.00    -6000.00
02807             -13.00    -6200.00
02808             -10.60    -6400.00
02809               0.40    -6200.00
02810              -7.00    -6400.00
02811             -13.20    -6400.00
02812              -3.80    -6400.00
02813              -3.00    -6400.00
02814             -11.60    -6600.00
02815              -7.80    -6600.00
02816              -4.20    -6600.00
02817              -9.80    -6600.00
02818              -9.60    -6600.00
02819              -6.40    -6600.00
02820              -7.60    -6600.00
02821              -9.60    -6800.00
02822              -9.20    -7000.00
02823              -7.00    -6800.00
02824              -8.40    -6800.00
02825             -10.60    -6800.00
02826              -9.60    -6800.00
02827              -7.80    -6800.00
02828              -8.40    -6800.00
02829             -12.20    -7000.00
02830              -9.80    -7200.00
02831              -8.20    -7200.00
02832             -10.80    -7000.00
02833             -12.00    -7200.00
02834              -9.20    -7200.00
02835              -9.00    -7200.00
02836             -13.40    -7200.00
02837             -11.80    -7000.00
02838              -7.00    -7200.00
02839             -14.00    -7200.00
02840             -13.80    -7200.00
02841              -8.80    -7400.00
02842             -10.20    -7200.00
02843             -15.80    -7200.00
02844             -13.20    -7400.00
02845              -7.60    -7400.00
02846             -14.00    -7400.00
02847             -15.40    -7400.00
02848              -9.40    -7200.00
02849             -12.20    -7400.00
02850             -15.60    -7400.00
02851             -13.20    -7400.00
02852             -10.20    -7400.00
02853             -14.40    -7400.00
02854             -15.00    -7400.00
02855             -10.60    -7200.00
02856             -12.20    -7200.00
02857             -15.40    -7200.00
02858             -13.00    -7200.00
02859             -10.00    -7200.00
02860             -12.40    -7200.00
02861             -13.60    -7200.00
02862             -10.80    -7200.00
02863             -10.80    -7200.00
02864             -13.20    -7200.00
02865             -11.20    -7200.00
02866              -9.40    -7000.00
02867             -11.40    -7200.00
02868             -10.80    -7200.00
02869              -9.20    -7200.00
02870             -10.20    -7000.00
02871             -10.80    -7000.00
02872              -9.40    -7000.00
02873              -8.40    -6800.00
02874             -10.20    -7200.00
02875              -9.40    -6800.00
02876              -8.20    -6800.00
02877              -8.60    -6800.00
02878              -9.60    -6800.00
02879              -7.60    -6600.00
02880              -8.20    -6800.00
02881              -8.40    -6800.00
02882              -7.60    -6600.00
02883              -7.80    -6600.00
02884              -8.60    -6600.00
02885              -7.40    -6600.00
02886              -7.60    -6600.00
02887              -7.00    -6400.00
02888              -7.00    -6400.00
02889              -7.40    -6400.00
02890              -6.60    -6400.00
02891              -6.60    -6400.00
02892              -7.20    -6400.00
02893              -5.80    -6200.00
02894              -6.20    -6200.00
02895              -7.00    -6000.00
02896              -5.60    -6000.00
02897              -5.20    -6200.00
02898              -7.00    -5800.00
02899              -6.60    -5800.00
02900              -3.80    -6000.00
02901              -5.80    -5800.00
02902              -7.00    -5800.00
02903              -3.40    -5600.00
02904              -4.60    -5600.00
02905              -7.00    -5600.00
02906              -4.40    -5400.00
02907              -3.80    -5400.00
02908              -6.20    -5200.00
02909              -5.00    -5200.00
02910              -3.00    -5200.00
02911              -4.60    -5000.00
02912              -5.80    -5000.00
02913              -3.40    -5000.00
02914              -4.20    -4800.00
02915              -4.60    -4800.00
02916              -3.80    -4800.00
02917              -3.80    -4600.00
02918              -4.20    -4600.00
02919              -3.80    -4600.00
02920              -3.60    -4400.00
02921              -3.80    -4200.00
02922              -3.40    -4200.00
02923              -3.20    -4200.00
02924              -3.40    -4200.00
02925              -3.00    -4000.00
02926              -3.00    -4000.00
02927              -3.40    -4000.00
02928              -3.40    -4000.00
02929              -3.00    -3800.00
02930              -3.40    -3800.00
02931              -3.40    -3600.00
02932              -2.80    -3600.00
02933              -2.80    -3400.00
02934              -2.80    -3400.00
02935              -2.80    -3200.00
02936              -2.60    -3200.00
02937              -2.20    -3200.00
02938              -2.40    -3000.00
02939              -2.80    -3000.00
02940              -2.00    -2800.00
02941              -2.20    -2800.00
02942              -2.60    -2800.00
02943              -2.20    -2600.00
02944              -2.00    -2600.00
02945              -2.20    -2400.00
02946              -2.00    -2200.00
02947              -1.80    -2200.00
02948              -1.80    -2000.00
02949              -2.00    -2000.00
02950              -1.80    -2000.00
02951              -1.40    -2000.00
02952              -1.60    -1800.00
02953              -1.80    -1800.00
02954              -1.20    -1600.00
02955              -0.80    -1600.00
02956              -1.40    -1600.00
02957              -1.80    -1400.00
02958              -0.80    -1200.00
02959              -1.20    -1000.00
02960              -1.80    -1000.00
02961              -0.60    -1000.00
02962              -0.60     -800.00
02963              -1.20     -800.00
02964              -0.60     -600.00
02965              -0.40     -400.00
02966              -0.80     -400.00
02967              -0.40     -400.00
02968              -0.60     -200.00
02969              -1.00     -200.00
02970               0.20        0.00
02971               0.20        0.00
02972              -1.00      200.00
02973               0.00      200.00
02974               1.80      200.00
02975              -0.40      400.00
02976              -1.40      400.00
02977               0.60      600.00
02978               1.00      800.00
02979              -0.60      600.00
02980               2.60      800.00
02981              14.00     1000.00
02982               5.00     1200.00
02983             -25.00     1200.00
02984             -25.00     1200.00
02985              25.00     1400.00
02986              25.00     1600.00
02987             -25.00     1400.00
02988             -25.00     1600.00
02989              25.00     1800.00
02990              25.00     1600.00
02991             -25.00     1800.00
02992              25.00     2000.00
02993              25.00     1800.00
02994             -25.00     2200.00
02995             -25.00     2200.00
02996              25.00     2400.00
02997             -25.00     2200.00
02998             -25.00     2600.00
02999              25.00     2400.00
03000              23.40     2400.00
03001             -25.00     3200.00
03002              23.40     2800.00
03003              25.00     2800.00
03004             -25.00     3200.00
03005             -25.00     3000.00
03006              25.00     3200.00
03007              25.00     3200.00
03008             -25.00     3200.00
03009             -10.20     3400.00
03010              25.00     3600.00
03011             -25.00     3800.00
03012             -25.00     3600.00
03013              25.00     3800.00
03014               7.60     3800.00
03015             -25.00     3800.00
03016              25.00     4000.00
03017              25.00     4000.00
03018             -25.00     4400.00
03019               8.60     4200.00
03020              25.00     4400.00
03021             -24.20     4400.00
03022             -13.20     4400.00
03023              25.00     4600.00
03024              -3.80     4600.00
03025             -16.60     4800.00
03026              22.20     4800.00
03027               6.80     4800.00
03028             -11.40     5200.00
03029               9.20     4800.00
03030              11.80     5200.00
03031              -3.40     5200.00
03032               1.00     5200.00
03033              13.00     5400.00
03034               3.00     5200.00
03035              -2.60     5400.00
03036               8.40     5600.00
03037               9.40     5600.00
03038              -0.60     5600.00
03039               1.80     5600.00
03040              13.00     5800.00
03041               3.60     5800.00
03042              -1.40     6000.00
03043              11.00     6000.00
03044               7.40     6000.00
03045              -0.60     6200.00
03046               7.80     6200.00
03047              10.60     6000.00
03048               1.80     6200.00
03049               4.20     6200.00
03050              11.80     6400.00
03051               5.20     6400.00
03052               2.80     6400.00
03053               9.20     6400.00
03054               8.20     6400.00
03055               5.20     6400.00
03056               6.60     6400.00
03057               8.60     6400.00
03058               6.60     6400.00
03059               6.20     6600.00
03060               9.20     6800.00
03061               8.20     6800.00
03062               6.60     6800.00
03063               8.40     6800.00
03064               9.80     6800.00
03065               7.40     6800.00
03066               7.40     7000.00
03067              10.20     6800.00
03068               9.20     6800.00
03069               8.20     6800.00
03070              10.00     7000.00
03071               9.60     7000.00
03072               8.60     7000.00
03073              10.20     7200.00
03074              10.20     7000.00
03075               9.20     7200.00
03076              10.20     7200.00
03077              11.40     7200.00
03078              10.20     7200.00
03079              10.60     7200.00
03080              11.40     7000.00
03081              11.60     7200.00
03082              11.60     7200.00
03083              11.60     7200.00
03084              12.00     7200.00
03085              11.80     7200.00
03086              11.80     7200.00
03087              12.60     7200.00
03088              11.80     7200.00
03089              11.80     7200.00
03090              13.00     7200.00
03091              12.80     7200.00
03092              12.40     7200.00
03093              13.00     7200.00
03094              12.60     7200.00
03095              12.40     7200.00
03096              13.00     7200.00
03097              12.60     7200.00
03098              11.40     7200.00
03099              11.60     7200.00
03100              12.40     7200.00
03101              11.80     7200.00
03102              10.80     7200.00
03103              10.80     7000.00
03104              11.60     7200.00
03105              10.60     7000.00
03106               9.80     7200.00
03107              10.60     7000.00
03108               9.80     7200.00
03109               9.40     7000.00
03110              10.00     7000.00
03111               9.40     7000.00
03112               8.60     7000.00
03113               9.00     7000.00
03114               9.00     7000.00
03115               8.40     6800.00
03116               8.40     6800.00
03117               7.60     6800.00
03118               8.40     6800.00
03119               7.80     6800.00
03120               7.60     6800.00
03121               7.40     6600.00
03122               7.60     6600.00
03123               7.00     6400.00
03124               6.80     6400.00
03125               7.00     6600.00
03126               6.60     6400.00
03127               6.60     6400.00
03128               6.60     6400.00
03129               6.00     6400.00
03130               5.80     6200.00
03131               6.20     6200.00
03132               5.80     6200.00
03133               5.80     6200.00
03134               5.40     6000.00
03135               5.40     6000.00
03136               5.60     6000.00
03137               5.40     6000.00
03138               5.00     6000.00
03139               4.60     5800.00
03140               5.40     5800.00
03141               4.80     5600.00
03142               4.40     5600.00
03143               5.20     5600.00
03144               4.40     5600.00
03145               3.80     5600.00
03146               5.20     5400.00
03147               4.20     5400.00
03148               3.40     5400.00
03149               4.40     5200.00
03150               4.20     5200.00
03151               3.40     5200.00
03152               4.20     5200.00
03153               4.20     4800.00
03154               3.00     4800.00
03155               3.60     4800.00
03156               3.80     4800.00
03157               3.00     4600.00
03158               3.40     4400.00
03159               3.40     4600.00
03160               3.40     4400.00
03161               2.80     4400.00
03162               3.00     4400.00
03163               3.00     4000.00
03164               2.60     4200.00
03165               2.80     4200.00
03166               2.60     4000.00
03167               2.60     4000.00
03168               2.60     3800.00
03169               2.60     3800.00
03170               2.60     3600.00
03171               2.40     3600.00
03172               2.00     3600.00
03173               2.60     3200.00
03174               2.20     3400.00
03175               1.80     3200.00
03176               2.00     3200.00
03177               2.00     3200.00
03178               1.60     3000.00
03179               1.80     3000.00
03180               1.80     2800.00
03181               1.60     2800.00
03182               1.40     2800.00
03183               1.80     2600.00
03184               1.80     2400.00
03185               1.20     2400.00
03186               1.20     2200.00
03187               1.20     2200.00
03188               1.00     2000.00
03189               1.00     2000.00
03190               1.00     1800.00
03191               1.00     1800.00
03192               0.60     1600.00
03193               0.60     1800.00
03194               0.80     1800.00
03195               0.40     1400.00
03196               0.40     1200.00
03197               0.40     1200.00
03198               0.40     1200.00
03199               0.20     1000.00
03200               0.60     1000.00
03201               0.40      800.00
03202               0.00      800.00
03203               0.20      600.00
03204               0.20      600.00
03205              -0.20      600.00
03206              -0.40      400.00
03207              -0.20      400.00
03208               0.20      200.00
03209              -0.40        0.00
03210              -0.60        0.00
03211              -0.20        0.00
03212               0.20     -200.00
03213              -0.60     -200.00
03214               0.20     -400.00
03215               0.60     -400.00
03216              -1.20     -400.00
03217              -0.60     -400.00
03218               0.20     -800.00
03219              -0.60     -800.00
03220               5.80     -800.00
03221              21.00    -1000.00
03222             -22.80    -1200.00
03223             -25.00    -1400.00
03224              25.00    -1000.00
03225              25.00    -1400.00
03226             -25.00    -1800.00
03227             -25.00    -1200.00
03228              25.00    -1600.00
03229              25.00    -1800.00
03230             -25.00    -1800.00
03231             -25.00    -1800.00
03232              25.00    -2000.00
03233              25.00    -2400.00
03234             -25.00    -1600.00
03235              25.00    -2400.00
03236              25.00    -2800.00
03237             -25.00    -2000.00
03238              24.20    -2800.00
03239              25.00    -2600.00
03240             -25.00    -2400.00
03241             -16.80    -3000.00
03242              25.00    -2600.00
03243              -4.40    -3200.00
03244             -25.00    -3000.00
03245             -15.00    -3400.00
03246              25.00    -3200.00
03247             -10.20    -3200.00
03248             -25.00    -3600.00
03249              25.00    -3200.00
03250              25.00    -3600.00
03251             -25.00    -3600.00
03252              25.00    -3600.00
03253              25.00    -4000.00
03254             -25.00    -3600.00
03255               8.20    -4200.00
03256              25.00    -4200.00
03257             -25.00    -4000.00
03258             -21.40    -4200.00
03259              25.00    -4200.00
03260              -8.80    -4400.00
03261             -25.00    -4400.00
03262              20.00    -4600.00
03263              10.20    -4600.00
03264             -25.00    -4600.00
03265               6.00    -4800.00
03266              13.40    -4800.00
03267             -23.60    -4800.00
03268              -5.20    -5000.00
03269               9.00    -5000.00
03270             -10.20    -5200.00
03271             -12.80    -5000.00
03272               4.00    -5200.00
03273               0.80    -5200.00
03274             -17.60    -5400.00
03275              -3.00    -5600.00
03276               6.80    -5600.00
03277             -14.20    -5600.00
03278             -11.00    -5600.00
03279               5.80    -5600.00
03280              -5.00    -5800.00
03281             -16.40    -5800.00
03282              -0.20    -5800.00
03283               2.20    -6000.00
03284             -16.60    -6000.00
03285              -6.60    -6000.00
03286               3.60    -6200.00
03287             -11.00    -6200.00
03288             -12.40    -6000.00
03289              -0.40    -6400.00
03290              -4.40    -6400.00
03291             -13.80    -6400.00
03292              -5.40    -6400.00
03293              -1.40    -6400.00
03294             -10.80    -6600.00
03295              -9.60    -6400.00
03296              -3.40    -6400.00
03297              -8.60    -6600.00
03298             -10.60    -6600.00
03299              -6.00    -6800.00
03300              -7.00    -6800.00
03301             -10.00    -6800.00
03302              -9.40    -6800.00
03303              -6.20    -6800.00
03304              -8.60    -6800.00
03305             -11.60    -6800.00
03306              -7.60    -6800.00
03307              -7.60    -7000.00
03308             -10.80    -7000.00
03309             -10.40    -6800.00
03310              -8.00    -7000.00
03311             -10.20    -7000.00
03312             -11.40    -7200.00
03313              -9.20    -7200.00
03314             -10.80    -7200.00
03315             -11.40    -7200.00
03316             -10.00    -7200.00
03317             -11.00    -7200.00
03318             -11.20    -7200.00
03319             -11.60    -7200.00
03320             -12.40    -7200.00
03321             -11.80    -7400.00
03322             -11.60    -7200.00
03323             -13.00    -7400.00
03324             -12.60    -7200.00
03325             -11.00    -7200.00
03326             -12.60    -7200.00
03327             -13.40    -7400.00
03328             -12.40    -7200.00
03329             -12.60    -7400.00
03330             -13.60    -7200.00
03331             -13.40    -7200.00
03332             -13.00    -7200.00
03333             -14.00    -7400.00
03334             -13.80    -7200.00
03335             -12.80    -7200.00
03336             -12.80    -7400.00
03337             -12.60    -7200.00
03338             -13.40    -7200.00
03339             -12.40    -7200.00
03340             -11.60    -7200.00
03341             -13.40    -7200.00
03342             -12.20    -7200.00
03343             -10.80    -7200.00
03344             -11.40    -7200.00
03345             -11.40    -7200.00
03346             -11.00    -7200.00
03347             -10.60    -7200.00
03348             -10.60    -7000.00
03349             -10.20    -7000.00
03350              -8.40    -7000.00
03351              -9.40    -7000.00
03352             -14.60    -7000.00
03353              -2.80    -7000.00
03354             -15.40    -6800.00
03355             -11.00    -7000.00
03356              -2.60    -6800.00
03357              -8.40    -6800.00
03358              -8.00    -6800.00
03359              -7.60    -6800.00
03360             -10.00    -7000.00
03361             -10.80    -6600.00
03362              -7.80    -6800.00
03363              -9.40    -6600.00
03364              -6.60    -6600.00
03365              -4.80    -6400.00
03366              -4.20    -6600.00
03367              -8.60    -6600.00
03368              -6.60    -6600.00
03369              -7.80    -6400.00
03370             -10.20    -6400.00
03371              -5.80    -6200.00
03372              -9.80    -6200.00
03373              -2.00    -6200.00
03374              -3.40    -6000.00
03375              -7.80    -6000.00
03376              -5.80    -6000.00
03377              -5.20    -6000.00
03378              -7.60    -5800.00
03379              -8.20    -5800.00
03380              -5.00    -5800.00
03381              -4.40    -5800.00
03382              -5.00    -5800.00
03383              -6.00    -5600.00
03384              -4.40    -5600.00
03385              -4.40    -5600.00
03386              -6.20    -5600.00
03387              -5.40    -5200.00
03388              -4.40    -5600.00
03389              -5.00    -5200.00
03390              -5.00    -5200.00
03391              -4.80    -5000.00
03392              -4.40    -5000.00
03393              -4.20    -5000.00
03394              -4.40    -5000.00
03395              -3.60    -5000.00
03396              -4.60    -5000.00
03397              -4.40    -4600.00
03398              -4.40    -4600.00
03399              -2.80    -4600.00
03400              -3.60    -4400.00
03401              -5.40    -4400.00
03402              -3.00    -4400.00
03403              -2.80    -4400.00
03404              -3.80    -4200.00
03405              -3.60    -4200.00
03406              -3.00    -4000.00
03407              -3.60    -3800.00
03408              -3.40    -3800.00
03409              -3.40    -3600.00
03410              -2.80    -3600.00
03411              -3.20    -3600.00
03412              -2.80    -3400.00
03413              -2.40    -3400.00
03414              -2.60    -3200.00
03415              -2.80    -3200.00
03416              -3.00    -3200.00
03417              -2.20    -3000.00
03418              -2.40    -3200.00
03419              -2.60    -3000.00
03420              -2.00    -2800.00
03421              -2.20    -2800.00
03422              -2.20    -2800.00
03423              -1.80    -2600.00
03424              -2.00    -2400.00
03425              -2.20    -2400.00
03426              -2.00    -2400.00
03427              -2.20    -2400.00
03428              -1.80    -2000.00
03429              -1.80    -2000.00
03430              -1.40    -2000.00
03431              -1.20    -2000.00
03432              -1.20    -1800.00
03433              -1.80    -1600.00
03434              -1.80    -1600.00
03435              -1.20    -1600.00
03436              -1.40    -1600.00
03437              -1.20    -1200.00
03438              -1.00    -1000.00
03439              -1.20    -1200.00
03440              -1.20    -1000.00
03441              -0.60    -1000.00
03442              -1.00     -800.00
03443              -1.20     -800.00
03444              -0.60     -600.00
03445              -0.60     -600.00
03446              -0.80     -400.00
03447              -0.60     -400.00
03448              -1.00     -400.00
03449              -0.60     -200.00
03450              -0.40        0.00
03451              -1.00        0.00
03452               0.40        0.00
03453               0.60      200.00
03454              -0.40      200.00
03455               0.40      400.00
03456               0.00      400.00
03457              -0.60      600.00
03458               0.40      600.00
03459               1.20      600.00
03460               1.40      800.00
03461              10.60     1000.00
03462              10.20     1200.00
03463             -25.00     1000.00
03464             -25.00     1000.00
03465              25.00     1400.00
03466              25.00     1600.00
03467             -25.00     1400.00
03468             -25.00     1400.00
03469              25.00     1800.00
03470              25.00     1800.00
03471             -25.00     1800.00
03472              20.20     2000.00
03473              25.00     2000.00
03474             -25.00     2200.00
03475             -25.00     2200.00
03476              25.00     2400.00
03477               0.00     2000.00
03478             -25.00     2800.00
03479              25.00     2400.00
03480              25.00     2400.00
03481             -25.00     3200.00
03482              -1.00     2800.00
03483              25.00     3000.00
03484             -10.80     3200.00
03485             -25.00     3000.00
03486              25.00     3200.00
03487              25.00     3200.00
03488             -25.00     3400.00
03489             -25.00     3200.00
03490              25.00     3600.00
03491              -3.00     3800.00
03492             -25.00     3600.00
03493              25.00     3800.00
03494              25.00     3800.00
03495             -25.00     4000.00
03496              24.60     4000.00
03497              25.00     4000.00
03498             -25.00     4400.00
03499              -6.60     4200.00
03500              25.00     4400.00
03501             -15.00     4400.00
03502             -22.60     4400.00
03503              25.00     4600.00
03504               4.40     4400.00
03505             -20.40     4800.00
03506              17.80     4800.00
03507              12.20     4800.00
03508             -11.40     5000.00
03509               5.00     4800.00
03510              14.60     5200.00
03511              -2.00     5200.00
03512              -1.80     5200.00
03513              12.20     5400.00
03514               5.60     5200.00
03515              -3.00     5600.00
03516               5.20     5400.00
03517              11.60     5600.00
03518               0.40     5600.00
03519              -0.60     5600.00
03520              12.60     5800.00
03521               5.40     6000.00
03522              -2.00     5800.00
03523               8.60     6000.00
03524               8.80     6000.00
03525               0.40     6200.00
03526               5.00     6000.00
03527              10.80     6200.00
03528               3.80     6000.00
03529               2.60     6200.00
03530              10.00     6400.00
03531               6.80     6200.00
03532               2.60     6400.00
03533               6.80     6400.00
03534               9.40     6600.00
03535               5.80     6400.00
03536               5.20     6600.00
03537               9.00     6400.00
03538               7.60     6600.00
03539               5.80     6800.00
03540               8.20     6600.00
03541               9.00     6800.00
03542               7.40     6800.00
03543               7.40     6800.00
03544              10.00     6800.00
03545               8.60     6800.00
03546               6.60     6800.00
03547               9.80     6800.00
03548              10.00     7000.00
03549               8.40     6800.00
03550               8.80     7000.00
03551              10.20     7000.00
03552               9.40     7000.00
03553               9.40     7000.00
03554              10.80     7000.00
03555              10.00     7200.00
03556              10.00     7200.00
03557              11.40     7200.00
03558              10.80     7200.00
03559              10.60     7200.00
03560              11.40     7200.00
03561              11.60     7200.00
03562              11.80     7200.00
03563              11.60     7200.00
03564              11.60     7200.00
03565              11.80     7200.00
03566              12.20     7200.00
03567              12.40     7200.00
03568              12.40     7200.00
03569              12.40     7200.00
03570              12.60     7200.00
03571              13.00     7200.00
03572              12.60     7200.00
03573              13.00     7200.00
03574              12.20     7200.00
03575              12.60     7200.00
03576              13.20     7200.00
03577              12.20     7200.00
03578              11.60     7000.00
03579              12.20     7200.00
03580              12.20     7200.00
03581              12.00     7200.00
03582              10.60     7200.00
03583              10.60     7200.00
03584              11.40     7000.00
03585              11.00     7200.00
03586               9.20     7200.00
03587              10.60     7200.00
03588              10.20     7200.00
03589               9.00     7000.00
03590               9.80     7000.00
03591              10.00     7000.00
03592               7.80     7000.00
03593               8.60     7000.00
03594               9.40     6800.00
03595               8.40     7000.00
03596               7.40     6800.00
03597               8.20     6800.00
03598               8.40     6800.00
03599               7.40     6800.00
03600               7.20     6800.00
03601               7.60     6800.00
03602               7.40     6600.00
03603               6.80     6600.00
03604               7.20     6600.00
03605               6.80     6600.00
03606               6.60     6400.00
03607               6.60     6400.00
03608               6.80     6400.00
03609               6.60     6400.00
03610               5.80     6200.00
03611               6.00     6200.00
03612               5.80     6200.00
03613               5.80     6200.00
03614               5.40     6200.00
03615               5.60     6200.00
03616               5.80     6000.00
03617               5.40     6000.00
03618               5.00     6000.00
03619               5.00     6000.00
03620               5.20     5800.00
03621               5.20     5800.00
03622               5.00     5600.00
03623               5.00     5600.00
03624               4.20     5600.00
03625               4.20     5600.00
03626               4.60     5400.00
03627               4.40     5400.00
03628               4.20     5200.00
03629               4.20     5200.00
03630               4.20     5200.00
03631               4.20     5200.00
03632               3.60     5000.00
03633               3.80     4800.00
03634               3.80     4800.00
03635               3.80     4800.00
03636               3.40     4800.00
03637               3.00     4800.00
03638               3.00     4600.00
03639               3.60     4400.00
03640               3.80     4400.00
03641               2.80     4400.00
03642               2.60     4400.00
03643               3.00     4200.00
03644               2.60     4000.00
03645               2.60     4000.00
03646               2.60     4000.00
03647               2.20     4000.00
03648               2.20     3800.00
03649               2.60     3800.00
03650               2.60     3600.00
03651               1.80     3600.00
03652               2.00     3600.00
03653               2.60     3200.00
03654               1.80     3400.00
03655               1.80     3200.00
03656               2.00     3200.00
03657               1.40     3200.00
03658               1.20     3000.00
03659               2.00     3000.00
03660               1.20     2800.00
03661               1.00     2800.00
03662               2.00     2800.00
03663               1.80     2800.00
03664               0.60     2400.00
03665               1.40     2400.00
03666               1.40     2400.00
03667               1.00     2200.00
03668               1.00     2200.00
03669               1.40     2000.00
03670               0.40     2000.00
03671               0.60     2000.00
03672               1.40     1800.00
03673               0.60     1800.00
03674               0.20     1600.00
03675               1.00     1600.00
03676               1.00     1400.00
03677              -0.20     1200.00
03678               0.60     1400.00
03679               0.80     1200.00
03680              -0.20     1000.00
03681               0.60     1000.00
03682               0.60      800.00
03683              -0.40      600.00
03684               0.20      600.00
03685               0.40      600.00
03686              -0.20      400.00
03687               0.20      400.00
03688               0.40      400.00
03689              -0.40      400.00
03690              -0.40        0.00
03691              -0.40        0.00
03692               0.20     -200.00
03693               0.00     -200.00
03694               0.20     -200.00
03695               1.00     -600.00
03696              -0.80     -400.00
03697              -1.20     -400.00
03698               0.40     -800.00
03699              -0.20     -800.00
03700               3.00     -800.00
03701              21.40    -1000.00
03702             -13.20    -1200.00
03703             -25.00    -1400.00
03704               6.20    -1000.00
03705              25.00    -1400.00
03706              -7.40    -1800.00
03707             -25.00    -1200.00
03708              25.00    -1600.00
03709              25.00    -1600.00
03710             -25.00    -2000.00
03711             -25.00    -1800.00
03712              25.00    -2000.00
03713              25.00    -2600.00
03714             -25.00    -1600.00
03715              25.00    -2600.00
03716              25.00    -2600.00
03717             -25.00    -2000.00
03718             -25.00    -3000.00
03719              25.00    -2400.00
03720             -25.00    -2800.00
03721             -25.00    -2800.00
03722              25.00    -2800.00
03723              11.80    -3200.00
03724             -25.00    -2800.00
03725             -25.00    -3400.00
03726              25.00    -3400.00
03727              15.40    -3200.00
03728             -25.00    -3600.00
03729              25.00    -3400.00
03730              25.00    -3600.00
03731             -25.00    -3600.00
03732              15.00    -4000.00
03733              25.00    -4000.00
03734             -25.00    -3600.00
03735             -17.20    -4200.00
03736              25.00    -4000.00
03737             -25.00    -4200.00
03738             -25.00    -4400.00
03739              25.00    -4400.00
03740               3.00    -4600.00
03741             -25.00    -4400.00
03742              10.20    -4600.00
03743              20.60    -4400.00
03744             -25.00    -4400.00
03745              -3.80    -4800.00
03746              20.60    -4600.00
03747             -21.40    -4800.00
03748             -10.00    -5000.00
03749              10.60    -5000.00
03750              -7.20    -5200.00
03751             -14.00    -5000.00
03752               1.00    -5200.00
03753               5.20    -5400.00
03754             -17.00    -5600.00
03755              -6.80    -5600.00
03756               9.00    -5600.00
03757             -11.40    -5600.00
03758             -13.00    -5600.00
03759               3.60    -5800.00
03760              -1.00    -5800.00
03761             -16.60    -5800.00
03762              -4.60    -5800.00
03763               5.80    -6000.00
03764             -14.80    -6000.00
03765             -10.20    -5800.00
03766               5.00    -6200.00
03767              -8.60    -6000.00
03768             -14.40    -6200.00
03769              -2.20    -6400.00
03770              -1.20    -6200.00
03771             -13.20    -6400.00
03772              -8.40    -6400.00
03773              -0.40    -6400.00
03774              -9.80    -6600.00
03775             -11.00    -6600.00
03776              -4.40    -6600.00
03777              -7.40    -6600.00
03778             -10.00    -6600.00
03779              -7.40    -6800.00
03780              -6.00    -6800.00
03781             -10.20    -6800.00
03782             -10.00    -6800.00
03783              -6.80    -6800.00
03784              -9.20    -6800.00
03785             -10.40    -6800.00
03786              -8.40    -6800.00
03787              -8.60    -6800.00
03788              -9.80    -6800.00
03789             -10.20    -7000.00
03790              -9.80    -7000.00
03791             -10.00    -7200.00
03792              -9.80    -7200.00
03793             -10.20    -7200.00
03794             -11.80    -7200.00
03795             -10.00    -7200.00
03796             -10.20    -7200.00
03797             -12.60    -7200.00
03798             -10.80    -7200.00
03799             -10.20    -7200.00
03800             -12.40    -7200.00
03801             -12.20    -7200.00
03802             -10.80    -7200.00
03803             -12.40    -7200.00
03804             -13.40    -7400.00
03805             -11.60    -7200.00
03806             -11.00    -7400.00
03807             -13.40    -7400.00
03808             -13.40    -7200.00
03809             -12.20    -7400.00
03810             -12.80    -7200.00
03811             -13.40    -7200.00
03812             -12.60    -7400.00
03813             -13.00    -7400.00
03814             -13.60    -7400.00
03815             -13.40    -7200.00
03816             -12.40    -7400.00
03817             -12.80    -7200.00
03818             -13.80    -7200.00
03819             -12.40    -7200.00
03820             -11.40    -7200.00
03821             -12.40    -7200.00
03822             -12.00    -7400.00
03823             -11.00    -7200.00
03824             -10.80    -7200.00
03825             -11.80    -7200.00
03826             -11.80    -7200.00
03827              -9.20    -7200.00
03828             -10.80    -7200.00
03829             -11.20    -7000.00
03830              -9.20    -7200.00
03831              -9.80    -7000.00
03832             -10.80    -6800.00
03833              -8.40    -7000.00
03834              -8.80    -6800.00
03835             -10.60    -6800.00
03836              -8.20    -6800.00
03837              -7.60    -6800.00
03838             -10.00    -6800.00
03839              -8.60    -6800.00
03840              -8.00    -6800.00
03841              -8.60    -6800.00
03842              -8.40    -6800.00
03843              -7.00    -6600.00
03844              -7.80    -6800.00
03845              -7.60    -6600.00
03846              -7.40    -6600.00
03847              -6.80    -6600.00
03848              -8.00    -6400.00
03849              -7.00    -6400.00
03850              -6.20    -6400.00
03851              -7.60    -6200.00
03852              -6.00    -6400.00
03853              -6.20    -6400.00
03854              -7.60    -6200.00
03855              -5.80    -6200.00
03856              -5.80    -6000.00
03857              -7.00    -6000.00
03858              -6.00    -6000.00
03859              -5.40    -5800.00
03860              -6.20    -5800.00
03861              -5.80    -5800.00
03862              -5.00    -5800.00
03863              -6.00    -5800.00
03864              -5.80    -5600.00
03865              -4.40    -5600.00
03866              -4.80    -5600.00
03867              -5.40    -5600.00
03868              -4.40    -5200.00
03869              -4.40    -5200.00
03870              -4.80    -5200.00
03871              -4.40    -5200.00
03872              -4.60    -5000.00
03873              -4.40    -5000.00
03874              -4.20    -5000.00
03875              -4.40    -4800.00
03876              -4.20    -4600.00
03877              -4.00    -4600.00
03878              -4.20    -4600.00
03879              -3.80    -4600.00
03880              -3.20    -4400.00
03881              -3.60    -4400.00
03882              -3.80    -4400.00
03883              -3.40    -4200.00
03884              -3.00    -4200.00
03885              -3.60    -4000.00
03886              -3.40    -4000.00
03887              -3.00    -4000.00
03888              -2.80    -3800.00
03889              -3.00    -3800.00
03890              -2.80    -3600.00
03891              -3.40    -3600.00
03892              -2.80    -3600.00
03893              -2.00    -3400.00
03894              -2.80    -3400.00
03895              -3.60    -3200.00
03896              -1.20    -3200.00
03897              -1.80    -3200.00
03898              -3.00    -3200.00
03899              -2.60    -2800.00
03900              -1.20    -2800.00
03901              -2.00    -2800.00
03902              -2.60    -2800.00
03903              -1.60    -2600.00
03904              -1.80    -2600.00
03905              -3.40    -2400.00
03906              -1.60    -2400.00
03907              -0.20    -2400.00
03908              -3.00    -2200.00
03909              -3.40    -2000.00
03910               0.00    -2000.00
03911              -0.40    -2000.00
03912              -3.00    -1800.00
03913              -2.00    -1800.00
03914               0.00    -1800.00
03915              -2.00    -1400.00
03916              -2.20    -1600.00
03917              -0.60    -1200.00
03918              -0.60    -1400.00
03919              -2.40    -1200.00
03920              -1.20    -1000.00
03921              -0.20    -1000.00
03922              -1.40     -800.00
03923              -1.20    -1000.00
03924              -0.40     -800.00
03925              -0.60     -400.00
03926              -0.60     -400.00
03927              -0.80     -200.00
03928              -1.20     -200.00
03929              -0.60     -200.00
03930               0.40     -200.00
03931              -0.60        0.00
03932              -0.60        0.00
03933               0.40      200.00
03934               1.00      200.00
03935              -0.20      400.00
03936              -1.00      400.00
03937               1.00      400.00
03938               0.60      600.00
03939              -0.60      800.00
03940               1.80      800.00
03941               9.40     1000.00
03942              11.80     1200.00
03943             -20.40     1200.00
03944             -25.00     1200.00
03945              21.20     1200.00
03946              25.00     1400.00
03947             -24.40     1400.00
03948             -25.00     1400.00
03949              25.00     2000.00
03950              25.00     1600.00
03951             -25.00     1800.00
03952             -25.00     2000.00
03953              25.00     2000.00
03954             -25.00     2000.00
03955             -25.00     2200.00
03956              25.00     2400.00
03957              25.00     2000.00
03958             -25.00     2800.00
03959              25.00     2400.00
03960              25.00     2400.00
03961             -25.00     3000.00
03962             -23.40     2600.00
03963              25.00     3000.00
03964               5.20     3000.00
03965             -25.00     3200.00
03966              10.80     3000.00
03967              25.00     3200.00
03968             -25.00     3600.00
03969             -25.00     3200.00
03970              25.00     3600.00
03971              20.60     3800.00
03972             -25.00     3600.00
03973              25.00     3800.00
03974              25.00     3600.00
03975             -25.00     4000.00
03976               5.80     4000.00
03977              25.00     3800.00
03978             -25.00     4200.00
03979             -22.00     4000.00
03980              25.00     4400.00
03981              -3.40     4400.00
03982             -25.00     4400.00
03983              25.00     4600.00
03984              13.40     4600.00
03985             -22.00     4800.00
03986              11.00     4800.00
03987              17.80     4800.00
03988             -10.00     5000.00
03989               0.20     4800.00
03990              16.40     5000.00
03991              -0.40     5200.00
03992              -3.60     5200.00
03993              11.00     5400.00
03994               7.40     5400.00
03995              -2.60     5400.00
03996               3.00     5600.00
03997              12.00     5600.00
03998               2.00     5600.00
03999              -2.00     5600.00
04000              11.60     5800.00
04001               7.60     5600.00
04002              -2.20     5800.00
04003               6.60     6000.00
04004              10.60     6000.00
04005               0.60     6000.00
04006               3.60     6000.00
04007              12.40     6000.00
04008               3.80     6200.00
04009               1.80     6200.00
04010              10.60     6200.00
04011               7.00     6400.00
04012               2.40     6400.00
04013               7.00     6400.00
04014              10.00     6400.00
04015               5.80     6400.00
04016               5.40     6400.00
04017               9.20     6600.00
04018               7.40     6600.00
04019               5.80     6600.00
04020               8.40     6800.00
04021               9.00     6800.00
04022               7.00     6800.00
04023               7.60     6800.00
04024              10.20     6800.00
04025               8.40     6800.00
04026               6.60     7000.00
04027               9.40     6800.00
04028              10.20     7000.00
04029               8.60     7000.00
04030               9.00     7000.00
04031              10.00     7000.00
04032               9.40     7000.00
04033               9.00     7000.00
04034              10.80     7200.00
04035              10.00     7000.00
04036              10.00     7200.00
04037              11.40     7200.00
04038              11.00     7000.00
04039              10.00     7000.00
04040              10.60     7200.00
04041              12.00     7200.00
04042              11.00     7200.00
04043              11.20     7200.00
04044              12.60     7200.00
04045              11.00     7200.00
04046              11.40     7200.00
04047              13.40     7200.00
04048              11.80     7200.00
04049              11.00     7200.00
04050              13.80     7200.00
04051              13.00     7200.00
04052              11.20     7200.00
04053              13.20     7200.00
04054              13.40     7200.00
04055              11.00     7200.00
04056              12.60     7200.00
04057              13.80     7200.00
04058              11.40     7200.00
04059              11.60     7200.00
04060              12.60     7200.00
04061              12.20     7200.00
04062              10.20     7200.00
04063              10.60     7200.00
04064              11.40     7000.00
04065              11.20     7200.00
04066               9.40     7200.00
04067              10.60     7200.00
04068              10.60     7000.00
04069               9.20     7000.00
04070               9.40     6800.00
04071              10.20     7000.00
04072               8.40     7000.00
04073               9.00     7000.00
04074               9.40     6800.00
04075               8.40     6800.00
04076               7.80     7000.00
04077               8.40     6800.00
04078               8.40     6800.00
04079               7.60     6800.00
04080               7.40     6800.00
04081               8.20     6800.00
04082               7.00     6800.00
04083               7.60     6600.00
04084               7.80     6600.00
04085               6.80     6600.00
04086               6.60     6400.00
04087               7.00     6400.00
04088               6.40     6400.00
04089               6.60     6400.00
04090               6.60     6200.00
04091               6.00     6400.00
04092               6.20     6200.00
04093               6.20     6200.00
04094               5.80     6200.00
04095               5.80     6200.00
04096               5.80     6000.00
04097               5.20     6000.00
04098               5.40     6000.00
04099               5.20     5800.00
04100               4.20     5800.00
04101               5.20     5800.00
04102               5.40     5600.00
04103               3.80     5600.00
04104               4.60     5400.00
04105               5.20     5600.00
04106               3.80     5400.00
04107               3.60     5400.00
04108               5.20     5200.00
04109               3.60     5400.00
04110               3.60     5200.00
04111               4.40     5200.00
04112               3.80     5200.00
04113               3.20     5000.00
04114               4.00     4800.00
04115               3.80     4800.00
04116               2.80     4800.00
04117               3.40     4600.00
04118               3.60     4600.00
04119               2.60     4600.00
04120               2.80     4400.00
04121               3.40     4400.00
04122               2.80     4400.00
04123               2.20     4200.00
04124               2.80     4000.00
04125               3.00     4000.00
04126               2.40     4000.00
04127               2.60     4000.00
04128               2.60     4000.00
04129               2.60     4000.00
04130               2.20     3600.00
04131               2.00     3600.00
04132               2.20     3600.00
04133               2.60     3200.00
04134               2.20     3200.00
04135               1.20     3200.00
04136               1.80     3200.00
04137               2.20     3200.00
04138               1.20     3200.00
04139               2.00     3000.00
04140               2.00     2800.00
04141               1.00     2800.00
04142               1.40     2800.00
04143               2.00     2600.00
04144               1.80     2600.00
04145               1.00     2400.00
04146               1.60     2400.00
04147               1.80     2200.00
04148               1.20     2200.00
04149               0.60     2000.00
04150               1.20     2000.00
04151               1.80     2000.00
04152               0.60     1600.00
04153               0.40     1800.00
04154               1.40     1600.00
04155               0.60     1600.00
04156               0.40     1400.00
04157               1.20     1400.00
04158               1.00     1200.00
04159              -0.40     1200.00
04160               0.40     1200.00
04161               1.20      800.00
04162               0.20      800.00
04163              -0.40      800.00
04164               0.40      600.00
04165               0.60      600.00
04166              -0.60      400.00
04167              -0.60      400.00
04168               0.40      400.00
04169              -0.20        0.00
04170              -0.60        0.00
04171              -0.40        0.00
04172               0.40     -200.00
04173              -0.20     -200.00
04174              -0.40     -200.00
04175               0.40     -400.00
04176              -0.60     -400.00
04177              -1.40     -400.00
04178               0.20     -600.00
04179              -0.40     -800.00
04180               1.80     -800.00
04181              19.40    -1000.00
04182              -4.20    -1200.00
04183             -25.00    -1400.00
04184             -17.00    -1000.00
04185              25.00    -1200.00
04186              18.20    -1600.00
04187             -25.00    -1600.00
04188              25.00    -1600.00
04189              25.00    -1600.00
04190             -25.00    -2200.00
04191             -25.00    -1400.00
04192              25.00    -2000.00
04193              25.00    -2400.00
04194             -25.00    -1600.00
04195               9.20    -2400.00
04196              25.00    -2600.00
04197             -25.00    -2200.00
04198             -25.00    -2800.00
04199              25.00    -2600.00
04200             -24.40    -3000.00
04201             -25.00    -2600.00
04202              25.00    -3200.00
04203              25.00    -3000.00
04204             -25.00    -2600.00
04205             -25.00    -3400.00
04206              25.00    -3200.00
04207              25.00    -3400.00
04208             -25.00    -3400.00
04209              21.80    -3400.00
04210              25.00    -3600.00
04211             -25.00    -3400.00
04212             -20.60    -3800.00
04213              25.00    -3800.00
04214             -25.00    -3600.00
04215             -25.00    -4200.00
04216              25.00    -4000.00
04217             -15.60    -4200.00
04218             -25.00    -4200.00
04219              25.00    -4200.00
04220              12.40    -4400.00
04221             -25.00    -4200.00
04222               0.40    -4600.00
04223              25.00    -4600.00
04224             -25.00    -4400.00
04225             -12.00    -4800.00
04226              23.80    -4800.00
04227             -18.00    -5000.00
04228             -14.00    -4800.00
04229              10.00    -5000.00
04230              -5.00    -5200.00
04231             -13.80    -5000.00
04232              -2.00    -5200.00
04233               5.40    -5200.00
04234             -14.80    -5200.00
04235              -8.60    -5600.00
04236               7.00    -5400.00
04237              -9.20    -5600.00
04238             -12.60    -5600.00
04239               0.60    -5800.00
04240               0.40    -5800.00
04241             -14.20    -5800.00
04242              -8.20    -5800.00
04243               5.20    -6000.00
04244             -11.80    -6000.00
04245             -11.80    -6000.00
04246               3.00    -6000.00
04247              -6.60    -6000.00
04248             -13.40    -6200.00
04249              -4.40    -6400.00
04250              -1.00    -6200.00
04251             -10.80    -6400.00
04252              -9.80    -6400.00
04253              -1.40    -6600.00
04254              -7.80    -6600.00
04255             -10.20    -6400.00
04256              -6.00    -6600.00
04257              -6.20    -6600.00
04258              -9.00    -6600.00
04259              -8.60    -6800.00
04260              -6.20    -6600.00
04261              -8.60    -6600.00
04262             -10.00    -6800.00
04263              -7.80    -6800.00
04264              -7.80    -6800.00
04265              -9.40    -6800.00
04266             -10.00    -6800.00
04267              -8.20    -7000.00
04268              -8.40    -7000.00
04269             -10.60    -7000.00
04270             -10.20    -7000.00
04271              -8.80    -7200.00
04272              -9.40    -7200.00
04273             -11.40    -7000.00
04274             -10.60    -7200.00
04275              -9.40    -7200.00
04276             -11.40    -7200.00
04277             -11.60    -7200.00
04278             -10.00    -7200.00
04279             -10.80    -7200.00
04280             -13.20    -7200.00
04281             -11.40    -7200.00
04282             -10.00    -7200.00
04283             -12.60    -7400.00
04284             -13.20    -7200.00
04285             -10.80    -7200.00
04286             -11.80    -7400.00
04287             -13.80    -7400.00
04288             -12.60    -7400.00
04289             -11.80    -7200.00
04290             -13.40    -7400.00
04291             -13.40    -7200.00
04292             -11.80    -7400.00
04293             -13.20    -7200.00
04294             -14.60    -7400.00
04295             -13.20    -7200.00
04296             -12.20    -7400.00
04297             -13.80    -7400.00
04298             -13.00    -7200.00
04299             -12.20    -7400.00
04300             -12.20    -7400.00
04301             -12.40    -7200.00
04302             -12.40    -7400.00
04303             -11.40    -7200.00
04304             -11.40    -7200.00
04305             -11.60    -7200.00
04306             -11.00    -7200.00
04307             -11.00    -7200.00
04308             -10.40    -7200.00
04309             -10.40    -7200.00
04310             -10.00    -7200.00
04311             -10.20    -7000.00
04312             -10.40    -7200.00
04313              -8.60    -7000.00
04314              -9.60    -7200.00
04315              -9.80    -7000.00
04316              -8.60    -6800.00
04317              -8.60    -6800.00
04318              -9.00    -6800.00
04319              -8.40    -6800.00
04320              -8.20    -6800.00
04321              -9.40    -6800.00
04322              -8.00    -6800.00
04323              -7.40    -6600.00
04324              -8.40    -6600.00
04325              -7.00    -6600.00
04326              -7.00    -6600.00
04327              -7.60    -6600.00
04328              -6.80    -6600.00
04329              -7.00    -6400.00
04330              -7.80    -6400.00
04331              -6.00    -6400.00
04332              -5.80    -6400.00
04333              -7.00    -6200.00
04334              -6.80    -6400.00
04335              -5.80    -6200.00
04336              -6.20    -6000.00
04337              -6.20    -6000.00
04338              -5.40    -6000.00
04339              -5.80    -5800.00
04340              -5.80    -5800.00
04341              -5.60    -5800.00
04342              -5.20    -5800.00
04343              -5.00    -5600.00
04344              -5.80    -5600.00
04345              -5.00    -5600.00
04346              -4.40    -5600.00
04347              -5.20    -5600.00
04348              -5.40    -5200.00
04349              -4.40    -5200.00
04350              -4.40    -5200.00
04351              -4.80    -5200.00
04352              -4.60    -5000.00
04353              -3.80    -5000.00
04354              -4.40    -5000.00
04355              -4.40    -5000.00
04356              -4.20    -4600.00
04357              -4.40    -4600.00
04358              -3.60    -4600.00
04359              -3.80    -4600.00
04360              -3.80    -4400.00
04361              -3.60    -4400.00
04362              -3.80    -4400.00
04363              -3.60    -4400.00
04364              -3.40    -4400.00
04365              -3.60    -4200.00
04366              -3.60    -4000.00
04367              -3.40    -4000.00
04368              -3.00    -4000.00
04369              -3.40    -3800.00
04370              -3.00    -3800.00
04371              -2.80    -3600.00
04372              -3.20    -3600.00
04373              -3.00    -3600.00
04374              -2.40    -3400.00
04375              -2.80    -3400.00
04376              -2.80    -3200.00
04377              -2.20    -3200.00
04378              -2.20    -3200.00
04379              -2.80    -3000.00
04380              -2.60    -2800.00
04381              -2.20    -2800.00
04382              -2.20    -2600.00
04383              -2.40    -2600.00
04384              -2.00    -2600.00
04385              -1.80    -2600.00
04386              -2.20    -2400.00
04387              -2.00    -2200.00
04388              -1.80    -2200.00
04389              -1.80    -2000.00
04390              -2.00    -2000.00
04391              -1.40    -1800.00
04392              -1.20    -1800.00
04393              -1.40    -1800.00
04394              -2.20    -1800.00
04395              -1.00    -1600.00
04396              -0.60    -1600.00
04397              -1.80    -1400.00
04398              -1.20    -1200.00
04399              -0.60    -1200.00
04400              -1.20    -1200.00
04401              -1.20    -1000.00
04402              -0.60    -1000.00
04403              -0.80     -800.00
04404              -1.20     -800.00
04405              -0.60     -600.00
04406              -0.20     -400.00
04407              -0.60     -400.00
04408              -0.60     -400.00
04409              -0.20     -200.00
04410              -0.20     -200.00
04411              -0.60        0.00
04412               0.20        0.00
04413               0.40        0.00
04414               0.20      200.00
04415               0.60      200.00
04416              -0.20      200.00
04417              -0.20      600.00
04418               0.40      600.00
04419               0.60      800.00
04420               1.40      800.00
04421               5.80      800.00
04422              15.40     1200.00
04423             -12.40     1000.00
04424             -25.00     1200.00
04425               2.80     1200.00
04426              25.00     1400.00
04427              -3.00     1200.00
04428             -25.00     1400.00
04429              25.00     1800.00
04430              25.00     1600.00
04431             -25.00     1800.00
04432             -25.00     1600.00
04433              25.00     2000.00
04434              17.80     2000.00
04435             -25.00     2400.00
04436              25.00     2400.00
04437              25.00     2200.00
04438             -25.00     2600.00
04439              23.80     2400.00
04440              25.00     2600.00
04441             -25.00     2800.00
04442             -25.00     2800.00
04443              25.00     3000.00
04444              22.00     2800.00
04445             -25.00     3200.00
04446              -7.40     3000.00
04447              25.00     3200.00
04448              -7.80     3600.00
04449             -25.00     3200.00
04450              25.00     3400.00
04451              25.00     3600.00
04452             -25.00     3600.00
04453              17.20     3800.00
04454              25.00     3600.00
04455             -25.00     4000.00
04456             -14.60     4000.00
04457              25.00     4000.00
04458             -15.40     4000.00
04459             -25.00     4000.00
04460              25.00     4400.00
04461               9.80     4400.00
04462             -25.00     4400.00
04463              20.60     4400.00
04464              22.20     4600.00
04465             -20.40     4800.00
04466               3.60     4600.00
04467              22.00     4800.00
04468              -7.00     4800.00
04469              -4.00     4800.00
04470              16.40     5200.00
04471               2.60     5000.00
04472              -4.20     5200.00
04473               8.60     5400.00
04474               9.80     5400.00
04475              -1.00     5400.00
04476               0.60     5400.00
04477              12.20     5600.00
04478               4.40     5600.00
04479              -2.80     5600.00
04480               9.20     5600.00
04481               9.80     5800.00
04482              -1.20     5800.00
04483               4.20     5800.00
04484              12.20     6000.00
04485               2.60     6000.00
04486               1.80     6000.00
04487              11.60     6200.00
04488               5.60     6200.00
04489               1.00     6200.00
04490               9.00     6200.00
04491               8.60     6400.00
04492               2.80     6200.00
04493               5.60     6400.00
04494               9.80     6400.00
04495               6.00     6400.00
04496               5.00     6600.00
04497               8.60     6600.00
04498               7.40     6400.00
04499               6.60     6600.00
04500               7.80     6800.00
04501               8.20     6800.00
04502               7.60     6800.00
04503               7.00     6800.00
04504               9.20     6800.00
04505               9.00     6800.00
04506               7.40     6800.00
04507               9.00     7000.00
04508               9.40     7000.00
04509               8.60     6800.00
04510               9.00     6800.00
04511               9.40     7000.00
04512               9.20     7000.00
04513              10.20     7000.00
04514              10.20     7200.00
04515               9.20     7000.00
04516              10.80     7200.00
04517              11.00     7000.00
04518              10.20     7200.00
04519              10.60     7200.00
04520              11.20     7200.00
04521              10.80     7200.00
04522              11.20     7200.00
04523              12.20     7200.00
04524              11.40     7200.00
04525              11.40     7200.00
04526              12.40     7200.00
04527              12.20     7200.00
04528              12.20     7200.00
04529              12.20     7200.00
04530              12.60     7200.00
04531              13.20     7200.00
04532              12.20     7200.00
04533              13.00     7200.00
04534              12.60     7200.00
04535              12.20     7200.00
04536              13.20     7200.00
04537              13.00     7200.00
04538              11.60     7200.00
04539              12.40     7200.00
04540              12.20     7200.00
04541              11.60     7200.00
04542              10.80     7200.00
04543              11.00     7000.00
04544              11.00     7200.00
04545              11.40     7200.00
04546               9.80     7200.00
04547              10.20     7200.00
04548              10.20     7200.00
04549               9.40     7000.00
04550               9.40     7000.00
04551              10.00     7000.00
04552               8.60     7000.00
04553               8.60     6800.00
04554               9.20     6800.00
04555               8.40     6800.00
04556               7.80     6800.00
04557               8.40     6800.00
04558               8.00     6800.00
04559               7.60     6800.00
04560               7.60     6800.00
04561               7.60     6600.00
04562               7.20     6600.00
04563               7.40     6400.00
04564               7.40     6600.00
04565               6.80     6600.00
04566               6.60     6400.00
04567               6.60     6400.00
04568               6.60     6400.00
04569               6.20     6400.00
04570               6.20     6400.00
04571               6.00     6200.00
04572               5.80     6200.00
04573               6.20     6200.00
04574               5.20     6200.00
04575               5.20     6200.00
04576               5.80     6000.00
04577               5.40     5800.00
04578               5.00     6000.00
04579               5.20     6000.00
04580               5.00     5800.00
04581               4.60     5600.00
04582               5.00     5800.00
04583               5.00     5600.00
04584               4.40     5600.00
04585               4.60     5600.00
04586               4.60     5400.00
04587               4.20     5400.00
04588               4.40     5400.00
04589               4.20     5400.00
04590               4.00     5200.00
04591               4.20     5200.00
04592               4.20     5200.00
04593               3.60     5000.00
04594               3.80     4800.00
04595               3.60     4800.00
04596               3.60     4800.00
04597               3.40     4800.00
04598               3.40     4600.00
04599               3.40     4600.00
04600               3.60     4600.00
04601               3.00     4400.00
04602               2.20     4400.00
04603               3.60     4400.00
04604               3.40     4000.00
04605               2.00     4200.00
04606               3.60     4000.00
04607               2.60     4000.00
04608               1.40     3800.00
04609               3.40     3600.00
04610               2.80     3600.00
04611               1.00     3600.00
04612               3.00     3600.00
04613               3.20     3600.00
04614               1.00     3400.00
04615               2.00     3200.00
04616               3.00     3200.00
04617               1.00     3200.00
04618               1.00     3000.00
04619               2.60     3000.00
04620               2.00     2800.00
04621               0.80     2800.00
04622               1.60     2600.00
04623               2.60     2400.00
04624               0.40     2600.00
04625               0.40     2400.00
04626               2.20     2200.00
04627               1.20     2200.00
04628               0.20     2200.00
04629               1.20     2200.00
04630               1.80     2000.00
04631               0.20     2000.00
04632              -0.20     1800.00
04633               1.80     1600.00
04634               1.00     1600.00
04635              -0.80     1400.00
04636               0.40     1400.00
04637               2.20     1400.00
04638               0.40     1200.00
04639              -0.60     1200.00
04640               0.80     1200.00
04641               0.20     1000.00
04642              -0.60      800.00
04643               0.60      800.00
04644               1.00      600.00
04645              -0.60      600.00
04646              -0.20      400.00
04647               0.40      400.00
04648              -0.40      400.00
04649              -1.00      200.00
04650              -0.20      400.00
04651               0.20        0.00
04652              -0.40     -200.00
04653               0.20     -200.00
04654               0.60     -400.00
04655               0.20     -400.00
04656              -1.20     -400.00
04657              -0.60     -400.00
04658              -0.20     -600.00
04659              -0.20     -800.00
04660               0.40     -800.00
04661              16.60     -800.00
04662               5.20    -1200.00
04663             -25.00    -1200.00
04664             -25.00    -1000.00
04665              25.00    -1200.00
04666              25.00    -1600.00
04667             -25.00    -1600.00
04668             -15.00    -1400.00
04669              25.00    -1800.00
04670              -4.60    -2200.00
04671             -25.00    -1400.00
04672              25.00    -2000.00
04673              25.00    -2200.00
04674             -25.00    -1800.00
04675             -25.00    -2400.00
04676              25.00    -2400.00
04677             -13.80    -2400.00
04678             -25.00    -2400.00
04679              25.00    -2600.00
04680              21.20    -2800.00
04681             -25.00    -2400.00
04682              25.00    -3200.00
04683              25.00    -2800.00
04684             -25.00    -2800.00
04685             -25.00    -3200.00
04686              25.00    -3200.00
04687              25.00    -3400.00
04688             -25.00    -3400.00
04689             -14.00    -3400.00
04690              25.00    -3600.00
04691             -25.00    -3400.00
04692             -25.00    -4000.00
04693              25.00    -4000.00
04694             -25.00    -3800.00
04695             -25.00    -4200.00
04696              25.00    -4000.00
04697               2.60    -4000.00
04698             -25.00    -4200.00
04699              16.40    -4200.00
04700              22.20    -4400.00
04701             -25.00    -4200.00
04702             -12.20    -4600.00
04703              25.00    -4400.00
04704             -19.60    -4800.00
04705             -21.00    -4600.00
04706              22.60    -4800.00
04707             -10.20    -4800.00
04708             -18.60    -4800.00
04709               6.20    -5000.00
04710               0.20    -5200.00
04711             -13.20    -5200.00
04712              -6.80    -5200.00
04713               7.80    -5200.00
04714             -10.20    -5400.00
04715             -13.80    -5400.00
04716               6.00    -5600.00
04717              -3.00    -5600.00
04718             -15.00    -5800.00
04719              -4.20    -5800.00
04720               5.40    -5600.00
04721             -12.40    -5800.00
04722             -13.40    -5800.00
04723               6.80    -6000.00
04724              -7.40    -6000.00
04725             -15.80    -6000.00
04726               1.60    -6000.00
04727              -1.80    -6200.00
04728             -14.60    -6000.00
04729              -7.60    -6000.00
04730               2.40    -6400.00
04731             -10.00    -6400.00
04732             -13.20    -6400.00
04733              -0.60    -6400.00
04734              -4.60    -6400.00
04735             -12.40    -6600.00
04736              -7.40    -6600.00
04737              -3.20    -6800.00
04738              -9.40    -6600.00
04739             -10.80    -6800.00
04740              -5.20    -6600.00
04741              -6.80    -6800.00
04742             -10.60    -6800.00
04743              -9.00    -6800.00
04744              -6.00    -6800.00
04745             -10.00    -6800.00
04746             -11.00    -7000.00
04747              -8.00    -6800.00
04748              -7.40    -7000.00
04749             -10.60    -6800.00
04750             -11.40    -7200.00
04751              -8.40    -7200.00
04752              -9.40    -7200.00
04753             -12.60    -7200.00
04754             -10.20    -7000.00
04755              -9.00    -7200.00
04756             -11.00    -7200.00
04757             -11.80    -7200.00
04758             -10.60    -7400.00
04759             -10.80    -7200.00
04760             -13.00    -7200.00
04761             -12.20    -7200.00
04762             -10.40    -7200.00
04763             -12.00    -7200.00
04764             -13.00    -7400.00
04765             -12.20    -7200.00
04766             -12.00    -7400.00
04767             -13.20    -7200.00
04768             -13.40    -7400.00
04769             -12.60    -7200.00
04770             -12.40    -7400.00
04771             -13.20    -7200.00
04772             -13.80    -7400.00
04773             -13.00    -7400.00
04774             -13.40    -7200.00
04775             -14.20    -7400.00
04776             -12.20    -7200.00
04777             -12.20    -7400.00
04778             -13.80    -7200.00
04779             -12.40    -7200.00
04780             -11.60    -7200.00
04781             -12.80    -7200.00
04782             -13.00    -7200.00
04783             -10.80    -7200.00
04784             -10.60    -7200.00
04785             -12.40    -7200.00
04786             -10.80    -7200.00
04787             -10.20    -7200.00
04788             -11.80    -7000.00
04789             -10.20    -7200.00
04790              -8.60    -7200.00
04791             -10.20    -6800.00
04792             -11.00    -7000.00
04793              -7.80    -7000.00
04794              -9.20    -6800.00
04795             -11.00    -7200.00
04796              -7.80    -7000.00
04797              -7.40    -6800.00
04798              -9.60    -6800.00
04799              -8.60    -6800.00
04800              -7.00    -6800.00
04801              -9.20    -6800.00
04802              -9.20    -6800.00
04803              -6.20    -6800.00
04804              -8.00    -6600.00
04805              -8.40    -6600.00
04806              -6.00    -6600.00
04807              -7.00    -6400.00
04808              -7.60    -6600.00
04809              -6.60    -6400.00
04810              -7.40    -6400.00
04811              -6.80    -6400.00
04812              -6.00    -6400.00
04813              -6.20    -6400.00
04814              -6.80    -6200.00
04815              -5.60    -6000.00
04816              -6.60    -6000.00
04817              -6.80    -6000.00
04818              -5.40    -6000.00
04819              -6.20    -5800.00
04820              -6.60    -6000.00
04821              -4.60    -5800.00
04822              -5.40    -5800.00
04823              -7.00    -5800.00
04824              -5.20    -5600.00
04825              -4.60    -5600.00
04826              -5.80    -5600.00
04827              -4.60    -5400.00
04828              -3.60    -5600.00
04829              -5.40    -5200.00
04830              -4.60    -5400.00
04831              -4.60    -5200.00
04832              -6.20    -5000.00
04833              -5.20    -5000.00
04834              -4.20    -5000.00
04835              -4.20    -4800.00
04836              -2.60    -5000.00
04837              -3.00    -4600.00
04838              -3.60    -4800.00
04839              -4.20    -4600.00
04840              -5.40    -4600.00
04841              -4.60    -4400.00
04842              -4.40    -4400.00
04843              -4.20    -4400.00
04844              -2.60    -4200.00
04845              -2.00    -4200.00
04846              -2.60    -4000.00
04847              -3.40    -4000.00
04848              -3.40    -4000.00
04849              -3.80    -4000.00
04850              -4.20    -3800.00
04851              -3.00    -3600.00
04852              -2.40    -3600.00
04853              -2.80    -3600.00
04854              -1.80    -3400.00
04855              -1.80    -3400.00
04856              -2.80    -3200.00
04857              -2.80    -3200.00
04858              -2.00    -3200.00
04859              -2.80    -3000.00
04860              -2.40    -3000.00
04861              -2.20    -2800.00
04862              -2.80    -2600.00
04863              -1.60    -2600.00
04864              -1.40    -2600.00
04865              -1.80    -2400.00
04866              -2.00    -2400.00
04867              -2.00    -2400.00
04868              -1.80    -2200.00
04869              -2.00    -2000.00
04870              -2.20    -2000.00
04871              -1.20    -2000.00
04872              -0.60    -2000.00
04873              -1.40    -1800.00
04874              -1.60    -1800.00
04875              -0.60    -1600.00
04876              -1.20    -1400.00
04877              -2.40    -1200.00
04878              -0.40    -1400.00
04879               0.20    -1200.00
04880              -3.20    -1200.00
04881              -1.40    -1000.00
04882               0.40    -1000.00
04883              -2.20     -800.00
04884              -1.40     -800.00
04885               1.20     -600.00
04886              -1.00     -600.00
04887              -1.80     -400.00
04888              -0.20     -200.00
04889              -1.00     -400.00
04890              -1.40        0.00
04891              -0.20     -200.00
04892               0.40        0.00
04893              -0.40      200.00
04894               0.40      200.00
04895               1.00      200.00
04896              -0.60      400.00
04897              -0.80      400.00
04898               0.40      600.00
04899              -0.20      600.00
04900               0.40      800.00
04901               5.20     1000.00
04902              15.40      800.00
04903              -6.80     1000.00
04904             -25.00     1200.00
04905             -13.00     1200.00
04906              25.00     1400.00
04907              17.00     1400.00
04908             -25.00     1400.00
04909              25.00     1800.00
04910              25.00     1800.00
04911             -25.00     1800.00
04912             -25.00     1800.00
04913              25.00     2000.00
04914              25.00     1800.00
04915             -25.00     2400.00
04916              25.00     2200.00
04917              25.00     2200.00
04918             -25.00     2600.00
04919             -12.20     2400.00
04920              25.00     2800.00
04921             -25.00     2400.00
04922             -25.00     2800.00
04923              25.00     2800.00
04924              25.00     2800.00
04925             -25.00     3200.00
04926             -24.60     3000.00
04927              25.00     3200.00
04928              12.60     3600.00
04929             -25.00     3200.00
04930              25.00     3600.00
04931              25.00     3600.00
04932             -25.00     3600.00
04933              -4.80     3600.00
04934              25.00     3800.00
04935             -25.00     4000.00
04936             -25.00     3800.00
04937              25.00     4000.00
04938               0.00     4000.00
04939             -25.00     4200.00
04940              25.00     4400.00
04941              21.00     4400.00
04942             -25.00     4400.00
04943              10.60     4600.00
04944              25.00     4600.00
04945             -16.80     4800.00
04946              -3.60     4600.00
04947              24.00     4800.00
04948              -3.80     4800.00
04949              -6.80     4800.00
04950              15.60     5000.00
04951               4.60     5200.00
04952              -4.60     5200.00
04953               6.60     5200.00
04954              11.20     5400.00
04955              -0.80     5400.00
04956              -0.80     5400.00
04957              11.60     5600.00
04958               5.40     5600.00
04959              -2.60     5600.00
04960               7.00     5600.00
04961              10.80     5600.00
04962              -0.20     5800.00
04963               2.00     6000.00
04964              12.20     6000.00
04965               3.40     6000.00
04966               0.60     6000.00
04967              10.80     6000.00
04968               6.80     6200.00
04969               0.80     6200.00
04970               7.40     6400.00
04971               9.80     6200.00
04972               3.40     6400.00
04973               4.60     6400.00
04974              10.00     6400.00
04975               6.60     6400.00
04976               5.20     6400.00
04977               7.80     6400.00
04978               8.20     6600.00
04979               6.60     6400.00
04980               7.00     6800.00
04981               9.40     6800.00
04982               7.40     6800.00
04983               6.80     6800.00
04984              10.00     6800.00
04985               8.40     6800.00
04986               7.00     7000.00
04987               9.00     7000.00
04988               9.80     7000.00
04989               8.60     6800.00
04990               9.20     7000.00
04991              10.00     7000.00
04992               9.00     7000.00
04993              10.00     7000.00
04994              10.80     7000.00
04995               9.40     7200.00
04996              10.20     7200.00
04997              11.20     7200.00
04998              10.60     7200.00
04999              10.60     7200.00
05000              11.60     7200.00
