Unit:(mV)
                     CH1         CH2
Frequency              ? 234.120 kHz
00001              -3.60    12200.00
00002               3.80    12400.00
00003               3.40    12600.00
00004              -2.40    12600.00
00005               1.00    12600.00
00006               3.00    12800.00
00007              -0.60    12800.00
00008               0.20    13000.00
00009               3.00    13200.00
00010               1.20    13200.00
00011              -0.60    13200.00
00012               1.80    13400.00
00013               2.40    13400.00
00014              -0.20    13400.00
00015              -0.20    13600.00
00016               2.60    13600.00
00017               1.80    13600.00
00018              -0.60    13800.00
00019               1.40    13800.00
00020               2.20    13800.00
00021              -0.20    14000.00
00022               1.20    14000.00
00023               2.20    14200.00
00024               0.20    14000.00
00025               1.00    14200.00
00026               2.00    14000.00
00027               1.20    14200.00
00028               0.40    14200.00
00029               1.20    14200.00
00030               2.00    14600.00
00031               1.40    14400.00
00032               1.00    14400.00
00033               1.20    14400.00
00034               1.80    14600.00
00035               1.20    14400.00
00036               0.40    14400.00
00037               1.40    14400.00
00038               1.80    14600.00
00039               1.00    14600.00
00040               1.40    14600.00
00041               1.80    14400.00
00042               1.20    14600.00
00043               1.00    14400.00
00044               1.80    14600.00
00045               1.80    14600.00
00046               1.20    14200.00
00047               1.20    14200.00
00048               1.20    14200.00
00049               1.40    14200.00
00050               1.40    14200.00
00051               0.40    14200.00
00052               1.80    14200.00
00053               2.00    14000.00
00054               1.20    14000.00
00055               1.20    14000.00
00056               1.80    13800.00
00057               0.40    14000.00
00058               1.20    13600.00
00059               2.00    13600.00
00060               1.00    13600.00
00061               1.00    13600.00
00062               2.20    13600.00
00063               1.20    13400.00
00064               0.40    13400.00
00065               1.00    13400.00
00066               1.40    13200.00
00067               1.40    13200.00
00068               1.00    13000.00
00069               1.40    12800.00
00070               1.20    12800.00
00071               0.40    12800.00
00072               1.00    12600.00
00073               0.60    12600.00
00074               0.40    12600.00
00075               1.40    12400.00
00076               1.40    12200.00
00077               1.20    12200.00
00078               1.00    12000.00
00079               0.60    12000.00
00080               0.80    11800.00
00081               0.60    11800.00
00082               0.60    11600.00
00083               0.60    11400.00
00084               1.00    11200.00
00085               0.60    11200.00
00086               1.20    11000.00
00087               0.40    10800.00
00088               0.40    10800.00
00089               1.80    10400.00
00090               0.60    10400.00
00091              -0.20    10400.00
00092               1.80    10000.00
00093               0.40    10000.00
00094              -0.20     9800.00
00095               1.00     9600.00
00096               0.60     9400.00
00097               1.20     9400.00
00098               0.60     9400.00
00099               0.40     9200.00
00100               1.00     8800.00
00101               0.20     8800.00
00102               0.40     8400.00
00103               0.80     8400.00
00104               1.00     8200.00
00105              -0.20     8000.00
00106               1.00     7800.00
00107               1.60     7600.00
00108              -1.00     7600.00
00109               0.20     7200.00
00110               1.80     7200.00
00111              -0.20     7000.00
00112              -0.60     6800.00
00113               0.60     6600.00
00114               2.00     6400.00
00115              -0.40     6200.00
00116              -0.20     6200.00
00117               1.80     6000.00
00118               0.00     5600.00
00119              -1.40     5600.00
00120               1.00     5400.00
00121               1.40     5200.00
00122              -0.20     4800.00
00123              -0.20     4600.00
00124               1.40     4400.00
00125               0.00     4200.00
00126              -1.00     4000.00
00127               0.40     3800.00
00128               0.60     3600.00
00129              -0.20     3400.00
00130               0.40     3200.00
00131               0.40     3000.00
00132              -0.80     2800.00
00133              -0.60     2600.00
00134               0.40     2400.00
00135              -0.40     2200.00
00136              -0.40     2000.00
00137               0.20     1800.00
00138               0.20     1600.00
00139              -0.40     1400.00
00140              -0.60     1000.00
00141              -0.60      800.00
00142               0.20      600.00
00143              -0.40      600.00
00144              -0.60      400.00
00145               0.00      200.00
00146              -0.40     -200.00
00147              -1.20     -400.00
00148               1.00     -400.00
00149               2.00     -800.00
00150              -1.80     -800.00
00151              -1.20    -1000.00
00152               1.20    -1400.00
00153              -0.60    -1600.00
00154              -1.00    -1800.00
00155              11.40    -1800.00
00156              25.00    -2400.00
00157             -25.00    -2600.00
00158             -25.00    -2800.00
00159               9.80    -2800.00
00160              14.00    -2800.00
00161              25.00    -3400.00
00162             -25.00    -3400.00
00163             -25.00    -3200.00
00164              25.00    -4200.00
00165             -23.20    -4000.00
00166             -25.00    -4000.00
00167              25.00    -4400.00
00168              10.00    -4400.00
00169             -25.00    -4600.00
00170              25.00    -5000.00
00171             -17.80    -5000.00
00172              -3.80    -5600.00
00173              -7.40    -5600.00
00174             -11.00    -5800.00
00175              25.00    -6400.00
00176             -25.00    -6000.00
00177              -4.60    -6400.00
00178              25.00    -6600.00
00179             -25.00    -6800.00
00180             -19.80    -7200.00
00181              14.40    -7000.00
00182              25.00    -7600.00
00183             -25.00    -7600.00
00184             -11.00    -8000.00
00185              25.00    -8200.00
00186             -25.00    -8000.00
00187             -15.40    -8400.00
00188              25.00    -8400.00
00189               1.20    -8800.00
00190             -25.00    -9000.00
00191               5.40    -9000.00
00192              23.40    -9200.00
00193             -25.00    -9200.00
00194               2.00    -9600.00
00195              14.60    -9600.00
00196             -10.80    -9800.00
00197              -7.80   -10000.00
00198               5.00   -10200.00
00199               3.20   -10200.00
00200             -10.60   -10600.00
00201               1.40   -10400.00
00202               5.00   -10600.00
00203              -4.60   -10800.00
00204              -8.20   -11200.00
00205               5.80   -11000.00
00206              -1.40   -11200.00
00207              -9.20   -11200.00
00208               5.40   -11600.00
00209               0.20   -11600.00
00210              -7.00   -11800.00
00211              -0.60   -12000.00
00212               3.80   -12000.00
00213              -7.40   -12200.00
00214              -3.80   -12200.00
00215               5.20   -12400.00
00216              -3.60   -12600.00
00217              -4.60   -12400.00
00218               1.40   -12600.00
00219              -0.60   -12800.00
00220              -5.40   -13000.00
00221              -1.00   -13000.00
00222               1.20   -13200.00
00223              -3.00   -13200.00
00224              -4.20   -13200.00
00225               1.80   -13200.00
00226              -0.80   -13400.00
00227              -6.00   -13600.00
00228              -0.40   -13400.00
00229               0.60   -13600.00
00230              -3.00   -13600.00
00231              -2.60   -13800.00
00232              -0.20   -14000.00
00233              -1.40   -14000.00
00234              -3.40   -14000.00
00235              -0.60   -14000.00
00236              -1.00   -14000.00
00237              -3.00   -14000.00
00238              -1.40   -14200.00
00239              -0.60   -14200.00
00240              -2.20   -14400.00
00241              -2.40   -14200.00
00242              -0.60   -14400.00
00243              -1.40   -14400.00
00244              -2.60   -14400.00
00245              -1.80   -14400.00
00246              -1.40   -14400.00
00247              -1.40   -14400.00
00248              -1.80   -14400.00
00249              -2.20   -14400.00
00250              -1.00   -14400.00
00251              -2.40   -14600.00
00252              -1.60   -14600.00
00253              -1.20   -14400.00
00254              -2.60   -14400.00
00255              -1.80   -14400.00
00256              -1.00   -14400.00
00257              -2.80   -14400.00
00258              -1.20   -14400.00
00259              -1.40   -14400.00
00260              -2.80   -14400.00
00261              -1.20   -14400.00
00262              -0.80   -14400.00
00263              -3.00   -14400.00
00264              -1.80   -14400.00
00265              -0.60   -14400.00
00266              -2.80   -14000.00
00267              -2.20   -14200.00
00268              -1.00   -14200.00
00269              -2.60   -14000.00
00270              -2.20   -14000.00
00271              -1.00   -13800.00
00272              -1.80   -13800.00
00273              -2.20   -13800.00
00274              -1.20   -13600.00
00275              -1.00   -13600.00
00276              -2.20   -13600.00
00277              -2.20   -13600.00
00278              -1.80   -13200.00
00279              -1.40   -13200.00
00280              -1.80   -13200.00
00281              -2.00   -13200.00
00282              -1.40   -13000.00
00283              -1.40   -13000.00
00284              -2.20   -13000.00
00285              -1.80   -12800.00
00286              -1.40   -12800.00
00287              -1.80   -12600.00
00288              -1.80   -12600.00
00289              -1.00   -12400.00
00290              -1.80   -12400.00
00291              -2.20   -12000.00
00292              -1.00   -12000.00
00293              -1.40   -12000.00
00294              -2.20   -12000.00
00295              -1.20   -11800.00
00296              -1.40   -11600.00
00297              -1.60   -11400.00
00298              -0.60   -11200.00
00299              -2.20   -11000.00
00300              -1.40   -11000.00
00301              -1.40   -10800.00
00302              -1.40   -10600.00
00303              -1.20   -10600.00
00304              -1.00   -10400.00
00305              -2.00   -10400.00
00306              -1.00   -10000.00
00307              -1.00   -10000.00
00308              -1.40    -9800.00
00309              -1.40    -9600.00
00310              -1.40    -9600.00
00311              -1.40    -9200.00
00312              -1.00    -9200.00
00313              -1.20    -9000.00
00314              -1.40    -8800.00
00315              -1.20    -8800.00
00316              -0.60    -8400.00
00317              -1.00    -8200.00
00318              -1.40    -8200.00
00319              -1.00    -8000.00
00320              -0.60    -8000.00
00321              -1.00    -7600.00
00322              -1.00    -7400.00
00323              -0.60    -7400.00
00324              -1.80    -7200.00
00325              -0.60    -6800.00
00326              -1.00    -6800.00
00327              -1.40    -6600.00
00328              -1.20    -6400.00
00329              -1.00    -6200.00
00330              -1.20    -6000.00
00331              -1.20    -5800.00
00332              -0.60    -5600.00
00333              -1.00    -5400.00
00334              -1.20    -5200.00
00335              -0.60    -5000.00
00336              -0.60    -4800.00
00337              -1.40    -4600.00
00338              -1.20    -4600.00
00339              -0.20    -4200.00
00340              -1.00    -4200.00
00341              -2.00    -3600.00
00342               0.20    -3600.00
00343              -0.60    -3400.00
00344              -2.00    -3200.00
00345               0.40    -3000.00
00346              -0.60    -2800.00
00347              -2.20    -2600.00
00348               0.20    -2400.00
00349               0.20    -2400.00
00350              -2.00    -2000.00
00351              -0.60    -1800.00
00352               0.60    -1600.00
00353              -1.20    -1400.00
00354              -0.60    -1200.00
00355               0.20     -800.00
00356              -0.60     -800.00
00357              -1.00     -400.00
00358               0.20     -200.00
00359              -0.20     -200.00
00360              -0.80      200.00
00361               0.60      400.00
00362               2.20      600.00
00363              -0.60      800.00
00364              -1.80     1000.00
00365               1.20     1200.00
00366               1.00     1400.00
00367              -0.60     1400.00
00368               1.40     1800.00
00369               9.00     2000.00
00370              19.80     2400.00
00371             -17.40     2400.00
00372             -25.00     2800.00
00373               7.60     2800.00
00374               2.20     3000.00
00375              21.00     3200.00
00376              18.60     3400.00
00377             -25.00     3600.00
00378              25.00     4000.00
00379              25.00     3800.00
00380             -25.00     4200.00
00381              14.80     4400.00
00382              25.00     4400.00
00383             -25.00     4800.00
00384               5.40     5200.00
00385              25.00     5200.00
00386             -16.40     5600.00
00387               1.00     5600.00
00388              -4.20     6000.00
00389              15.00     6000.00
00390              -3.80     6400.00
00391             -20.40     6400.00
00392              21.80     6800.00
00393              12.40     7000.00
00394             -19.80     7000.00
00395              -9.60     7200.00
00396              25.00     7200.00
00397               0.20     7800.00
00398             -25.00     7800.00
00399              19.80     8000.00
00400              17.80     8200.00
00401             -25.00     8400.00
00402               2.60     8400.00
00403              21.20     8600.00
00404             -15.60     8800.00
00405              -8.80     9000.00
00406              22.80     9200.00
00407              -5.00     9400.00
00408             -12.60     9400.00
00409              13.80     9600.00
00410               4.00     9800.00
00411             -10.80    10000.00
00412               2.00    10000.00
00413               8.20    10200.00
00414              -1.80    10400.00
00415              -3.40    10400.00
00416               4.60    10800.00
00417               3.80    10800.00
00418              -4.60    11000.00
00419              -0.20    11000.00
00420               6.60    11200.00
00421              -2.80    11600.00
00422              -1.20    11600.00
00423               7.00    11600.00
00424              -0.20    11800.00
00425              -3.80    11800.00
00426               5.20    12000.00
00427               2.60    12000.00
00428              -4.20    12200.00
00429               3.60    12400.00
00430               4.40    12400.00
00431              -3.00    12600.00
00432               1.20    12600.00
00433               3.80    12600.00
00434              -0.60    12800.00
00435               0.20    12800.00
00436               3.00    13200.00
00437               1.40    13200.00
00438              -0.20    13200.00
00439               1.80    13200.00
00440               2.60    13400.00
00441              -0.20    13600.00
00442               0.20    13600.00
00443               2.80    13600.00
00444               2.00    13600.00
00445              -0.20    13600.00
00446               1.80    14000.00
00447               2.60    13800.00
00448              -0.20    14000.00
00449               1.00    14000.00
00450               2.60    14200.00
00451               0.20    14000.00
00452               0.40    14000.00
00453               3.00    14200.00
00454               1.20    14200.00
00455               0.40    14200.00
00456               2.00    14200.00
00457               2.00    14400.00
00458               0.40    14200.00
00459               1.40    14600.00
00460               1.40    14200.00
00461               1.00    14400.00
00462               1.40    14600.00
00463               1.40    14400.00
00464               0.80    14400.00
00465               1.00    14600.00
00466               1.60    14400.00
00467               1.40    14600.00
00468               1.00    14600.00
00469               1.20    14200.00
00470               1.20    14400.00
00471               1.20    14400.00
00472               1.80    14400.00
00473               1.00    14600.00
00474               1.00    14400.00
00475               1.80    14200.00
00476               1.20    14200.00
00477               0.60    14200.00
00478               1.00    14200.00
00479               1.80    14000.00
00480               1.20    14000.00
00481               1.40    14000.00
00482               1.20    14000.00
00483               1.00    14000.00
00484               0.60    14000.00
00485               1.00    14000.00
00486               1.20    13800.00
00487               1.20    13600.00
00488               1.00    13600.00
00489               1.80    13600.00
00490               1.20    13600.00
00491               1.00    13400.00
00492               1.00    13200.00
00493               1.20    13200.00
00494               1.20    13200.00
00495               1.40    13200.00
00496               0.60    13000.00
00497               1.20    12800.00
00498               1.00    12800.00
00499               1.00    12800.00
00500               1.20    12800.00
00501               1.20    12400.00
00502               1.20    12400.00
00503               1.00    12200.00
00504               1.40    12200.00
00505               1.00    12000.00
00506               0.60    12000.00
00507               1.00    11800.00
00508               1.20    11800.00
00509               1.00    11600.00
00510               0.60    11200.00
00511               1.00    11200.00
00512               1.00    11200.00
00513               0.60    11000.00
00514               0.60    10800.00
00515               1.00    10800.00
00516               1.00    10600.00
00517               1.00    10400.00
00518               1.00    10400.00
00519               1.00    10200.00
00520               0.80    10000.00
00521               1.00     9800.00
00522               1.00     9600.00
00523               0.20     9600.00
00524               0.60     9400.00
00525               0.80     9200.00
00526               0.40     9200.00
00527               0.60     8800.00
00528               0.20     8800.00
00529               0.40     8400.00
00530               1.00     8400.00
00531               0.20     8200.00
00532              -0.20     8000.00
00533               1.00     7800.00
00534               0.40     7800.00
00535              -0.40     7600.00
00536               0.60     7200.00
00537               0.60     7200.00
00538              -0.20     7000.00
00539               0.40     6800.00
00540               0.60     6400.00
00541              -0.20     6400.00
00542               0.40     6200.00
00543               0.20     6200.00
00544               0.20     6000.00
00545               0.40     5800.00
00546               0.20     5400.00
00547               0.00     5400.00
00548               0.20     5000.00
00549               0.40     4800.00
00550               0.20     4600.00
00551              -0.20     4400.00
00552               0.20     4200.00
00553               0.20     4000.00
00554               0.20     3800.00
00555               0.40     3600.00
00556              -0.40     3400.00
00557              -0.20     3200.00
00558               0.20     3000.00
00559              -0.40     3000.00
00560              -0.20     2800.00
00561              -0.20     2400.00
00562              -0.20     2200.00
00563               0.00     2000.00
00564               0.20     1800.00
00565              -0.60     1600.00
00566              -0.20     1400.00
00567               0.40     1200.00
00568              -0.60     1000.00
00569              -0.60      800.00
00570               0.60      400.00
00571               0.20      400.00
00572              -1.00        0.00
00573              -0.60        0.00
00574               0.40     -400.00
00575               0.40     -600.00
00576               0.60     -800.00
00577               0.20     -800.00
00578              -1.40    -1200.00
00579               0.20    -1200.00
00580               0.60    -1600.00
00581              -0.60    -1800.00
00582               7.60    -1800.00
00583              25.00    -2400.00
00584             -25.00    -2600.00
00585             -25.00    -2600.00
00586               8.40    -2800.00
00587               7.80    -2800.00
00588              25.00    -3200.00
00589             -25.00    -3400.00
00590             -25.00    -3200.00
00591              25.00    -4000.00
00592              11.80    -4000.00
00593             -25.00    -4000.00
00594              25.00    -4600.00
00595              25.00    -4600.00
00596             -25.00    -4600.00
00597              25.00    -5000.00
00598              -4.40    -5000.00
00599             -13.80    -5600.00
00600              -0.20    -5600.00
00601             -20.20    -5800.00
00602              25.00    -6200.00
00603             -25.00    -6000.00
00604             -22.00    -6600.00
00605              25.00    -6600.00
00606             -23.20    -6600.00
00607             -25.00    -7200.00
00608              10.60    -7200.00
00609              25.00    -7400.00
00610             -25.00    -7600.00
00611             -23.00    -7600.00
00612              25.00    -8000.00
00613             -21.80    -8200.00
00614             -23.40    -8400.00
00615              24.60    -8600.00
00616               5.20    -8800.00
00617             -25.00    -9000.00
00618              -0.60    -9000.00
00619              25.00    -9200.00
00620             -23.60    -9200.00
00621              -3.80    -9600.00
00622              17.40    -9600.00
00623             -10.20    -9800.00
00624              -9.20   -10000.00
00625               4.20   -10000.00
00626               5.20   -10200.00
00627             -10.20   -10400.00
00628               0.20   -10600.00
00629               5.80   -10600.00
00630              -3.40   -10800.00
00631              -8.20   -11000.00
00632               4.60   -11200.00
00633               1.20   -11200.00
00634             -10.20   -11400.00
00635               4.60   -11600.00
00636               1.80   -11400.00
00637              -7.00   -11600.00
00638              -1.20   -12000.00
00639               4.60   -12000.00
00640              -6.00   -12200.00
00641              -5.20   -12200.00
00642               5.80   -12400.00
00643              -2.60   -12400.00
00644              -6.00   -12600.00
00645               2.00   -12800.00
00646               0.60   -12800.00
00647              -6.00   -13000.00
00648              -1.00   -13200.00
00649               1.80   -13000.00
00650              -2.60   -13200.00
00651              -4.40   -13200.00
00652               1.20   -13200.00
00653              -0.20   -13400.00
00654              -5.80   -13400.00
00655              -0.60   -13600.00
00656               0.40   -13600.00
00657              -2.80   -13600.00
00658              -3.00   -13800.00
00659              -0.20   -13800.00
00660              -1.40   -14000.00
00661              -3.60   -14000.00
00662              -0.60   -14000.00
00663              -1.00   -14000.00
00664              -3.40   -14200.00
00665              -2.00   -14400.00
00666              -0.60   -14400.00
00667              -2.00   -14200.00
00668              -3.40   -14400.00
00669              -1.20   -14400.00
00670              -1.00   -14400.00
00671              -2.60   -14400.00
00672              -2.00   -14400.00
00673              -1.40   -14600.00
00674              -1.80   -14400.00
00675              -1.80   -14400.00
00676              -2.20   -14600.00
00677              -1.80   -14600.00
00678              -1.80   -14600.00
00679              -2.20   -14600.00
00680              -1.40   -14600.00
00681              -1.80   -14600.00
00682              -2.20   -14400.00
00683              -1.80   -14600.00
00684              -1.20   -14600.00
00685              -2.00   -14400.00
00686              -2.60   -14400.00
00687              -1.40   -14600.00
00688              -1.80   -14400.00
00689              -1.80   -14400.00
00690              -2.00   -14200.00
00691              -1.80   -14400.00
00692              -1.40   -14200.00
00693              -1.80   -14000.00
00694              -1.80   -14200.00
00695              -2.00   -14000.00
00696              -2.00   -14000.00
00697              -1.40   -14000.00
00698              -1.80   -13800.00
00699              -1.60   -13800.00
00700              -2.00   -13600.00
00701              -1.80   -13800.00
00702              -1.20   -13600.00
00703              -1.80   -13600.00
00704              -2.00   -13600.00
00705              -1.60   -13400.00
00706              -1.40   -13200.00
00707              -1.80   -13200.00
00708              -1.60   -13200.00
00709              -1.20   -13000.00
00710              -2.20   -13000.00
00711              -1.40   -13000.00
00712              -1.40   -12800.00
00713              -1.80   -12600.00
00714              -1.80   -12600.00
00715              -1.20   -12400.00
00716              -1.80   -12400.00
00717              -1.20   -12400.00
00718              -2.00   -12000.00
00719              -1.40   -12200.00
00720              -2.00   -12000.00
00721              -1.40   -12000.00
00722              -1.20   -11600.00
00723              -2.20   -11600.00
00724              -1.40   -11400.00
00725              -0.60   -11400.00
00726              -2.60   -11000.00
00727              -1.80   -11000.00
00728              -1.40   -10800.00
00729              -1.80   -10800.00
00730              -1.20   -10600.00
00731              -0.60   -10400.00
00732              -2.20   -10400.00
00733              -1.60   -10000.00
00734              -0.40   -10000.00
00735              -2.20    -9800.00
00736              -2.00    -9600.00
00737              -0.60    -9600.00
00738              -2.00    -9600.00
00739              -1.40    -9200.00
00740              -0.60    -9000.00
00741              -2.00    -9000.00
00742              -1.20    -8600.00
00743              -1.00    -8600.00
00744              -1.40    -8400.00
00745              -1.40    -8200.00
00746              -1.20    -8200.00
00747              -1.20    -7800.00
00748              -1.20    -7600.00
00749              -1.20    -7400.00
00750              -0.60    -7200.00
00751              -1.00    -7200.00
00752              -1.40    -7000.00
00753              -0.60    -6800.00
00754              -0.80    -6600.00
00755              -1.40    -6400.00
00756              -1.20    -6200.00
00757              -0.20    -6000.00
00758              -1.00    -5800.00
00759              -1.20    -5600.00
00760              -0.60    -5400.00
00761              -0.60    -5200.00
00762              -1.00    -5000.00
00763              -0.60    -4600.00
00764              -0.60    -4400.00
00765              -1.00    -4400.00
00766              -0.60    -4200.00
00767              -0.40    -4000.00
00768              -1.00    -3600.00
00769              -1.00    -3600.00
00770              -0.40    -3400.00
00771               0.00    -3200.00
00772              -0.80    -3200.00
00773              -1.00    -2800.00
00774               0.20    -2600.00
00775              -0.60    -2400.00
00776              -0.40    -2200.00
00777               0.20    -2000.00
00778              -1.20    -1800.00
00779               0.20    -1600.00
00780              -0.60    -1200.00
00781              -0.40    -1200.00
00782               0.40    -1000.00
00783              -1.20     -800.00
00784              -1.00     -400.00
00785               1.00     -200.00
00786              -0.60     -200.00
00787              -1.40        0.00
00788               1.00      400.00
00789               2.00      600.00
00790              -0.60      600.00
00791              -1.00     1000.00
00792               0.60     1200.00
00793               1.00     1400.00
00794              -0.40     1600.00
00795               0.60     1600.00
00796               7.40     2000.00
00797              19.60     2200.00
00798             -11.40     2600.00
00799             -25.00     2600.00
00800               3.80     2800.00
00801               5.20     2800.00
00802              12.20     3200.00
00803              25.00     3400.00
00804             -25.00     3600.00
00805              25.00     4000.00
00806              25.00     3800.00
00807             -25.00     4000.00
00808              -8.40     4400.00
00809              25.00     4600.00
00810             -25.00     4800.00
00811              -8.20     5200.00
00812              25.00     5200.00
00813             -15.20     5600.00
00814              -0.60     5600.00
00815              -4.40     6000.00
00816              13.20     6000.00
00817               2.00     6200.00
00818             -25.00     6400.00
00819              17.80     6800.00
00820              17.40     6800.00
00821             -17.80     7000.00
00822             -12.80     7200.00
00823              23.80     7400.00
00824               6.80     7600.00
00825             -25.00     7800.00
00826              13.60     7800.00
00827              23.00     8200.00
00828             -22.80     8400.00
00829              -2.60     8400.00
00830              22.80     8600.00
00831             -10.80     8800.00
00832             -13.40     9000.00
00833              22.00     9200.00
00834              -0.20     9400.00
00835             -15.00     9400.00
00836              12.20     9600.00
00837               6.80     9800.00
00838             -10.00    10000.00
00839              -0.20    10000.00
00840               8.40    10200.00
00841              -1.00    10400.00
00842              -3.00    10400.00
00843               3.60    10600.00
00844               4.40    10800.00
00845              -3.60    11000.00
00846              -1.20    11200.00
00847               6.80    11200.00
00848              -2.20    11400.00
00849              -2.60    11600.00
00850               6.60    11600.00
00851               1.20    11800.00
00852              -4.40    11800.00
00853               4.20    12000.00
00854               3.60    12000.00
00855              -4.20    12200.00
00856               2.00    12400.00
00857               5.00    12400.00
00858              -1.20    12400.00
00859              -0.60    12800.00
00860               3.60    12800.00
00861               0.40    12800.00
00862              -0.60    13000.00
00863               2.40    13000.00
00864               1.80    13200.00
00865              -0.60    13200.00
00866               1.00    13200.00
00867               2.80    13400.00
00868               0.20    13400.00
00869              -0.60    13600.00
00870               2.40    13600.00
00871               2.00    13600.00
00872              -0.40    13600.00
00873               1.20    14000.00
00874               2.20    13800.00
00875               0.40    14000.00
00876               0.60    14000.00
00877               2.20    14200.00
00878               0.60    14200.00
00879               0.60    14000.00
00880               2.00    14200.00
00881               1.20    14200.00
00882               0.40    14200.00
00883               1.40    14200.00
00884               1.80    14600.00
00885               1.00    14400.00
00886               0.80    14400.00
00887               1.20    14400.00
00888               1.40    14400.00
00889               1.80    14600.00
00890               1.20    14400.00
00891               1.20    14600.00
00892               1.40    14600.00
00893               1.20    14400.00
00894               1.40    14400.00
00895               1.20    14600.00
00896               1.00    14600.00
00897               1.20    14600.00
00898               1.80    14600.00
00899               1.40    14400.00
00900               1.00    14400.00
00901               1.20    14400.00
00902               1.40    14200.00
00903               1.40    14200.00
00904               1.40    14400.00
00905               1.20    14400.00
00906               1.60    14200.00
00907               1.80    14200.00
00908               1.00    14000.00
00909               1.00    14000.00
00910               1.20    14000.00
00911               1.80    13800.00
00912               0.60    13800.00
00913               1.80    13800.00
00914               1.00    13600.00
00915               0.40    13600.00
00916               1.40    13600.00
00917               1.80    13600.00
00918               0.40    13400.00
00919               1.00    13400.00
00920               1.00    13200.00
00921               2.00    13200.00
00922               1.00    13000.00
00923              -0.20    13000.00
00924               2.00    12800.00
00925               1.40    12800.00
00926              -0.60    12600.00
00927               1.40    12600.00
00928               1.80    12600.00
00929              -0.60    12400.00
00930               1.00    12400.00
00931               2.40    12200.00
00932              -0.20    12000.00
00933               0.20    12000.00
00934               2.00    11800.00
00935               0.40    11800.00
00936              -0.20    11600.00
00937               1.40    11400.00
00938               1.20    11400.00
00939               0.20    11200.00
00940               1.20    11000.00
00941               1.20    11000.00
00942               0.40    10800.00
00943               0.40    10800.00
00944               1.20    10400.00
00945               0.60    10400.00
00946               0.40    10200.00
00947               1.00    10000.00
00948               1.00    10000.00
00949               0.60     9600.00
00950               0.60     9600.00
00951               0.40     9400.00
00952               0.40     9400.00
00953               0.40     9000.00
00954               0.60     9000.00
00955               0.40     8600.00
00956               0.40     8600.00
00957               1.00     8400.00
00958               0.80     8400.00
00959               0.40     8000.00
00960               0.40     8000.00
00961               0.60     7800.00
00962               0.60     7600.00
00963               0.40     7400.00
00964               0.60     7000.00
00965               0.40     7200.00
00966               0.60     7000.00
00967               0.60     6800.00
00968               0.20     6400.00
00969               0.40     6200.00
00970               0.60     6000.00
00971               0.20     6000.00
00972               0.20     5600.00
00973               0.60     5400.00
00974               0.20     5200.00
00975               0.20     5000.00
00976               0.40     4800.00
00977               1.00     4600.00
00978              -0.40     4600.00
00979              -0.20     4400.00
00980               1.20     4000.00
00981              -0.20     3800.00
00982              -1.00     3600.00
00983               1.20     3600.00
00984              -0.20     3200.00
00985              -1.20     3200.00
00986               0.60     2800.00
00987               0.20     2600.00
00988              -1.00     2400.00
00989               0.20     2400.00
00990               0.20     2000.00
00991              -0.80     1800.00
00992              -0.40     1600.00
00993              -0.20     1400.00
00994               0.00     1200.00
00995               0.00     1000.00
00996              -0.60      600.00
00997               0.20      400.00
00998              -0.20      400.00
00999              -0.60        0.00
01000              -0.20     -200.00
01001               1.40     -200.00
01002              -1.20     -800.00
01003              -2.20     -600.00
01004               7.80    -1000.00
01005             -12.60    -1000.00
01006               4.00    -1400.00
01007               2.20    -1600.00
01008               2.00    -1800.00
01009               6.60    -1800.00
01010              25.00    -2400.00
01011             -18.00    -2600.00
01012             -25.00    -2800.00
01013               9.80    -2800.00
01014              -1.80    -2600.00
01015              25.00    -3200.00
01016             -15.80    -3600.00
01017             -25.00    -3200.00
01018              25.00    -4000.00
01019              25.00    -4000.00
01020             -25.00    -4000.00
01021              25.00    -4600.00
01022              25.00    -4400.00
01023             -25.00    -4400.00
01024              25.00    -5200.00
01025              16.20    -5000.00
01026             -24.20    -5400.00
01027               8.60    -5600.00
01028             -25.00    -5800.00
01029              25.00    -6400.00
01030             -25.00    -6000.00
01031             -25.00    -6400.00
01032              25.00    -6600.00
01033             -13.60    -6600.00
01034             -25.00    -7200.00
01035               7.60    -7200.00
01036              25.00    -7400.00
01037             -23.80    -7600.00
01038             -25.00    -7600.00
01039              25.00    -8200.00
01040             -12.00    -8000.00
01041             -25.00    -8400.00
01042              22.00    -8400.00
01043               9.40    -8800.00
01044             -23.00    -8800.00
01045              -6.60    -9000.00
01046              25.00    -9200.00
01047             -18.20    -9200.00
01048             -10.20    -9200.00
01049              17.40    -9600.00
01050              -5.80    -9600.00
01051             -10.40   -10000.00
01052               1.20   -10000.00
01053               6.20   -10400.00
01054              -8.60   -10400.00
01055              -2.80   -10600.00
01056               5.80   -10600.00
01057              -2.00   -10800.00
01058              -9.00   -11000.00
01059               2.20   -11000.00
01060               3.00   -11200.00
01061             -10.80   -11400.00
01062               2.80   -11600.00
01063               3.60   -11400.00
01064              -7.00   -11800.00
01065              -2.80   -12000.00
01066               5.00   -12000.00
01067              -5.00   -12200.00
01068              -7.60   -12200.00
01069               5.00   -12400.00
01070              -1.00   -12600.00
01071              -6.60   -12400.00
01072               1.20   -12600.00
01073               1.80   -12800.00
01074              -5.80   -13000.00
01075              -2.20   -13000.00
01076               1.80   -13200.00
01077              -2.80   -13200.00
01078              -4.40   -13200.00
01079               0.20   -13400.00
01080               0.20   -13400.00
01081              -5.00   -13600.00
01082              -1.40   -13600.00
01083               0.40   -13600.00
01084              -2.20   -13800.00
01085              -2.60   -13800.00
01086              -0.60   -14000.00
01087              -0.60   -13800.00
01088              -3.00   -14000.00
01089              -1.20   -14000.00
01090              -1.40   -14000.00
01091              -2.60   -14000.00
01092              -1.20   -14000.00
01093              -1.60   -14200.00
01094              -1.40   -14400.00
01095              -2.20   -14400.00
01096              -2.00   -14400.00
01097              -1.40   -14400.00
01098              -2.00   -14400.00
01099              -2.20   -14400.00
01100              -1.60   -14400.00
01101              -1.20   -14400.00
01102              -1.60   -14400.00
01103              -2.20   -14400.00
01104              -1.60   -14600.00
01105              -2.00   -14600.00
01106              -2.00   -14400.00
01107              -1.40   -14600.00
01108              -1.40   -14400.00
01109              -1.80   -14600.00
01110              -2.00   -14400.00
01111              -2.00   -14600.00
01112              -1.80   -14600.00
01113              -2.20   -14400.00
01114              -2.60   -14400.00
01115              -1.20   -14400.00
01116              -1.20   -14400.00
01117              -2.20   -14400.00
01118              -2.20   -14400.00
01119              -1.40   -14000.00
01120              -2.00   -14200.00
01121              -2.00   -14200.00
01122              -1.40   -14000.00
01123              -1.80   -14000.00
01124              -2.20   -14000.00
01125              -1.80   -13800.00
01126              -1.80   -13800.00
01127              -2.80   -14000.00
01128              -1.80   -13800.00
01129              -0.60   -13800.00
01130              -1.80   -13600.00
01131              -2.20   -13600.00
01132              -1.80   -13400.00
01133              -1.40   -13200.00
01134              -2.20   -13400.00
01135              -2.20   -13200.00
01136              -1.00   -13200.00
01137              -1.40   -13000.00
01138              -2.00   -13000.00
01139              -1.20   -12800.00
01140              -1.80   -12800.00
01141              -2.40   -12800.00
01142              -1.60   -12600.00
01143              -1.00   -12400.00
01144              -1.60   -12400.00
01145              -2.00   -12200.00
01146              -1.40   -12000.00
01147              -1.40   -12000.00
01148              -1.40   -11800.00
01149              -1.20   -11800.00
01150              -1.20   -11600.00
01151              -2.00   -11400.00
01152              -0.60   -11200.00
01153              -1.20   -11000.00
01154              -2.20   -11000.00
01155              -1.20   -10800.00
01156              -1.40   -10800.00
01157              -1.40   -10600.00
01158              -0.80   -10400.00
01159              -1.40   -10200.00
01160              -1.80   -10000.00
01161              -0.60   -10000.00
01162              -1.60   -10000.00
01163              -2.00    -9800.00
01164              -1.00    -9400.00
01165              -1.20    -9400.00
01166              -1.20    -9200.00
01167              -0.60    -9000.00
01168              -1.00    -9000.00
01169              -1.60    -8800.00
01170              -1.00    -8600.00
01171              -0.60    -8400.00
01172              -1.80    -8200.00
01173              -1.20    -8000.00
01174              -0.80    -8000.00
01175              -1.00    -7600.00
01176              -1.80    -7600.00
01177              -1.40    -7400.00
01178              -0.80    -7000.00
01179              -1.20    -7000.00
01180              -1.00    -6800.00
01181              -0.60    -6600.00
01182              -1.20    -6400.00
01183              -1.40    -6200.00
01184              -0.60    -6000.00
01185              -1.20    -5800.00
01186              -1.80    -5600.00
01187              -0.40    -5400.00
01188              -0.60    -5200.00
01189              -1.60    -5000.00
01190              -0.80    -4800.00
01191              -0.60    -4600.00
01192              -1.20    -4400.00
01193              -1.20    -4200.00
01194              -0.60    -4000.00
01195              -0.60    -3800.00
01196              -0.60    -3600.00
01197              -1.00    -3400.00
01198              -1.00    -3400.00
01199              -0.20    -3000.00
01200              -1.20    -2800.00
01201              -1.20    -2600.00
01202              -0.20    -2400.00
01203              -0.40    -2200.00
01204              -0.20    -2000.00
01205              -1.00    -1800.00
01206              -0.40    -1600.00
01207              -0.20    -1400.00
01208              -0.80    -1000.00
01209              -0.40    -1000.00
01210              -0.20     -600.00
01211              -0.60     -400.00
01212              -0.40     -200.00
01213              -0.20     -200.00
01214              -0.60      200.00
01215               0.80      400.00
01216               1.80      400.00
01217               0.20      800.00
01218              -1.60      800.00
01219               0.40     1200.00
01220               1.20     1400.00
01221               0.00     1600.00
01222               1.00     1800.00
01223               5.40     2000.00
01224              18.80     2400.00
01225              -4.40     2400.00
01226             -25.00     2600.00
01227               0.20     2800.00
01228               8.20     3000.00
01229               5.20     3200.00
01230              25.00     3400.00
01231             -25.00     3600.00
01232               4.00     3800.00
01233              25.00     4000.00
01234             -25.00     4000.00
01235             -25.00     4600.00
01236              25.00     4400.00
01237             -25.00     4800.00
01238             -19.80     5200.00
01239              25.00     5200.00
01240             -12.60     5400.00
01241              -2.20     5600.00
01242              -3.60     5800.00
01243               9.00     6000.00
01244               6.60     6200.00
01245             -25.00     6400.00
01246              12.20     6600.00
01247              21.80     6800.00
01248             -14.60     7000.00
01249             -17.20     7200.00
01250              19.60     7200.00
01251              14.00     7600.00
01252             -25.00     7800.00
01253               6.00     8000.00
01254              25.00     8200.00
01255             -19.60     8400.00
01256              -9.40     8600.00
01257              23.80     8600.00
01258              -4.80     8800.00
01259             -18.20     8800.00
01260              19.00     9200.00
01261               4.80     9400.00
01262             -17.20     9400.00
01263               9.00     9600.00
01264               9.20     9600.00
01265              -9.00     9800.00
01266              -2.20    10000.00
01267               8.40    10200.00
01268               0.00    10400.00
01269              -3.60    10400.00
01270               2.60    10800.00
01271               4.20    10800.00
01272              -2.20    11000.00
01273              -1.40    11200.00
01274               6.20    11200.00
01275              -1.00    11200.00
01276              -2.80    11600.00
01277               5.40    11600.00
01278               2.00    11800.00
01279              -4.20    11800.00
01280               3.40    12000.00
01281               4.60    12000.00
01282              -3.80    12200.00
01283               1.00    12400.00
01284               5.80    12400.00
01285              -1.40    12600.00
01286              -1.20    12800.00
01287               4.20    12800.00
01288               1.00    12800.00
01289              -1.00    13000.00
01290               2.80    13000.00
01291               2.20    13200.00
01292              -0.40    13200.00
01293               0.80    13400.00
01294               2.60    13400.00
01295               1.00    13400.00
01296               0.20    13600.00
01297               2.00    13600.00
01298               2.60    13600.00
01299               0.40    13600.00
01300               0.40    14000.00
01301               2.20    13800.00
01302               1.00    14000.00
01303               0.40    13800.00
01304               2.40    14000.00
01305               1.80    14000.00
01306              -0.20    14200.00
01307               1.80    14200.00
01308               2.00    14200.00
01309               0.20    14200.00
01310               0.20    14200.00
01311               2.20    14200.00
01312               2.40    14400.00
01313               0.40    14200.00
01314               1.20    14400.00
01315               2.00    14600.00
01316               1.00    14400.00
01317               0.60    14400.00
01318               1.20    14600.00
01319               1.40    14600.00
01320               1.40    14600.00
01321               1.40    14400.00
01322               1.80    14400.00
01323               1.00    14200.00
01324               0.80    14600.00
01325               1.00    14400.00
01326               1.80    14400.00
01327               1.20    14400.00
01328               0.80    14400.00
01329               1.80    14400.00
01330               2.20    14200.00
01331               0.60    14200.00
01332               0.60    14200.00
01333               2.20    14200.00
01334               1.40    14200.00
01335               0.40    14200.00
01336               1.40    14000.00
01337               1.20    14000.00
01338               1.00    14000.00
01339               0.60    14000.00
01340               1.80    13600.00
01341               1.40    13600.00
01342               0.60    13600.00
01343               1.40    13600.00
01344               1.80    13600.00
01345               0.60    13400.00
01346               0.80    13400.00
01347               1.80    13200.00
01348               1.20    13200.00
01349               0.60    13000.00
01350               2.00    13200.00
01351               1.60    12800.00
01352               0.60    12800.00
01353               1.60    12800.00
01354               1.80    12600.00
01355               0.60    12400.00
01356               0.60    12400.00
01357               1.20    12400.00
01358               1.20    12400.00
01359               0.60    12000.00
01360               1.00    11800.00
01361               1.40    11800.00
01362               0.80    11800.00
01363               1.20    11600.00
01364               1.40    11600.00
01365               0.20    11200.00
01366               1.20    11200.00
01367               1.60    11000.00
01368              -0.20    10800.00
01369               0.60    10800.00
01370               1.20    10400.00
01371               0.20    10400.00
01372               0.40    10400.00
01373               1.00    10200.00
01374               0.40    10000.00
01375               0.40    10000.00
01376               1.00     9800.00
01377               0.40     9600.00
01378               0.20     9400.00
01379               0.60     9200.00
01380               1.00     9200.00
01381               0.60     8800.00
01382               0.20     8800.00
01383               0.40     8600.00
01384               0.40     8400.00
01385               0.20     8400.00
01386               0.60     8200.00
01387               0.40     8000.00
01388               0.20     7800.00
01389               0.60     7600.00
01390               0.40     7400.00
01391               0.20     7200.00
01392               0.20     7000.00
01393               0.20     7000.00
01394               0.20     6600.00
01395               0.40     6400.00
01396               0.40     6200.00
01397               0.20     6000.00
01398               0.20     6000.00
01399               0.40     5800.00
01400               0.20     5600.00
01401               0.20     5200.00
01402               0.40     5200.00
01403               0.20     4800.00
01404               0.20     4800.00
01405              -0.20     4600.00
01406               0.20     4400.00
01407               0.20     4000.00
01408               0.20     3800.00
01409               0.40     3800.00
01410              -0.40     3600.00
01411               0.00     3200.00
01412               0.20     3200.00
01413               0.20     2800.00
01414              -0.20     2800.00
01415               0.20     2600.00
01416               0.20     2200.00
01417              -0.60     2000.00
01418               0.20     1800.00
01419               0.00     1600.00
01420              -0.40     1400.00
01421              -0.40     1400.00
01422               0.20     1000.00
01423               0.20      800.00
01424              -1.00      600.00
01425               0.20      400.00
01426              -0.40        0.00
01427              -0.20        0.00
01428              -0.60     -200.00
01429               0.40     -400.00
01430               2.00     -600.00
01431              -0.40     -800.00
01432              -1.80    -1000.00
01433               0.80    -1200.00
01434               0.40    -1400.00
01435              -1.40    -1800.00
01436               3.20    -1800.00
01437              25.00    -2000.00
01438             -12.20    -2600.00
01439             -25.00    -2800.00
01440               2.20    -2800.00
01441               3.20    -2800.00
01442              25.00    -3200.00
01443              -2.20    -3600.00
01444             -25.00    -3200.00
01445              25.00    -3800.00
01446              25.00    -4200.00
01447             -25.00    -3800.00
01448              25.00    -4400.00
01449              25.00    -4600.00
01450             -25.00    -4600.00
01451              25.00    -5000.00
01452              25.00    -5000.00
01453             -25.00    -5400.00
01454              12.20    -5600.00
01455             -25.00    -5800.00
01456              25.00    -6200.00
01457             -10.60    -6000.00
01458             -25.00    -6400.00
01459              25.00    -6600.00
01460              -0.20    -6400.00
01461             -25.00    -7200.00
01462               1.80    -7000.00
01463              25.00    -7400.00
01464             -11.00    -7600.00
01465             -25.00    -7600.00
01466              25.00    -8000.00
01467               2.60    -8000.00
01468             -25.00    -8400.00
01469              18.60    -8400.00
01470              14.80    -8600.00
01471             -19.80    -8800.00
01472             -13.60    -9000.00
01473              25.00    -9000.00
01474             -12.20    -9200.00
01475             -16.20    -9400.00
01476              19.60    -9600.00
01477              -4.40    -9600.00
01478             -11.00   -10000.00
01479               1.20   -10000.00
01480               7.60   -10200.00
01481              -7.60   -10400.00
01482              -4.20   -10400.00
01483               6.00   -10600.00
01484              -0.80   -10800.00
01485              -8.60   -11000.00
01486               0.40   -11200.00
01487               5.80   -11200.00
01488             -10.20   -11400.00
01489               1.00   -11400.00
01490               4.60   -11600.00
01491              -5.80   -11600.00
01492              -4.20   -11800.00
01493               4.20   -12000.00
01494              -2.20   -12200.00
01495              -8.20   -12200.00
01496               4.20   -12400.00
01497               0.80   -12400.00
01498              -6.60   -12400.00
01499              -1.00   -12800.00
01500               3.00   -12800.00
01501              -5.20   -12800.00
01502              -4.00   -13000.00
01503               2.80   -13200.00
01504              -1.60   -13200.00
01505              -6.00   -13200.00
01506               0.60   -13200.00
01507               2.00   -13400.00
01508              -6.60   -13600.00
01509              -2.20   -13600.00
01510               2.20   -13600.00
01511              -3.00   -13600.00
01512              -3.80   -13800.00
01513               0.20   -13800.00
01514              -0.60   -14000.00
01515              -4.40   -14000.00
01516              -0.40   -14000.00
01517              -0.20   -14000.00
01518              -3.80   -14200.00
01519              -2.00   -14200.00
01520              -0.20   -14200.00
01521              -2.00   -14400.00
01522              -3.60   -14400.00
01523              -1.20   -14200.00
01524              -0.20   -14400.00
01525              -2.80   -14400.00
01526              -2.80   -14400.00
01527              -1.20   -14400.00
01528              -2.20   -14400.00
01529              -2.00   -14600.00
01530              -2.00   -14400.00
01531              -1.20   -14400.00
01532              -1.40   -14400.00
01533              -2.20   -14600.00
01534              -1.60   -14400.00
01535              -1.80   -14600.00
01536              -2.60   -14400.00
01537              -2.00   -14600.00
01538              -1.20   -14400.00
01539              -1.60   -14600.00
01540              -2.20   -14600.00
01541              -1.80   -14400.00
01542              -1.80   -14400.00
01543              -1.80   -14200.00
01544              -2.20   -14400.00
01545              -2.00   -14400.00
01546              -1.20   -14400.00
01547              -1.40   -14200.00
01548              -1.80   -14000.00
01549              -2.00   -14200.00
01550              -1.40   -14000.00
01551              -2.00   -13800.00
01552              -2.00   -14000.00
01553              -1.20   -13800.00
01554              -2.00   -13800.00
01555              -2.00   -13800.00
01556              -1.00   -13800.00
01557              -1.00   -13600.00
01558              -2.20   -13600.00
01559              -2.60   -13600.00
01560              -1.00   -13600.00
01561              -1.60   -13200.00
01562              -2.20   -13200.00
01563              -1.20   -13000.00
01564              -1.80   -13000.00
01565              -2.20   -12800.00
01566              -1.00   -12800.00
01567              -2.00   -12800.00
01568              -3.00   -12600.00
01569              -1.20   -12600.00
01570              -1.40   -12400.00
01571              -2.00   -12200.00
01572              -2.00   -12400.00
01573              -1.40   -12200.00
01574              -1.80   -12000.00
01575              -1.60   -11800.00
01576              -1.80   -11600.00
01577              -1.40   -11600.00
01578              -2.00   -11600.00
01579              -1.00   -11400.00
01580              -1.40   -11200.00
01581              -2.20   -11000.00
01582              -2.00   -11000.00
01583              -1.20   -10800.00
01584              -1.20   -10600.00
01585              -1.80   -10600.00
01586              -1.80   -10400.00
01587              -1.20   -10200.00
01588              -1.20   -10000.00
01589              -1.40   -10000.00
01590              -2.00    -9800.00
01591              -1.00    -9600.00
01592              -1.20    -9400.00
01593              -1.40    -9200.00
01594              -1.20    -9200.00
01595              -1.00    -9000.00
01596              -1.20    -8800.00
01597              -1.40    -8600.00
01598              -1.20    -8400.00
01599              -1.20    -8200.00
01600              -1.20    -8200.00
01601              -1.60    -8000.00
01602              -1.00    -7600.00
01603              -1.00    -7600.00
01604              -1.20    -7200.00
01605              -1.20    -7200.00
01606              -1.20    -6800.00
01607              -1.00    -6800.00
01608              -1.00    -6600.00
01609              -1.00    -6600.00
01610              -1.00    -6400.00
01611              -0.60    -6000.00
01612              -1.00    -6000.00
01613              -0.80    -5800.00
01614              -0.60    -5600.00
01615              -1.00    -5400.00
01616              -0.60    -5000.00
01617              -1.00    -4800.00
01618              -1.20    -4600.00
01619              -0.60    -4400.00
01620              -0.60    -4200.00
01621              -1.00    -4000.00
01622              -0.60    -3800.00
01623              -0.60    -3600.00
01624              -1.00    -3400.00
01625              -0.60    -3400.00
01626              -0.40    -3200.00
01627              -0.60    -2800.00
01628              -1.00    -2600.00
01629              -0.20    -2400.00
01630              -0.60    -2400.00
01631              -0.60    -2000.00
01632              -0.60    -1800.00
01633              -0.60    -1600.00
01634              -0.60    -1600.00
01635              -0.60    -1200.00
01636              -0.60     -800.00
01637              -0.40     -800.00
01638              -0.40     -600.00
01639              -0.40     -400.00
01640              -0.20        0.00
01641              -0.40        0.00
01642               0.20      400.00
01643               1.00      400.00
01644               1.00      800.00
01645              -1.20      800.00
01646              -0.20     1000.00
01647               1.80     1200.00
01648              -0.60     1400.00
01649              -0.40     1600.00
01650               5.00     2000.00
01651              17.20     2200.00
01652               1.80     2400.00
01653             -25.00     2600.00
01654              -6.20     2800.00
01655               9.80     2800.00
01656               0.20     3200.00
01657              25.00     3400.00
01658             -25.00     3400.00
01659             -18.40     3800.00
01660              25.00     3800.00
01661             -25.00     4000.00
01662             -25.00     4400.00
01663              25.00     4600.00
01664             -22.60     4400.00
01665             -25.00     5200.00
01666              25.00     5200.00
01667              -7.80     5400.00
01668              -6.60     5600.00
01669              -1.40     5800.00
01670               6.20     6000.00
01671              10.20     6000.00
01672             -25.00     6400.00
01673               6.00     6400.00
01674              25.00     6800.00
01675              -9.40     7000.00
01676             -20.60     7000.00
01677              15.00     7200.00
01678              20.20     7600.00
01679             -25.00     7600.00
01680              -2.00     8200.00
01681              25.00     8200.00
01682             -14.40     8200.00
01683             -13.80     8400.00
01684              22.60     8400.00
01685               0.40     8800.00
01686             -21.00     9000.00
01687              16.20     9200.00
01688               9.80     9200.00
01689             -17.00     9400.00
01690               6.80     9600.00
01691              11.00     9600.00
01692              -8.60    10000.00
01693              -3.60    10000.00
01694               8.20    10200.00
01695               1.40    10200.00
01696              -3.00    10400.00
01697               1.80    10600.00
01698               4.60    10800.00
01699              -1.40    10800.00
01700              -3.00    11000.00
01701               5.40    11200.00
01702               1.00    11200.00
01703              -3.00    11400.00
01704               5.00    11600.00
01705               2.80    11800.00
01706              -3.80    11800.00
01707               1.60    12000.00
01708               4.20    12000.00
01709              -2.80    12400.00
01710               0.20    12400.00
01711               5.20    12600.00
01712              -0.40    12400.00
01713              -1.20    12600.00
01714               3.40    12800.00
01715               1.00    12800.00
01716              -1.20    12800.00
01717               2.40    13000.00
01718               2.00    13200.00
01719               0.20    13200.00
01720               0.80    13200.00
01721               2.60    13400.00
01722               0.80    13400.00
01723              -0.40    13400.00
01724               1.80    13600.00
01725               2.40    13600.00
01726               0.20    13800.00
01727               0.40    13800.00
01728               2.60    13600.00
01729               0.60    14000.00
01730               0.60    14000.00
01731               2.00    14000.00
01732               0.80    14000.00
01733               1.00    14200.00
01734               2.00    14200.00
01735               1.80    14200.00
01736               1.00    14200.00
01737               0.40    14200.00
01738               2.00    14200.00
01739               1.80    14200.00
01740               0.40    14600.00
01741               1.40    14600.00
01742               2.00    14400.00
01743               1.40    14600.00
01744               0.60    14400.00
01745               1.80    14600.00
01746               1.40    14400.00
01747               0.60    14600.00
01748               2.00    14600.00
01749               1.80    14400.00
01750               0.60    14600.00
01751               1.40    14400.00
01752               1.80    14400.00
01753               1.20    14600.00
01754               1.40    14200.00
01755               1.60    14200.00
01756               1.00    14400.00
01757               1.40    14200.00
01758               1.80    14200.00
01759               1.00    14200.00
01760               1.40    14200.00
01761               2.00    14200.00
01762               0.60    14000.00
01763               0.40    14000.00
01764               1.20    14000.00
01765               1.40    14000.00
01766               0.60    13800.00
01767               1.60    14000.00
01768               1.20    13600.00
01769               0.40    13600.00
01770               1.40    13600.00
01771               1.40    13400.00
01772               0.60    13400.00
01773               0.60    13400.00
01774               0.80    13200.00
01775               2.00    13200.00
01776               0.40    13200.00
01777               0.60    13000.00
01778               1.40    13000.00
01779               0.20    12800.00
01780               1.20    12600.00
01781               1.20    12600.00
01782               0.20    12600.00
01783               1.40    12600.00
01784               0.40    12200.00
01785               0.20    12400.00
01786               1.80    12000.00
01787               1.00    12000.00
01788              -0.60    12000.00
01789               1.40    11600.00
01790               1.20    11600.00
01791               0.00    11600.00
01792               1.20    11400.00
01793               1.00    11200.00
01794               0.40    11000.00
01795               1.20    11000.00
01796               0.80    10800.00
01797               0.60    10800.00
01798               0.80    10600.00
01799               1.20    10400.00
01800               1.00    10200.00
01801               0.40    10000.00
01802               1.00    10000.00
01803               0.80     9800.00
01804               0.60     9600.00
01805               0.60     9400.00
01806               0.40     9400.00
01807               1.20     9200.00
01808               0.40     9000.00
01809               0.40     8800.00
01810               1.00     8600.00
01811               0.40     8400.00
01812               0.40     8200.00
01813               0.80     8000.00
01814               0.60     8200.00
01815               0.20     7800.00
01816               0.40     7600.00
01817               1.00     7400.00
01818               0.00     7200.00
01819               0.20     7000.00
01820               0.60     6800.00
01821               0.60     6800.00
01822               0.20     6600.00
01823               0.40     6200.00
01824               0.40     6000.00
01825               0.60     6000.00
01826              -0.40     5800.00
01827               0.40     5400.00
01828               0.40     5400.00
01829              -0.60     4800.00
01830               1.20     5000.00
01831              -0.20     4600.00
01832              -0.40     4400.00
01833               0.40     4400.00
01834              -0.40     4000.00
01835              -0.20     4000.00
01836               0.40     3600.00
01837              -0.40     3400.00
01838               0.20     3600.00
01839              -0.20     3200.00
01840              -0.40     3000.00
01841              -0.40     2800.00
01842              -0.20     2600.00
01843              -0.40     2200.00
01844               0.00     2000.00
01845               0.20     1800.00
01846              -0.60     1600.00
01847              -0.60     1400.00
01848              -0.20     1200.00
01849              -0.40     1000.00
01850              -0.40      800.00
01851              -0.40      600.00
01852              -0.60      400.00
01853              -0.20      200.00
01854              -0.20        0.00
01855              -0.40     -200.00
01856               0.20     -400.00
01857               2.20     -600.00
01858              -0.20     -800.00
01859              -2.00    -1200.00
01860               0.20    -1200.00
01861               0.40    -1400.00
01862              -1.20    -1600.00
01863               2.00    -1800.00
01864              25.00    -2200.00
01865              -3.20    -2400.00
01866             -25.00    -2800.00
01867              -2.20    -2800.00
01868               4.40    -2800.00
01869              25.00    -2800.00
01870              16.80    -3600.00
01871             -25.00    -3200.00
01872              25.00    -3600.00
01873              25.00    -4000.00
01874             -25.00    -4000.00
01875              21.20    -4400.00
01876              25.00    -4600.00
01877             -25.00    -4600.00
01878              25.00    -5000.00
01879              25.00    -5000.00
01880             -25.00    -5200.00
01881              14.20    -5800.00
01882             -25.00    -5600.00
01883              25.00    -6000.00
01884               7.60    -6200.00
01885             -25.00    -6200.00
01886              25.00    -6800.00
01887              13.20    -6400.00
01888             -25.00    -6800.00
01889              -2.80    -7200.00
01890              25.00    -7200.00
01891              -0.60    -7600.00
01892             -25.00    -7600.00
01893              25.00    -8000.00
01894              15.40    -8000.00
01895             -25.00    -8200.00
01896              13.40    -8400.00
01897              18.40    -8400.00
01898             -15.80    -8800.00
01899             -19.40    -8800.00
01900              25.00    -9200.00
01901              -4.60    -9200.00
01902             -21.60    -9200.00
01903              18.60    -9600.00
01904              -0.60    -9600.00
01905             -12.60   -10000.00
01906              -0.60   -10000.00
01907               8.20   -10000.00
01908              -6.40   -10400.00
01909              -6.60   -10400.00
01910               5.80   -10800.00
01911               0.60   -10800.00
01912              -9.00   -10800.00
01913              -1.40   -11000.00
01914               7.00   -11200.00
01915             -10.00   -11400.00
01916              -1.40   -11600.00
01917               6.00   -11600.00
01918              -5.40   -11600.00
01919              -5.40   -11800.00
01920               4.20   -12200.00
01921              -0.60   -12000.00
01922              -9.20   -12200.00
01923               3.00   -12400.00
01924               2.00   -12400.00
01925              -6.80   -12600.00
01926              -1.40   -12800.00
01927               3.00   -12800.00
01928              -4.60   -13000.00
01929              -4.20   -13000.00
01930               2.00   -13000.00
01931              -1.00   -13200.00
01932              -5.20   -13200.00
01933              -0.60   -13200.00
01934               2.20   -13400.00
01935              -5.00   -13400.00
01936              -2.80   -13600.00
01937               1.80   -13600.00
01938              -1.80   -13800.00
01939              -3.80   -13800.00
01940              -0.60   -13800.00
01941              -0.20   -14000.00
01942              -3.80   -14000.00
01943              -1.40   -13800.00
01944               0.20   -14000.00
01945              -3.00   -14000.00
01946              -2.40   -14200.00
01947              -0.40   -14200.00
01948              -1.40   -14400.00
01949              -2.80   -14400.00
01950              -1.40   -14400.00
01951              -0.60   -14200.00
01952              -2.00   -14400.00
01953              -2.20   -14600.00
01954              -1.40   -14400.00
01955              -1.80   -14400.00
01956              -2.00   -14600.00
01957              -2.20   -14400.00
01958              -1.80   -14600.00
01959              -2.00   -14600.00
01960              -2.20   -14400.00
01961              -1.20   -14600.00
01962              -2.00   -14600.00
01963              -2.20   -14400.00
01964              -2.00   -14600.00
01965              -1.40   -14600.00
01966              -2.00   -14400.00
01967              -2.60   -14600.00
01968              -1.60   -14600.00
01969              -1.40   -14400.00
01970              -2.40   -14400.00
01971              -2.00   -14400.00
01972              -1.40   -14400.00
01973              -2.60   -14400.00
01974              -2.00   -14400.00
01975              -1.00   -14000.00
01976              -2.20   -14000.00
01977              -2.20   -14200.00
01978              -2.00   -14000.00
01979              -1.40   -14000.00
01980              -1.20   -13800.00
01981              -2.60   -13600.00
01982              -2.00   -13800.00
01983              -0.60   -13600.00
01984              -1.80   -13600.00
01985              -2.40   -13600.00
01986              -2.00   -13600.00
01987              -1.20   -13600.00
01988              -2.20   -13400.00
01989              -0.80   -13200.00
01990              -1.80   -13200.00
01991              -2.60   -13000.00
01992              -1.00   -12800.00
01993              -1.20   -13000.00
01994              -2.20   -12800.00
01995              -2.80   -12800.00
01996              -1.00   -12600.00
01997               0.40   -12400.00
01998              -2.80   -12400.00
01999              -1.40   -12200.00
02000              -0.40   -12000.00
02001              -2.60   -12000.00
02002              -2.80   -12000.00
02003              -0.40   -11600.00
02004              -1.40   -11600.00
02005              -2.40   -11600.00
02006              -0.40   -11400.00
02007               0.40   -11200.00
02008              -3.00   -11000.00
02009              -2.00   -11000.00
02010              -1.20   -10600.00
02011              -1.00   -10600.00
02012              -1.00   -10600.00
02013              -0.80   -10400.00
02014              -1.80   -10200.00
02015              -1.00   -10000.00
02016              -1.40    -9800.00
02017              -1.80    -9800.00
02018              -1.20    -9600.00
02019              -1.20    -9400.00
02020              -0.60    -9200.00
02021              -0.60    -9200.00
02022              -1.60    -9000.00
02023              -2.20    -8800.00
02024              -1.00    -8400.00
02025              -0.60    -8400.00
02026              -1.60    -8400.00
02027              -1.40    -8000.00
02028              -0.60    -8000.00
02029              -1.20    -7800.00
02030              -1.40    -7600.00
02031              -1.00    -7400.00
02032              -1.00    -7400.00
02033              -1.20    -7000.00
02034              -1.20    -6800.00
02035              -1.00    -6600.00
02036              -1.40    -6600.00
02037              -1.00    -6400.00
02038              -0.60    -6200.00
02039              -1.00    -5800.00
02040              -1.20    -5600.00
02041              -0.40    -5600.00
02042              -1.40    -5400.00
02043              -1.80    -5000.00
02044              -0.60    -5000.00
02045              -0.60    -4600.00
02046              -1.20    -4400.00
02047              -0.60    -4200.00
02048              -0.20    -4200.00
02049              -1.00    -4000.00
02050              -1.20    -3600.00
02051              -0.60    -3600.00
02052              -0.40    -3200.00
02053              -0.60    -3200.00
02054              -0.40    -2800.00
02055              -0.60    -2600.00
02056              -0.40    -2400.00
02057              -0.40    -2400.00
02058              -0.20    -2000.00
02059              -0.60    -1800.00
02060              -0.40    -1800.00
02061              -0.60    -1400.00
02062              -0.20    -1200.00
02063               0.00    -1000.00
02064              -1.40     -800.00
02065              -0.20     -600.00
02066               0.80     -400.00
02067              -1.00     -200.00
02068              -0.60        0.00
02069               1.60      400.00
02070               1.00      400.00
02071               0.40      600.00
02072              -0.20      800.00
02073              -0.20     1000.00
02074               0.40     1200.00
02075               0.40     1800.00
02076               0.20     1600.00
02077               2.80     2000.00
02078              16.60     2200.00
02079               8.60     2600.00
02080             -25.00     2600.00
02081             -12.40     2800.00
02082              10.80     2800.00
02083              -2.80     3200.00
02084              25.00     3400.00
02085             -25.00     3200.00
02086             -25.00     3800.00
02087              25.00     3800.00
02088             -18.00     4000.00
02089             -25.00     4600.00
02090              25.00     4400.00
02091              -2.00     4600.00
02092             -25.00     5000.00
02093              25.00     5200.00
02094              -2.20     5200.00
02095              -9.20     5600.00
02096              -2.00     5600.00
02097               3.60     6000.00
02098              13.80     6200.00
02099             -24.40     6400.00
02100               1.20     6400.00
02101              25.00     6800.00
02102              -7.40     7000.00
02103             -21.80     7000.00
02104              10.00     7200.00
02105              23.80     7600.00
02106             -25.00     7800.00
02107              -9.40     7800.00
02108              25.00     8000.00
02109              -8.60     8200.00
02110             -18.20     8400.00
02111              20.40     8600.00
02112               5.40     8800.00
02113             -23.20     8800.00
02114              12.20     9200.00
02115              14.80     9200.00
02116             -16.60     9400.00
02117               2.80     9600.00
02118              13.20     9600.00
02119              -7.00    10000.00
02120              -5.40    10000.00
02121               7.80    10200.00
02122               2.00    10400.00
02123              -3.40    10400.00
02124               1.40    10800.00
02125               5.00    10800.00
02126              -0.60    11000.00
02127              -3.60    11000.00
02128               5.00    11200.00
02129               2.20    11200.00
02130              -4.20    11600.00
02131               3.80    11600.00
02132               4.60    11800.00
02133              -3.80    11800.00
02134               0.60    12000.00
02135               5.80    12000.00
02136              -2.00    12000.00
02137              -1.20    12400.00
02138               5.40    12400.00
02139               0.60    12400.00
02140              -1.60    12600.00
02141               2.80    12800.00
02142               2.00    12800.00
02143              -1.00    12800.00
02144               1.40    13000.00
02145               3.00    13200.00
02146               0.40    13200.00
02147               0.20    13200.00
02148               2.60    13400.00
02149               1.80    13400.00
02150              -1.00    13400.00
02151               1.20    13600.00
02152               3.00    13600.00
02153               0.40    13600.00
02154               0.20    13800.00
02155               2.20    14000.00
02156               1.00    13600.00
02157               0.40    14000.00
02158               1.80    14000.00
02159               1.40    14000.00
02160               0.40    14200.00
02161               1.80    14200.00
02162               1.80    14200.00
02163               0.40    14200.00
02164               1.00    14200.00
02165               1.80    14200.00
02166               1.40    14200.00
02167               1.00    14600.00
02168               1.00    14200.00
02169               1.20    14400.00
02170               1.40    14400.00
02171               1.20    14600.00
02172               1.40    14400.00
02173               1.00    14600.00
02174               1.00    14600.00
02175               1.80    14600.00
02176               1.00    14400.00
02177               1.20    14600.00
02178               1.20    14600.00
02179               1.20    14400.00
02180               1.80    14600.00
02181               1.20    14600.00
02182               1.40    14200.00
02183               1.60    14600.00
02184               1.40    14400.00
02185               1.20    14200.00
02186               1.40    14200.00
02187               1.00    14200.00
02188               1.20    14000.00
02189               1.00    14000.00
02190               0.80    14200.00
02191               1.20    14200.00
02192               2.20    14000.00
02193               1.00    13800.00
02194               1.80    13800.00
02195               1.60    13600.00
02196               1.00    13600.00
02197               1.00    13600.00
02198               1.60    13600.00
02199               1.00    13400.00
02200               1.00    13400.00
02201               1.00    13200.00
02202               1.80    13200.00
02203               1.00    13000.00
02204               1.00    13200.00
02205               1.40    12800.00
02206               1.20    12800.00
02207               1.00    12800.00
02208               1.40    12600.00
02209               1.00    12600.00
02210               0.80    12400.00
02211               1.00    12400.00
02212               1.40    12200.00
02213               1.00    12000.00
02214               0.60    12000.00
02215               1.20    11800.00
02216               1.00    11800.00
02217               0.60    11600.00
02218               1.00    11200.00
02219               1.00    11200.00
02220               1.00    11200.00
02221               0.60    11200.00
02222               1.00    10800.00
02223               0.60    10800.00
02224               0.60    10600.00
02225               1.00    10400.00
02226               0.60    10400.00
02227               0.60    10200.00
02228               0.60    10000.00
02229               0.60    10000.00
02230               0.60     9600.00
02231               0.40     9600.00
02232               0.40     9400.00
02233               0.80     9200.00
02234               0.40     9200.00
02235               0.60     8800.00
02236               0.60     8800.00
02237               0.20     8800.00
02238               0.40     8400.00
02239               0.60     8400.00
02240               0.40     8200.00
02241              -0.20     8000.00
02242               0.60     7800.00
02243               1.00     7600.00
02244               0.40     7200.00
02245               0.00     7200.00
02246               0.20     7200.00
02247               0.60     7000.00
02248               0.20     6800.00
02249               0.60     6600.00
02250               0.20     6400.00
02251              -0.60     6200.00
02252               0.60     6000.00
02253               0.40     5800.00
02254               0.00     5600.00
02255               0.40     5600.00
02256               0.60     5200.00
02257               0.20     4800.00
02258               0.40     4800.00
02259               0.20     4600.00
02260              -0.20     4400.00
02261               0.40     4200.00
02262               0.20     3800.00
02263              -0.20     3800.00
02264               0.00     3600.00
02265               0.20     3200.00
02266               0.00     3200.00
02267               0.20     3000.00
02268               0.20     2800.00
02269              -0.20     2400.00
02270               0.20     2200.00
02271              -0.20     2000.00
02272               0.20     2000.00
02273              -0.20     1600.00
02274              -0.40     1400.00
02275               0.40     1400.00
02276              -0.60     1000.00
02277              -0.60      800.00
02278               0.40      600.00
02279              -0.40      400.00
02280              -0.60      400.00
02281               0.20        0.00
02282              -0.40     -400.00
02283              -0.40     -400.00
02284               1.80     -400.00
02285               0.20     -800.00
02286              -2.20    -1200.00
02287               0.00    -1000.00
02288               0.40    -1400.00
02289              -1.00    -1600.00
02290               1.40    -1800.00
02291              23.00    -2000.00
02292               5.00    -2400.00
02293             -25.00    -2600.00
02294              -9.20    -2800.00
02295               6.60    -2800.00
02296              25.00    -2800.00
02297              25.00    -3600.00
02298             -25.00    -3200.00
02299              25.00    -3600.00
02300              25.00    -4200.00
02301             -25.00    -4000.00
02302             -15.00    -4200.00
02303              25.00    -4800.00
02304             -25.00    -4400.00
02305              -2.20    -5000.00
02306              25.00    -5000.00
02307             -25.00    -5200.00
02308              14.20    -5600.00
02309             -25.00    -5600.00
02310              25.00    -6000.00
02311              23.60    -6000.00
02312             -25.00    -6200.00
02313              25.00    -6800.00
02314              25.00    -6600.00
02315             -25.00    -6800.00
02316              -6.80    -7200.00
02317              25.00    -7200.00
02318               9.00    -7600.00
02319             -25.00    -7600.00
02320              25.00    -8000.00
02321              25.00    -8000.00
02322             -25.00    -8200.00
02323               8.00    -8400.00
02324              21.40    -8400.00
02325             -11.60    -8800.00
02326             -23.20    -8800.00
02327              22.80    -9000.00
02328               3.40    -9200.00
02329             -24.60    -9200.00
02330              16.20    -9600.00
02331               3.00    -9600.00
02332             -12.40    -9800.00
02333              -2.20   -10000.00
02334               7.80   -10200.00
02335              -3.80   -10200.00
02336              -7.60   -10600.00
02337               5.20   -10800.00
02338               1.60   -10800.00
02339              -7.40   -10800.00
02340              -3.40   -11000.00
02341               7.00   -11200.00
02342              -7.80   -11400.00
02343              -3.60   -11400.00
02344               6.20   -11600.00
02345              -3.80   -11600.00
02346              -6.20   -12000.00
02347               3.00   -12000.00
02348               0.80   -12200.00
02349              -9.20   -12200.00
02350               2.00   -12400.00
02351               2.60   -12400.00
02352              -6.20   -12400.00
02353              -2.20   -12600.00
02354               2.60   -12800.00
02355              -4.20   -13000.00
02356              -4.00   -13000.00
02357               1.80   -13000.00
02358              -1.00   -13000.00
02359              -4.20   -13200.00
02360              -1.60   -13200.00
02361               1.80   -13400.00
02362              -3.80   -13600.00
02363              -3.80   -13600.00
02364               1.00   -13800.00
02365              -1.00   -13800.00
02366              -3.40   -13800.00
02367              -1.80   -13800.00
02368              -0.20   -13800.00
02369              -3.00   -13800.00
02370              -2.20   -14000.00
02371               0.20   -14000.00
02372              -2.20   -14200.00
02373              -2.80   -14200.00
02374              -0.60   -14200.00
02375              -1.20   -14200.00
02376              -3.00   -14400.00
02377              -2.00   -14400.00
02378              -0.40   -14400.00
02379              -2.00   -14400.00
02380              -2.60   -14400.00
02381              -1.80   -14400.00
02382              -1.40   -14400.00
02383              -1.40   -14400.00
02384              -2.20   -14400.00
02385              -1.40   -14400.00
02386              -1.40   -14400.00
02387              -2.20   -14400.00
02388              -1.40   -14400.00
02389              -1.40   -14600.00
02390              -2.20   -14600.00
02391              -2.00   -14600.00
02392              -1.20   -14400.00
02393              -1.40   -14400.00
02394              -2.20   -14400.00
02395              -1.80   -14400.00
02396              -1.40   -14400.00
02397              -1.40   -14400.00
02398              -1.80   -14400.00
02399              -2.20   -14400.00
02400              -1.40   -14400.00
02401              -1.80   -14200.00
02402              -1.80   -14200.00
02403              -1.40   -14000.00
02404              -2.00   -14000.00
02405              -1.80   -14000.00
02406              -1.40   -13800.00
02407              -1.80   -13800.00
02408              -2.00   -13800.00
02409              -2.00   -13800.00
02410              -1.20   -13600.00
02411              -1.20   -13600.00
02412              -2.20   -13600.00
02413              -2.20   -13600.00
02414              -1.20   -13400.00
02415              -1.80   -13400.00
02416              -2.20   -13200.00
02417              -1.40   -13200.00
02418              -1.80   -13000.00
02419              -2.00   -13000.00
02420              -1.40   -13000.00
02421              -1.40   -12800.00
02422              -2.40   -12600.00
02423              -1.80   -12400.00
02424              -1.40   -12400.00
02425              -1.40   -12400.00
02426              -2.20   -12400.00
02427              -1.80   -12200.00
02428              -1.20   -12000.00
02429              -1.80   -12000.00
02430              -2.20   -11800.00
02431              -1.80   -11600.00
02432              -1.80   -11400.00
02433              -1.40   -11400.00
02434              -1.00   -11200.00
02435              -2.20   -11000.00
02436              -1.40   -10800.00
02437              -1.60   -10800.00
02438              -1.00   -10600.00
02439              -2.00   -10600.00
02440              -1.80   -10400.00
02441              -1.00   -10000.00
02442              -1.20   -10000.00
02443              -2.00    -9800.00
02444              -0.60    -9800.00
02445              -1.20    -9600.00
02446              -2.60    -9600.00
02447              -0.60    -9200.00
02448              -0.60    -9200.00
02449              -2.20    -9000.00
02450              -1.20    -8800.00
02451              -0.40    -8600.00
02452              -1.40    -8400.00
02453              -1.40    -8200.00
02454              -0.60    -8200.00
02455              -1.40    -8000.00
02456              -1.20    -7800.00
02457              -0.40    -7600.00
02458              -1.00    -7400.00
02459              -1.40    -7200.00
02460              -1.00    -7000.00
02461              -0.60    -6800.00
02462              -1.20    -6800.00
02463              -1.20    -6400.00
02464              -1.00    -6200.00
02465              -0.60    -6200.00
02466              -1.20    -5800.00
02467              -1.40    -5800.00
02468              -0.40    -5600.00
02469              -1.00    -5200.00
02470              -0.80    -5000.00
02471              -0.20    -4800.00
02472              -0.80    -4600.00
02473              -1.20    -4400.00
02474              -0.40    -4200.00
02475              -0.80    -4200.00
02476              -1.20    -4000.00
02477              -0.80    -3800.00
02478              -0.60    -3600.00
02479              -1.00    -3400.00
02480              -1.40    -3200.00
02481              -0.40    -2800.00
02482              -0.60    -2800.00
02483              -1.20    -2400.00
02484              -0.20    -2400.00
02485              -0.60    -2000.00
02486              -1.20    -1800.00
02487              -0.20    -1600.00
02488              -0.60    -1400.00
02489              -1.00    -1200.00
02490               0.20    -1000.00
02491              -0.40     -800.00
02492              -1.40     -600.00
02493              -0.20     -400.00
02494               0.60     -200.00
02495              -1.40        0.00
02496              -1.20      200.00
02497               1.80      400.00
02498               1.80      600.00
02499              -2.20      800.00
02500               0.20     1000.00
02501               1.40     1200.00
02502              -0.60     1400.00
02503              -0.20     1800.00
02504               3.60     2000.00
02505              14.20     2200.00
02506              12.60     2400.00
02507             -25.00     2800.00
02508             -18.20     2800.00
02509              10.60     2800.00
02510              -3.80     3000.00
02511              25.00     3400.00
02512             -20.60     3400.00
02513             -25.00     3600.00
02514              25.00     4000.00
02515               8.60     4000.00
02516             -25.00     4200.00
02517              25.00     4400.00
02518              18.60     4600.00
02519             -25.00     5000.00
02520              25.00     5200.00
02521               4.40     5400.00
02522             -12.20     5600.00
02523              -0.40     6000.00
02524               0.80     6000.00
02525              15.60     6200.00
02526             -20.60     6400.00
02527              -3.80     6600.00
02528              25.00     6800.00
02529              -3.40     7000.00
02530             -22.00     7000.00
02531               5.00     7200.00
02532              25.00     7400.00
02533             -19.80     7800.00
02534             -15.60     8000.00
02535              25.00     8200.00
02536              -1.60     8400.00
02537             -21.00     8600.00
02538              17.00     8400.00
02539              10.80     8800.00
02540             -22.80     9000.00
02541               6.00     9200.00
02542              18.60     9200.00
02543             -15.00     9400.00
02544              -2.00     9400.00
02545              15.00     9600.00
02546              -4.60     9800.00
02547              -7.40    10000.00
02548               6.60    10000.00
02549               3.80    10400.00
02550              -3.40    10400.00
02551               0.40    10800.00
02552               5.20    10800.00
02553               0.60    10800.00
02554              -3.80    11200.00
02555               3.60    11200.00
02556               3.60    11200.00
02557              -4.40    11400.00
02558               2.20    11400.00
02559               5.40    11600.00
02560              -3.00    11800.00
02561              -0.40    12000.00
02562               5.80    12000.00
02563              -1.20    12200.00
02564              -2.20    12400.00
02565               5.20    12600.00
02566               1.80    12600.00
02567              -2.20    12800.00
02568               2.60    12800.00
02569               2.20    12800.00
02570              -1.20    13000.00
02571               1.20    13000.00
02572               2.60    13200.00
02573               0.60    13200.00
02574               0.40    13400.00
02575               2.00    13400.00
02576               1.80    13600.00
02577              -0.20    13400.00
02578               0.60    13600.00
02579               2.40    13600.00
02580               1.80    13800.00
02581               0.40    14000.00
02582               1.80    13800.00
02583               1.40    13800.00
02584               0.20    14000.00
02585               2.00    14000.00
02586               2.00    14200.00
02587               0.20    14200.00
02588               1.40    14200.00
02589               2.20    14200.00
02590               0.40    14200.00
02591               0.40    14400.00
02592               2.00    14600.00
02593               1.80    14400.00
02594               0.80    14400.00
02595               1.80    14600.00
02596               1.40    14600.00
02597               1.20    14600.00
02598               1.20    14400.00
02599               1.80    14600.00
02600               1.40    14600.00
02601               1.20    14400.00
02602               1.20    14600.00
02603               1.20    14600.00
02604               1.40    14600.00
02605               1.20    14400.00
02606               1.00    14400.00
02607               1.80    14600.00
02608               1.40    14400.00
02609               0.60    14600.00
02610               1.00    14400.00
02611               1.40    14200.00
02612               1.00    14200.00
02613               1.20    14200.00
02614               1.20    14200.00
02615               1.20    14200.00
02616               0.60    14200.00
02617               1.20    14000.00
02618               1.00    14000.00
02619               1.20    14000.00
02620               1.40    13800.00
02621               2.00    13800.00
02622               0.20    13800.00
02623               0.80    13600.00
02624               1.80    13600.00
02625               1.20    13600.00
02626               0.20    13400.00
02627               1.20    13400.00
02628               1.80    13200.00
02629               1.00    13400.00
02630               0.40    13200.00
02631               1.60    13200.00
02632               1.00    13000.00
02633               0.00    12800.00
02634               1.80    12800.00
02635               1.00    12600.00
02636              -0.20    12600.00
02637               1.40    12600.00
02638               1.40    12400.00
02639               0.20    12200.00
02640               1.00    12400.00
02641               1.80    12000.00
02642               0.40    12000.00
02643               0.40    11800.00
02644               1.40    11600.00
02645               0.60    11600.00
02646               0.20    11400.00
02647               1.60    11200.00
02648               1.20    11200.00
02649               0.40    11000.00
02650               1.00    10800.00
02651               1.20    10800.00
02652               0.60    10600.00
02653               0.60    10400.00
02654               1.00    10400.00
02655               1.00    10200.00
02656               0.60    10000.00
02657               1.00    10000.00
02658               1.00     9600.00
02659               0.40     9400.00
02660               0.40     9400.00
02661               1.00     9200.00
02662               1.00     8800.00
02663               0.40     8800.00
02664               1.00     8800.00
02665               1.00     8600.00
02666               0.20     8400.00
02667               0.60     8200.00
02668               1.00     8000.00
02669               0.40     7800.00
02670               0.40     7600.00
02671               0.80     7400.00
02672               0.60     7400.00
02673              -0.20     7000.00
02674               0.20     7000.00
02675               1.00     6800.00
02676               0.20     6600.00
02677               0.00     6400.00
02678               0.40     6200.00
02679               0.40     6000.00
02680              -0.20     5800.00
02681               0.40     5400.00
02682               0.20     5400.00
02683              -0.20     5400.00
02684               0.20     4800.00
02685               0.40     4800.00
02686              -0.20     4600.00
02687               0.20     4400.00
02688               0.20     4200.00
02689               0.20     3800.00
02690               0.20     3800.00
02691              -0.20     3600.00
02692              -0.40     3400.00
02693               0.00     3200.00
02694               0.20     2800.00
02695              -0.40     2800.00
02696              -0.40     2600.00
02697               0.20     2200.00
02698               0.00     2000.00
02699              -0.60     2000.00
02700              -0.20     1600.00
02701               0.20     1400.00
02702              -0.40     1200.00
02703              -0.40     1200.00
02704               0.20      800.00
02705              -0.20      600.00
02706              -0.60      400.00
02707               0.00      400.00
02708               0.20        0.00
02709              -0.60     -400.00
02710               0.20     -400.00
02711               1.80     -800.00
02712               0.60     -800.00
02713              -2.20    -1000.00
02714               0.40    -1000.00
02715               1.00    -1400.00
02716              -1.20    -1600.00
02717               0.60    -1600.00
02718              19.40    -2000.00
02719              13.20    -2400.00
02720             -25.00    -2600.00
02721             -15.00    -2800.00
02722               8.40    -2800.00
02723              25.00    -2800.00
02724              25.00    -3600.00
02725             -25.00    -3200.00
02726              23.60    -3400.00
02727              25.00    -4200.00
02728             -25.00    -4000.00
02729             -25.00    -4200.00
02730              25.00    -4800.00
02731             -25.00    -4400.00
02732             -25.00    -5000.00
02733              25.00    -5000.00
02734             -25.00    -5200.00
02735              11.00    -5600.00
02736             -23.80    -5600.00
02737              13.20    -6000.00
02738              25.00    -6200.00
02739             -25.00    -6200.00
02740              25.00    -6600.00
02741              25.00    -6600.00
02742             -25.00    -6800.00
02743             -11.80    -7200.00
02744              22.80    -7200.00
02745              17.80    -7600.00
02746             -25.00    -7400.00
02747              16.40    -7800.00
02748              25.00    -8000.00
02749             -25.00    -8200.00
02750               0.40    -8400.00
02751              23.80    -8400.00
02752              -7.60    -8800.00
02753             -25.00    -9000.00
02754              18.40    -9200.00
02755              10.60    -9200.00
02756             -25.00    -9200.00
02757              12.40    -9600.00
02758               6.60    -9600.00
02759             -12.40    -9800.00
02760              -4.20   -10000.00
02761               6.80   -10000.00
02762              -1.80   -10400.00
02763              -8.60   -10400.00
02764               4.20   -10400.00
02765               2.60   -10800.00
02766              -6.20   -10800.00
02767              -5.20   -11000.00
02768               6.80   -11000.00
02769              -5.40   -11200.00
02770              -5.40   -11400.00
02771               6.00   -11400.00
02772              -2.80   -11600.00
02773              -6.00   -11800.00
02774               1.80   -12000.00
02775               1.80   -12000.00
02776              -7.80   -12200.00
02777              -0.20   -12200.00
02778               3.60   -12400.00
02779              -5.40   -12600.00
02780              -4.60   -12600.00
02781               4.00   -12800.00
02782              -1.20   -12800.00
02783              -6.20   -13000.00
02784               1.80   -13000.00
02785               0.40   -13200.00
02786              -5.60   -13200.00
02787              -2.20   -13200.00
02788               3.40   -13200.00
02789              -4.20   -13400.00
02790              -4.00   -13400.00
02791               1.80   -13600.00
02792              -1.80   -13600.00
02793              -3.00   -13800.00
02794              -1.80   -13600.00
02795              -0.80   -14000.00
02796              -1.20   -13800.00
02797              -1.40   -13800.00
02798              -1.60   -14000.00
02799              -2.80   -14000.00
02800              -1.80   -14200.00
02801              -1.80   -14000.00
02802              -1.40   -14200.00
02803              -1.20   -14400.00
02804              -2.60   -14400.00
02805              -1.40   -14400.00
02806              -1.40   -14400.00
02807              -2.80   -14400.00
02808              -2.00   -14400.00
02809              -1.40   -14600.00
02810              -1.60   -14400.00
02811              -1.80   -14600.00
02812              -2.00   -14600.00
02813              -2.20   -14400.00
02814              -2.60   -14600.00
02815              -1.40   -14600.00
02816              -2.00   -14400.00
02817              -2.80   -14600.00
02818              -1.80   -14400.00
02819              -1.60   -14400.00
02820              -2.20   -14600.00
02821              -2.20   -14400.00
02822              -2.20   -14400.00
02823              -1.80   -14400.00
02824              -2.00   -14600.00
02825              -1.60   -14400.00
02826              -2.00   -14400.00
02827              -1.80   -14200.00
02828              -1.80   -14400.00
02829              -2.00   -14400.00
02830              -2.00   -14000.00
02831              -1.80   -14000.00
02832              -1.80   -14000.00
02833              -2.00   -14000.00
02834              -1.20   -13800.00
02835              -1.80   -14000.00
02836              -2.40   -13800.00
02837              -2.00   -13600.00
02838              -1.80   -13600.00
02839              -1.20   -13600.00
02840              -2.80   -13600.00
02841              -0.60   -13200.00
02842              -1.00   -13200.00
02843              -2.60   -13200.00
02844              -1.20   -13200.00
02845              -1.20   -13000.00
02846              -2.60   -13000.00
02847              -1.20   -13000.00
02848              -1.40   -12800.00
02849              -2.20   -12800.00
02850              -1.40   -12800.00
02851              -1.20   -12400.00
02852              -1.40   -12400.00
02853              -1.60   -12400.00
02854              -1.80   -12000.00
02855              -1.20   -12000.00
02856              -1.80   -12000.00
02857              -2.00   -11800.00
02858              -1.40   -11800.00
02859              -1.40   -11600.00
02860              -1.40   -11400.00
02861              -0.60   -11200.00
02862              -2.00   -11000.00
02863              -1.40   -10800.00
02864              -1.80   -10800.00
02865              -0.60   -10800.00
02866              -1.80   -10600.00
02867              -1.40   -10400.00
02868              -1.40   -10000.00
02869              -1.00   -10000.00
02870              -1.60   -10000.00
02871              -1.80    -9800.00
02872              -1.20    -9600.00
02873              -1.80    -9400.00
02874              -1.40    -9400.00
02875              -0.60    -9200.00
02876              -1.40    -9000.00
02877              -2.00    -8800.00
02878              -1.00    -8600.00
02879              -1.20    -8400.00
02880              -1.80    -8400.00
02881              -1.40    -8000.00
02882              -1.00    -8000.00
02883              -1.00    -7800.00
02884              -1.40    -7600.00
02885              -1.00    -7400.00
02886              -1.00    -7200.00
02887              -1.40    -7000.00
02888              -1.20    -6800.00
02889              -0.60    -6800.00
02890              -1.00    -6400.00
02891              -1.40    -6200.00
02892              -0.60    -6000.00
02893              -1.00    -6000.00
02894              -1.20    -5800.00
02895              -1.00    -5600.00
02896              -0.60    -5600.00
02897              -0.80    -5200.00
02898              -0.60    -5000.00
02899              -0.60    -4600.00
02900              -1.20    -4600.00
02901              -1.20    -4400.00
02902              -0.40    -4200.00
02903              -0.60    -4000.00
02904              -1.00    -3800.00
02905              -0.60    -3600.00
02906              -0.20    -3400.00
02907              -1.00    -3200.00
02908              -0.80    -3000.00
02909              -0.40    -2600.00
02910              -0.60    -2600.00
02911              -0.60    -2400.00
02912              -0.40    -2000.00
02913              -0.20    -1800.00
02914              -0.60    -1800.00
02915              -0.40    -1600.00
02916              -0.20    -1200.00
02917              -0.40    -1000.00
02918              -0.60     -800.00
02919               0.00     -800.00
02920               0.20     -400.00
02921              -0.40     -400.00
02922               0.20        0.00
02923               0.20      400.00
02924               0.40      400.00
02925               2.20      600.00
02926              -0.60      800.00
02927              -1.20      800.00
02928               1.40     1400.00
02929               0.80     1400.00
02930              -0.80     1800.00
02931               2.20     1800.00
02932              13.00     2200.00
02933              16.20     2400.00
02934             -25.00     2400.00
02935             -23.80     2800.00
02936              10.80     2800.00
02937              -2.60     3000.00
02938              25.00     3600.00
02939              -7.00     3400.00
02940             -25.00     3800.00
02941              25.00     4000.00
02942              25.00     4000.00
02943             -25.00     4200.00
02944              25.00     4600.00
02945              25.00     4600.00
02946             -25.00     5000.00
02947              25.00     5200.00
02948              12.40     5200.00
02949             -15.00     5600.00
02950               1.00     5800.00
02951              -1.40     6000.00
02952              15.80     6000.00
02953             -16.20     6400.00
02954              -9.80     6800.00
02955              25.00     6600.00
02956               1.40     7000.00
02957             -22.60     7200.00
02958               0.40     7200.00
02959              25.00     7600.00
02960             -14.80     7600.00
02961             -21.40     7800.00
02962              25.00     8200.00
02963               4.20     8200.00
02964             -23.60     8400.00
02965              13.40     8600.00
02966              14.00     8800.00
02967             -22.00     8800.00
02968               2.20     9200.00
02969              20.60     9200.00
02970             -13.00     9400.00
02971              -5.00     9600.00
02972              15.40     9600.00
02973              -2.40     9800.00
02974              -8.60    10000.00
02975               5.80    10200.00
02976               5.20    10200.00
02977              -2.80    10400.00
02978              -0.60    10600.00
02979               5.20    10800.00
02980               2.00    10800.00
02981              -4.40    11000.00
02982               2.60    11200.00
02983               4.60    11200.00
02984              -4.00    11400.00
02985               1.80    11600.00
02986               6.20    11600.00
02987              -2.60    11800.00
02988              -1.20    12000.00
02989               5.80    12200.00
02990              -0.20    12200.00
02991              -2.80    12400.00
02992               5.00    12400.00
02993               2.60    12600.00
02994              -2.20    12600.00
02995               2.00    12600.00
02996               3.00    12800.00
02997              -0.60    13000.00
02998               0.40    13000.00
02999               2.60    13200.00
03000               1.20    13200.00
03001              -1.00    13400.00
03002               1.80    13400.00
03003               2.60    13400.00
03004              -1.20    13600.00
03005               0.40    13600.00
03006               3.40    13600.00
03007               0.80    13800.00
03008              -0.20    14000.00
03009               2.40    14000.00
03010               1.40    14000.00
03011               0.20    14000.00
03012               1.40    14000.00
03013               1.40    14200.00
03014               0.40    14000.00
03015               1.00    14200.00
03016               1.20    14200.00
03017               1.00    14200.00
03018               1.00    14200.00
03019               1.40    14600.00
03020               1.40    14400.00
03021               1.40    14600.00
03022               0.60    14400.00
03023               0.40    14400.00
03024               2.00    14400.00
03025               1.80    14600.00
03026               0.40    14400.00
03027               2.00    14400.00
03028               2.00    14600.00
03029               0.40    14400.00
03030               1.00    14400.00
03031               1.60    14400.00
03032               1.00    14600.00
03033               1.20    14400.00
03034               2.00    14400.00
03035               1.20    14600.00
03036               0.60    14400.00
03037               1.80    14200.00
03038               1.00    14600.00
03039               1.20    14400.00
03040               1.80    14200.00
03041               1.00    14200.00
03042               1.60    14200.00
03043               1.80    14000.00
03044               1.00    14000.00
03045               1.40    14000.00
03046               1.80    14000.00
03047               1.00    13800.00
03048               1.60    13800.00
03049               1.60    13800.00
03050               0.80    13600.00
03051               0.80    13600.00
03052               1.80    13600.00
03053               0.80    13400.00
03054               1.00    13400.00
03055               1.40    13400.00
03056               2.00    13200.00
03057               1.20    13200.00
03058               1.00    13000.00
03059               1.20    13000.00
03060               1.20    12800.00
03061               1.00    12800.00
03062               1.00    12600.00
03063               1.60    12600.00
03064               1.00    12400.00
03065               0.40    12400.00
03066               1.00    12200.00
03067               2.40    12000.00
03068              -1.00    12000.00
03069               0.40    11800.00
03070               3.00    11800.00
03071               0.40    11800.00
03072              -0.40    11400.00
03073               2.00    11400.00
03074               0.40    11200.00
03075               0.20    11000.00
03076               1.20    11000.00
03077               1.20    11000.00
03078               1.00    10800.00
03079               0.40    10600.00
03080               1.00    10400.00
03081               0.60    10200.00
03082               0.20    10000.00
03083               1.20    10000.00
03084               0.60     9600.00
03085               0.20     9600.00
03086               1.60     9600.00
03087               0.60     9200.00
03088              -0.40     9200.00
03089               0.60     9000.00
03090               1.00     8800.00
03091               0.40     8600.00
03092               0.40     8600.00
03093               1.00     8400.00
03094               1.00     8200.00
03095               0.20     8000.00
03096              -0.40     7800.00
03097               0.60     7600.00
03098               0.60     7600.00
03099              -0.20     7200.00
03100               1.20     7200.00
03101               1.00     7000.00
03102               0.40     6600.00
03103              -0.20     6600.00
03104               0.20     6400.00
03105               0.20     6200.00
03106               0.60     6200.00
03107               0.60     6000.00
03108               0.20     5600.00
03109               0.60     5200.00
03110               0.20     5200.00
03111              -0.60     5000.00
03112               0.40     4800.00
03113               0.40     4600.00
03114               0.00     4400.00
03115               0.20     4200.00
03116               0.40     4000.00
03117               0.20     3800.00
03118              -0.40     3600.00
03119               0.20     3600.00
03120               0.60     3200.00
03121               0.00     3000.00
03122              -0.20     2800.00
03123              -0.20     2600.00
03124              -0.40     2200.00
03125               0.20     2200.00
03126              -0.20     2000.00
03127              -0.20     1800.00
03128              -0.20     1600.00
03129              -0.60     1400.00
03130              -0.20     1000.00
03131              -0.20      800.00
03132              -0.60      600.00
03133              -0.20      600.00
03134              -0.20      200.00
03135              -0.60        0.00
03136              -0.40     -200.00
03137              -0.20     -400.00
03138               1.00     -400.00
03139               1.00     -800.00
03140              -1.80    -1000.00
03141              -1.00    -1200.00
03142               0.40    -1400.00
03143              -0.20    -1600.00
03144               0.20    -1800.00
03145              14.00    -2000.00
03146              20.80    -2400.00
03147             -25.00    -2600.00
03148             -23.40    -2800.00
03149              10.00    -2800.00
03150              22.60    -2800.00
03151              25.00    -3400.00
03152             -25.00    -3200.00
03153              -6.60    -3400.00
03154              25.00    -4000.00
03155             -25.00    -4000.00
03156             -25.00    -4000.00
03157              25.00    -4800.00
03158             -25.00    -4400.00
03159             -25.00    -4800.00
03160              25.00    -5000.00
03161             -25.00    -5200.00
03162               4.40    -5800.00
03163             -16.80    -5600.00
03164               2.20    -5800.00
03165              25.00    -6200.00
03166             -25.00    -6000.00
03167              13.80    -6800.00
03168              25.00    -6600.00
03169             -25.00    -6800.00
03170             -14.60    -7200.00
03171              19.60    -7200.00
03172              22.80    -7600.00
03173             -25.00    -7400.00
03174               4.40    -7600.00
03175              25.00    -8000.00
03176             -25.00    -8000.00
03177              -7.00    -8400.00
03178              25.00    -8400.00
03179              -3.40    -8800.00
03180             -25.00    -8800.00
03181              13.00    -9000.00
03182              18.60    -9200.00
03183             -25.00    -9200.00
03184               7.40    -9600.00
03185              11.20    -9600.00
03186             -12.40    -9800.00
03187              -5.80    -9800.00
03188               6.60   -10000.00
03189               0.40   -10200.00
03190             -10.00   -10400.00
03191               2.60   -10600.00
03192               2.80   -10600.00
03193              -4.80   -10800.00
03194              -5.00   -10800.00
03195               6.20   -11200.00
03196              -3.80   -11200.00
03197              -6.60   -11400.00
03198               4.40   -11600.00
03199              -2.20   -11600.00
03200              -5.40   -12000.00
03201              -0.20   -12000.00
03202               3.20   -12000.00
03203              -7.00   -12200.00
03204              -2.00   -12400.00
03205               3.80   -12400.00
03206              -4.80   -12400.00
03207              -5.20   -12600.00
03208               2.00   -12800.00
03209              -1.20   -12800.00
03210              -5.20   -12800.00
03211               0.80   -13000.00
03212               1.00   -13000.00
03213              -4.20   -13200.00
03214              -3.80   -13200.00
03215               1.20   -13600.00
03216              -2.60   -13200.00
03217              -5.20   -13600.00
03218               1.20   -13600.00
03219               0.20   -13800.00
03220              -3.60   -13800.00
03221              -2.20   -13800.00
03222              -0.20   -13800.00
03223              -2.80   -13800.00
03224              -3.40   -13800.00
03225               0.40   -14000.00
03226              -1.80   -14000.00
03227              -2.80   -14000.00
03228              -0.60   -14200.00
03229              -1.00   -14400.00
03230              -3.00   -14400.00
03231              -2.60   -14400.00
03232              -0.40   -14400.00
03233              -1.20   -14400.00
03234              -2.60   -14400.00
03235              -1.80   -14400.00
03236              -1.20   -14600.00
03237              -1.80   -14400.00
03238              -2.20   -14600.00
03239              -2.00   -14600.00
03240              -1.20   -14600.00
03241              -2.00   -14600.00
03242              -1.40   -14600.00
03243              -1.20   -14400.00
03244              -2.00   -14400.00
03245              -2.20   -14600.00
03246              -1.80   -14400.00
03247              -1.40   -14600.00
03248              -2.00   -14400.00
03249              -1.80   -14400.00
03250              -1.40   -14400.00
03251              -1.20   -14400.00
03252              -1.80   -14400.00
03253              -2.60   -14400.00
03254              -1.40   -14400.00
03255              -1.80   -14400.00
03256              -2.20   -14400.00
03257              -1.00   -14000.00
03258              -1.40   -14000.00
03259              -2.80   -14000.00
03260              -1.80   -14000.00
03261              -1.20   -14000.00
03262              -2.60   -14000.00
03263              -2.40   -13800.00
03264              -0.60   -13600.00
03265              -1.20   -13600.00
03266              -2.80   -13600.00
03267              -1.80   -13600.00
03268              -1.20   -13400.00
03269              -2.20   -13200.00
03270              -2.20   -13200.00
03271              -1.00   -13200.00
03272              -1.60   -13000.00
03273              -2.60   -13000.00
03274              -1.20   -12800.00
03275              -1.40   -12800.00
03276              -2.80   -12800.00
03277              -1.80   -12600.00
03278              -0.60   -12600.00
03279              -2.00   -12400.00
03280              -1.80   -12400.00
03281              -2.00   -12200.00
03282              -2.60   -12000.00
03283              -2.20   -12000.00
03284              -1.00   -11800.00
03285              -1.00   -11600.00
03286              -1.80   -11400.00
03287              -0.60   -11400.00
03288               0.20   -11000.00
03289              -2.60   -11200.00
03290              -1.80   -10800.00
03291              -1.00   -10800.00
03292              -4.00   -10800.00
03293              -1.20   -10600.00
03294              -0.40   -10400.00
03295              -3.80   -10000.00
03296               1.20   -10000.00
03297               0.60   -10000.00
03298              -2.60    -9800.00
03299              -0.60    -9600.00
03300              -1.40    -9600.00
03301              -3.40    -9200.00
03302              -1.40    -9200.00
03303              -1.20    -9000.00
03304              -1.20    -8800.00
03305               0.20    -8800.00
03306               0.20    -8400.00
03307              -0.20    -8400.00
03308              -2.00    -8200.00
03309              -1.40    -8000.00
03310              -2.00    -8000.00
03311              -2.20    -7600.00
03312              -0.80    -7400.00
03313              -0.60    -7200.00
03314              -0.60    -7200.00
03315               0.40    -6800.00
03316              -0.60    -6600.00
03317              -1.80    -6600.00
03318              -1.20    -6400.00
03319              -1.40    -6000.00
03320              -1.60    -6000.00
03321              -0.60    -5800.00
03322              -0.40    -5600.00
03323              -0.60    -5400.00
03324              -0.20    -5200.00
03325              -0.60    -5000.00
03326              -1.60    -4600.00
03327              -1.40    -4600.00
03328              -1.00    -4400.00
03329              -1.00    -4200.00
03330              -0.60    -4000.00
03331              -0.40    -3600.00
03332              -1.00    -3600.00
03333              -0.60    -3400.00
03334              -0.60    -3200.00
03335              -1.00    -3000.00
03336              -1.00    -2600.00
03337              -0.40    -2600.00
03338              -0.60    -2400.00
03339              -0.60    -2000.00
03340              -0.60    -2000.00
03341              -1.20    -1800.00
03342              -1.00    -1600.00
03343              -0.20    -1400.00
03344              -0.60    -1000.00
03345              -0.60     -800.00
03346              -0.20     -600.00
03347              -0.40     -400.00
03348              -0.60     -200.00
03349              -0.60     -200.00
03350              -0.60      200.00
03351               0.40      400.00
03352               2.20      600.00
03353              -0.40      800.00
03354              -1.20      800.00
03355               1.20     1000.00
03356               0.60     1400.00
03357              -0.60     1600.00
03358               1.40     2000.00
03359              10.40     2000.00
03360              18.20     2400.00
03361             -23.60     2600.00
03362             -25.00     2800.00
03363              10.20     2800.00
03364               0.00     2800.00
03365              25.00     3600.00
03366               5.80     3400.00
03367             -25.00     3600.00
03368              25.00     4000.00
03369              25.00     3800.00
03370             -25.00     4200.00
03371              25.00     4600.00
03372              25.00     4600.00
03373             -25.00     4800.00
03374              18.00     5200.00
03375              20.20     5400.00
03376             -16.40     5600.00
03377               1.20     5800.00
03378              -3.00     6000.00
03379              16.40     6000.00
03380             -10.20     6400.00
03381             -15.40     6800.00
03382              25.00     6600.00
03383               6.80     7000.00
03384             -21.20     7200.00
03385              -4.40     7200.00
03386              25.00     7600.00
03387              -7.60     7600.00
03388             -25.00     7800.00
03389              25.00     8000.00
03390              10.60     8200.00
03391             -25.00     8400.00
03392               8.60     8400.00
03393              18.20     8600.00
03394             -19.80     8800.00
03395              -2.80     8800.00
03396              22.60     9200.00
03397              -9.80     9400.00
03398              -9.00     9600.00
03399              15.00     9600.00
03400               0.40     9800.00
03401              -9.80    10000.00
03402               3.80    10000.00
03403               6.60    10200.00
03404              -2.80    10400.00
03405              -1.40    10600.00
03406               4.40    10800.00
03407               2.60    10800.00
03408              -4.20    10800.00
03409               1.20    11000.00
03410               5.80    11200.00
03411              -3.60    11200.00
03412               0.20    11600.00
03413               6.60    11600.00
03414              -1.20    11800.00
03415              -2.80    12000.00
03416               5.20    12000.00
03417               1.40    12200.00
03418              -3.80    12400.00
03419               4.20    12400.00
03420               3.60    12400.00
03421              -2.20    12600.00
03422               0.60    12600.00
03423               3.60    12800.00
03424              -0.60    12800.00
03425               0.40    13000.00
03426               3.00    13200.00
03427               1.40    13200.00
03428              -0.40    13200.00
03429               1.80    13400.00
03430               2.60    13400.00
03431               0.20    13600.00
03432              -0.20    13400.00
03433               2.80    13600.00
03434               2.00    13800.00
03435              -0.40    13600.00
03436               1.80    14000.00
03437               2.20    14000.00
03438              -0.20    14000.00
03439               1.80    14000.00
03440               2.20    14200.00
03441               0.60    14200.00
03442               1.20    14400.00
03443               2.20    14200.00
03444               1.20    14200.00
03445               0.40    14200.00
03446               1.80    14400.00
03447               1.60    14400.00
03448               0.80    14400.00
03449               1.20    14400.00
03450               1.40    14600.00
03451               1.00    14600.00
03452               1.80    14400.00
03453               1.20    14400.00
03454               0.80    14600.00
03455               1.40    14600.00
03456               1.20    14600.00
03457               0.80    14400.00
03458               1.20    14400.00
03459               1.40    14600.00
03460               1.00    14400.00
03461               1.20    14600.00
03462               1.40    14400.00
03463               0.60    14400.00
03464               1.00    14200.00
03465               1.40    14200.00
03466               1.20    14400.00
03467               1.00    14600.00
03468               0.40    14200.00
03469               1.60    14200.00
03470               1.40    14200.00
03471               1.00    14000.00
03472               1.20    14000.00
03473               1.20    14000.00
03474               0.60    14000.00
03475               1.00    13800.00
03476               1.20    13600.00
03477               1.00    13600.00
03478               0.60    13600.00
03479               1.40    13400.00
03480               1.40    13400.00
03481               0.60    13400.00
03482               0.60    13400.00
03483               1.40    13200.00
03484               1.40    13200.00
03485               0.60    13000.00
03486               1.20    13000.00
03487               1.20    12800.00
03488               0.80    12800.00
03489               1.00    12800.00
03490               1.20    12600.00
03491               0.80    12400.00
03492               1.00    12400.00
03493               1.20    12400.00
03494               1.00    12200.00
03495               0.60    12000.00
03496               1.00    12000.00
03497               1.40    12000.00
03498               0.60    11800.00
03499               1.00    11600.00
03500               1.00    11400.00
03501               1.00    11200.00
03502               1.20    11200.00
03503               1.00    11000.00
03504               0.60    10800.00
03505               1.00    10800.00
03506               1.00    10400.00
03507               1.00    10400.00
03508               1.20    10400.00
03509               0.60    10200.00
03510               0.60    10000.00
03511               1.00    10000.00
03512               0.60     9600.00
03513               0.40     9400.00
03514               0.60     9400.00
03515               1.00     9200.00
03516               0.40     9200.00
03517               0.60     8800.00
03518               0.40     8600.00
03519               0.40     8600.00
03520               0.60     8400.00
03521              -0.20     8200.00
03522               1.00     8000.00
03523               0.40     7800.00
03524              -0.60     7600.00
03525               0.60     7600.00
03526               0.60     7400.00
03527              -0.20     7200.00
03528               0.20     7000.00
03529               0.40     6800.00
03530               0.40     6600.00
03531               0.00     6400.00
03532               0.20     6200.00
03533               0.40     6000.00
03534               0.20     6000.00
03535               0.20     5600.00
03536              -0.40     5400.00
03537               0.60     5400.00
03538               0.20     5200.00
03539               0.20     4800.00
03540               0.20     4400.00
03541              -0.20     4400.00
03542              -0.20     4200.00
03543              -0.20     4000.00
03544              -0.60     3800.00
03545               0.60     3600.00
03546              -0.20     3600.00
03547               0.20     3200.00
03548               0.00     3000.00
03549              -0.20     2800.00
03550               0.40     2600.00
03551              -0.60     2400.00
03552              -0.40     2000.00
03553               0.40     2000.00
03554              -0.60     1800.00
03555              -0.60     1600.00
03556               0.40     1400.00
03557               0.40     1200.00
03558              -0.40      800.00
03559              -0.40      800.00
03560               0.20      600.00
03561              -0.60      400.00
03562              -0.40      200.00
03563               0.40        0.00
03564              -0.40     -200.00
03565               1.00     -400.00
03566               2.00     -600.00
03567              -1.40     -800.00
03568              -1.20    -1200.00
03569               1.20    -1200.00
03570               0.20    -1600.00
03571              -0.80    -1600.00
03572              11.60    -2000.00
03573              25.00    -2400.00
03574             -25.00    -2400.00
03575             -25.00    -2800.00
03576              10.60    -2800.00
03577              15.00    -2600.00
03578              25.00    -3200.00
03579             -25.00    -3400.00
03580             -25.00    -3400.00
03581              25.00    -4200.00
03582             -25.00    -3800.00
03583             -25.00    -4000.00
03584              25.00    -4600.00
03585               5.20    -4400.00
03586             -25.00    -4800.00
03587              25.00    -5000.00
03588             -20.20    -5000.00
03589              -2.80    -5600.00
03590              -8.80    -5600.00
03591             -10.60    -5800.00
03592              25.00    -6000.00
03593             -25.00    -6000.00
03594              -4.20    -6600.00
03595              25.00    -6600.00
03596             -25.00    -6600.00
03597             -20.60    -7200.00
03598              15.40    -7200.00
03599              25.00    -7400.00
03600             -25.00    -7600.00
03601              -9.20    -7800.00
03602              25.00    -8200.00
03603             -25.00    -8000.00
03604             -15.00    -8400.00
03605              25.00    -8400.00
03606               0.40    -8800.00
03607             -25.00    -9000.00
03608               6.60    -8800.00
03609              22.80    -9200.00
03610             -25.00    -9200.00
03611               2.60    -9600.00
03612              14.20    -9600.00
03613             -11.60    -9800.00
03614              -7.80   -10000.00
03615               5.60   -10000.00
03616               2.80   -10200.00
03617             -10.20   -10400.00
03618               1.80   -10600.00
03619               4.80   -10600.00
03620              -4.60   -10800.00
03621              -7.80   -11000.00
03622               5.80   -11200.00
03623              -1.20   -11200.00
03624              -8.80   -11400.00
03625               5.80   -11600.00
03626              -0.20   -11600.00
03627              -6.80   -11800.00
03628              -0.60   -12000.00
03629               4.20   -12200.00
03630              -7.00   -12200.00
03631              -3.40   -12400.00
03632               5.40   -12400.00
03633              -3.80   -12400.00
03634              -5.20   -12800.00
03635               2.20   -12800.00
03636              -0.80   -12800.00
03637              -5.80   -13000.00
03638               0.20   -13000.00
03639               1.00   -13200.00
03640              -3.40   -13200.00
03641              -3.00   -13200.00
03642               1.40   -13400.00
03643              -1.80   -13400.00
03644              -4.60   -13600.00
03645              -0.20   -13600.00
03646              -0.20   -13600.00
03647              -2.60   -13800.00
03648              -2.80   -13800.00
03649              -0.60   -13800.00
03650              -1.40   -13800.00
03651              -3.60   -14000.00
03652              -0.60   -14000.00
03653              -1.40   -14200.00
03654              -3.00   -14000.00
03655              -1.60   -14000.00
03656              -0.80   -14400.00
03657              -2.20   -14200.00
03658              -2.80   -14400.00
03659              -1.20   -14400.00
03660              -1.20   -14400.00
03661              -2.80   -14400.00
03662              -2.20   -14400.00
03663              -1.80   -14400.00
03664              -1.80   -14400.00
03665              -2.20   -14400.00
03666              -2.20   -14400.00
03667              -1.20   -14400.00
03668              -2.20   -14400.00
03669              -2.00   -14600.00
03670              -1.40   -14400.00
03671              -2.00   -14400.00
03672              -2.20   -14400.00
03673              -2.00   -14400.00
03674              -1.40   -14400.00
03675              -1.80   -14400.00
03676              -2.40   -14400.00
03677              -1.40   -14400.00
03678              -1.40   -14400.00
03679              -1.80   -14400.00
03680              -2.20   -14400.00
03681              -2.00   -14400.00
03682              -1.40   -14200.00
03683              -2.00   -14200.00
03684              -2.00   -14000.00
03685              -1.80   -14000.00
03686              -2.20   -13800.00
03687              -1.40   -13800.00
03688              -1.80   -13800.00
03689              -1.80   -13800.00
03690              -2.00   -13800.00
03691              -1.20   -13600.00
03692              -1.00   -13600.00
03693              -2.20   -13600.00
03694              -2.20   -13400.00
03695              -1.20   -13400.00
03696              -1.60   -13400.00
03697              -2.00   -13200.00
03698              -1.40   -13000.00
03699              -1.20   -13000.00
03700              -2.00   -13000.00
03701              -1.20   -12800.00
03702              -1.20   -12800.00
03703              -2.00   -12600.00
03704              -1.80   -12600.00
03705              -1.20   -12600.00
03706              -1.40   -12400.00
03707              -1.40   -12200.00
03708              -2.00   -12200.00
03709              -1.20   -12000.00
03710              -1.80   -12000.00
03711              -1.40   -11600.00
03712              -1.20   -11600.00
03713              -1.40   -11600.00
03714              -1.80   -11400.00
03715              -0.60   -11400.00
03716              -2.20   -11000.00
03717              -1.80   -11000.00
03718              -1.40   -10800.00
03719              -1.40   -10800.00
03720              -1.60   -10600.00
03721              -1.20   -10400.00
03722              -1.80   -10400.00
03723              -1.20   -10000.00
03724              -1.20   -10000.00
03725              -1.80    -9800.00
03726              -1.40    -9800.00
03727              -1.40    -9600.00
03728              -1.40    -9400.00
03729              -1.00    -9200.00
03730              -1.20    -9000.00
03731              -1.80    -9000.00
03732              -1.20    -8600.00
03733              -1.20    -8400.00
03734              -1.40    -8200.00
03735              -1.20    -8200.00
03736              -1.20    -8000.00
03737              -1.40    -8000.00
03738              -1.00    -7600.00
03739              -0.60    -7400.00
03740              -1.80    -7400.00
03741              -0.80    -7200.00
03742              -1.20    -7000.00
03743              -1.20    -6800.00
03744              -0.60    -6600.00
03745              -1.20    -6400.00
03746              -1.20    -6400.00
03747              -0.40    -6000.00
03748              -1.20    -5800.00
03749              -1.00    -5600.00
03750              -0.60    -5600.00
03751              -1.00    -5200.00
03752              -0.60    -5000.00
03753              -0.40    -4800.00
03754              -1.20    -4600.00
03755              -0.80    -4400.00
03756              -0.20    -4200.00
03757              -0.60    -4000.00
03758              -1.20    -3800.00
03759              -0.40    -3600.00
03760              -0.40    -3400.00
03761              -1.00    -3200.00
03762              -0.40    -3000.00
03763              -0.60    -2800.00
03764              -1.20    -2600.00
03765               0.40    -2400.00
03766              -0.20    -2400.00
03767              -1.40    -2000.00
03768               0.20    -1600.00
03769              -0.20    -1600.00
03770              -0.80    -1200.00
03771               0.00    -1000.00
03772               0.20     -800.00
03773              -1.00     -600.00
03774              -0.20     -400.00
03775               0.60     -200.00
03776              -0.60        0.00
03777              -0.60      200.00
03778               1.80      400.00
03779               1.40      400.00
03780              -0.60      800.00
03781              -0.60      800.00
03782               0.20     1200.00
03783               1.20     1400.00
03784              -0.60     1400.00
03785               1.00     1800.00
03786               9.80     2000.00
03787              19.40     2200.00
03788             -18.80     2600.00
03789             -25.00     2800.00
03790               7.60     2800.00
03791               1.00     2800.00
03792              21.80     3400.00
03793              18.20     3400.00
03794             -25.00     3800.00
03795              25.00     4000.00
03796              25.00     4000.00
03797             -25.00     4200.00
03798              16.20     4600.00
03799              25.00     4400.00
03800             -25.00     5000.00
03801               6.20     5200.00
03802              25.00     5200.00
03803             -16.60     5600.00
03804               0.40     5600.00
03805              -3.80     6000.00
03806              14.80     6000.00
03807              -4.40     6200.00
03808             -20.00     6400.00
03809              22.00     6600.00
03810              12.60     7000.00
03811             -20.00     7000.00
03812              -9.40     7200.00
03813              25.00     7400.00
03814              -1.00     7600.00
03815             -25.00     7800.00
03816              21.00     8000.00
03817              17.20     8200.00
03818             -25.00     8400.00
03819               3.40     8600.00
03820              21.40     8800.00
03821             -16.40     8800.00
03822              -8.40     8800.00
03823              23.00     9200.00
03824              -5.80     9400.00
03825             -12.40     9400.00
03826              14.20     9600.00
03827               3.40    10000.00
03828              -9.40    10000.00
03829               1.80    10200.00
03830               7.60    10400.00
03831              -1.20    10400.00
03832              -3.00    10600.00
03833               4.00    10800.00
03834               4.40    11000.00
03835              -3.80    11000.00
03836              -0.60    11000.00
03837               6.80    11200.00
03838              -2.20    11400.00
03839              -1.80    11600.00
03840               6.80    11800.00
03841               0.60    11800.00
03842              -3.80    12000.00
03843               4.40    12000.00
03844               3.00    12200.00
03845              -3.80    12200.00
03846               2.80    12400.00
03847               4.40    12600.00
03848              -1.80    12600.00
03849              -0.40    12600.00
03850               3.80    12800.00
03851              -0.40    12800.00
03852              -1.00    13000.00
03853               3.40    13200.00
03854               1.00    13200.00
03855              -0.40    13200.00
03856               1.80    13400.00
03857               2.20    13400.00
03858               0.20    13400.00
03859               0.00    13600.00
03860               2.20    13600.00
03861               2.20    13600.00
03862              -0.40    13800.00
03863               1.00    14000.00
03864               2.60    13800.00
03865               0.40    14000.00
03866               0.40    14000.00
03867               2.20    14000.00
03868               0.80    14200.00
03869               0.40    14200.00
03870               1.80    14200.00
03871               2.00    14200.00
03872               0.60    14200.00
03873               0.20    14200.00
03874               2.20    14400.00
03875               2.00    14600.00
03876               0.00    14400.00
03877               1.20    14400.00
03878               1.40    14600.00
03879               1.40    14400.00
03880               1.40    14400.00
03881               0.60    14600.00
03882               1.60    14400.00
03883               1.00    14600.00
03884               1.20    14400.00
03885               1.80    14600.00
03886               1.00    14600.00
03887               1.20    14400.00
03888               1.80    14600.00
03889               2.20    14600.00
03890               0.40    14400.00
03891               0.40    14400.00
03892               2.20    14400.00
03893               1.80    14400.00
03894               0.40    14200.00
03895               0.20    14200.00
03896               1.80    14200.00
03897               2.40    14200.00
03898               0.20    14000.00
03899               1.60    14000.00
03900               2.80    14000.00
03901              -0.20    13800.00
03902               0.60    14000.00
03903               2.20    13800.00
03904               1.20    13600.00
03905               0.20    13600.00
03906               2.00    13600.00
03907               1.80    13600.00
03908               0.00    13400.00
03909               0.20    13200.00
03910               2.00    13200.00
03911               1.40    13200.00
03912               0.80    13200.00
03913               1.80    13200.00
03914               0.80    12800.00
03915              -0.20    12800.00
03916               1.00    12600.00
03917               1.20    12600.00
03918               0.60    12400.00
03919               1.00    12400.00
03920               1.40    12400.00
03921               1.20    12200.00
03922               0.40    12000.00
03923               0.40    12000.00
03924               1.00    11800.00
03925               1.20    11800.00
03926               1.00    11600.00
03927               1.00    11400.00
03928               0.80    11200.00
03929               0.40    11200.00
03930               0.60    11000.00
03931               1.00    10800.00
03932               0.40    10800.00
03933               1.00    10400.00
03934               1.40    10400.00
03935               0.80    10400.00
03936               0.20    10200.00
03937               0.80    10000.00
03938               1.20     9600.00
03939               0.40     9800.00
03940               0.40     9600.00
03941               1.80     9400.00
03942               0.20     9200.00
03943              -0.40     9000.00
03944               1.20     8800.00
03945               0.60     8600.00
03946              -0.20     8600.00
03947               1.00     8400.00
03948               1.20     8400.00
03949               0.40     8000.00
03950               0.60     8000.00
03951               1.00     7600.00
03952               0.20     7400.00
03953              -0.20     7200.00
03954               0.60     7200.00
03955               1.00     7000.00
03956               0.20     6800.00
03957               0.40     6800.00
03958               1.20     6400.00
03959               0.40     6200.00
03960               0.00     6000.00
03961               0.40     6000.00
03962               0.40     5800.00
03963               0.20     5600.00
03964               0.00     5200.00
03965               0.80     5000.00
03966               0.60     4800.00
03967              -0.20     4600.00
03968               0.20     4600.00
03969               0.80     4400.00
03970               0.20     4000.00
03971              -0.40     3800.00
03972               0.40     3600.00
03973               0.20     3400.00
03974              -0.40     3200.00
03975              -0.40     3000.00
03976               0.20     3000.00
03977               0.20     2600.00
03978              -0.20     2400.00
03979              -0.60     2200.00
03980               0.20     2000.00
03981              -0.40     1800.00
03982              -1.00     1600.00
03983              -0.20     1400.00
03984               0.20     1200.00
03985              -0.60      800.00
03986              -0.60      800.00
03987              -0.20      400.00
03988              -0.60      400.00
03989              -0.60        0.00
03990              -0.20        0.00
03991              -0.60     -400.00
03992               0.60     -600.00
03993               1.40     -800.00
03994              -1.40    -1000.00
03995              -1.00    -1000.00
03996               1.00    -1400.00
03997              -0.20    -1600.00
03998              -0.60    -1800.00
03999               7.80    -1800.00
04000              25.00    -2400.00
04001             -25.00    -2600.00
04002             -25.00    -2800.00
04003               9.00    -2800.00
04004               8.60    -2800.00
04005              25.00    -3400.00
04006             -25.00    -3400.00
04007             -25.00    -3200.00
04008              25.00    -4000.00
04009               8.60    -4200.00
04010             -25.00    -4000.00
04011              25.00    -4600.00
04012              25.00    -4400.00
04013             -25.00    -4600.00
04014              25.00    -5000.00
04015              -5.20    -5000.00
04016             -12.40    -5600.00
04017              -0.80    -5600.00
04018             -20.00    -5800.00
04019              25.00    -6200.00
04020             -25.00    -6000.00
04021             -20.40    -6400.00
04022              25.00    -6600.00
04023             -23.60    -6600.00
04024             -25.00    -7200.00
04025              10.80    -7000.00
04026              25.00    -7400.00
04027             -25.00    -7600.00
04028             -22.20    -7800.00
04029              25.00    -8000.00
04030             -22.20    -8000.00
04031             -23.00    -8400.00
04032              24.40    -8400.00
04033               5.40    -8800.00
04034             -25.00    -8800.00
04035               0.20    -9000.00
04036              25.00    -9200.00
04037             -23.80    -9200.00
04038              -3.60    -9600.00
04039              17.00    -9600.00
04040             -10.20    -9800.00
04041              -9.20    -9800.00
04042               4.40   -10000.00
04043               4.40   -10200.00
04044             -10.20   -10400.00
04045               0.00   -10600.00
04046               5.00   -10600.00
04047              -3.80   -10800.00
04048              -8.60   -11000.00
04049               4.20   -11200.00
04050               1.00   -11200.00
04051             -10.20   -11400.00
04052               4.40   -11400.00
04053               1.80   -11600.00
04054              -7.40   -11800.00
04055              -1.80   -11800.00
04056               4.80   -12000.00
04057              -6.60   -12200.00
04058              -5.40   -12200.00
04059               5.80   -12400.00
04060              -2.80   -12600.00
04061              -6.00   -12800.00
04062               1.60   -12800.00
04063               0.20   -12800.00
04064              -6.20   -12800.00
04065              -1.00   -13000.00
04066               1.20   -13200.00
04067              -3.00   -13000.00
04068              -3.80   -13200.00
04069               1.20   -13200.00
04070              -0.60   -13600.00
04071              -5.40   -13600.00
04072              -0.40   -13400.00
04073               0.20   -13600.00
04074              -3.00   -13800.00
04075              -2.80   -13800.00
04076              -0.40   -14000.00
04077              -1.40   -14000.00
04078              -3.40   -14000.00
04079              -0.80   -13800.00
04080              -1.00   -14000.00
04081              -3.00   -14000.00
04082              -1.40   -14200.00
04083              -0.40   -14200.00
04084              -2.20   -14400.00
04085              -2.80   -14400.00
04086              -1.00   -14400.00
04087              -1.00   -14400.00
04088              -2.60   -14400.00
04089              -2.00   -14600.00
04090              -1.20   -14400.00
04091              -1.40   -14400.00
04092              -1.60   -14400.00
04093              -1.80   -14600.00
04094              -1.40   -14400.00
04095              -1.80   -14600.00
04096              -2.20   -14400.00
04097              -1.40   -14600.00
04098              -2.00   -14400.00
04099              -2.00   -14400.00
04100              -1.80   -14400.00
04101              -1.20   -14400.00
04102              -1.80   -14600.00
04103              -2.00   -14400.00
04104              -1.40   -14400.00
04105              -1.40   -14200.00
04106              -1.60   -14400.00
04107              -2.40   -14400.00
04108              -2.20   -14400.00
04109              -1.80   -14200.00
04110              -2.00   -14200.00
04111              -1.80   -14200.00
04112              -2.00   -14000.00
04113              -1.80   -14000.00
04114              -1.40   -14000.00
04115              -1.80   -14000.00
04116              -2.00   -13800.00
04117              -2.00   -13800.00
04118              -1.80   -13600.00
04119              -1.20   -13600.00
04120              -2.00   -13600.00
04121              -2.20   -13600.00
04122              -1.80   -13600.00
04123              -1.40   -13200.00
04124              -2.00   -13200.00
04125              -2.00   -13200.00
04126              -1.40   -13200.00
04127              -1.80   -13000.00
04128              -2.20   -12800.00
04129              -1.20   -12800.00
04130              -1.80   -12800.00
04131              -2.20   -12600.00
04132              -1.40   -12600.00
04133              -1.20   -12400.00
04134              -2.00   -12400.00
04135              -1.80   -12200.00
04136              -1.20   -12000.00
04137              -1.80   -12000.00
04138              -1.40   -11600.00
04139              -1.00   -11600.00
04140              -2.00   -11600.00
04141              -2.00   -11400.00
04142              -0.40   -11400.00
04143              -2.20   -11000.00
04144              -2.00   -11000.00
04145              -0.60   -10800.00
04146              -1.60   -10800.00
04147              -1.40   -10600.00
04148              -0.20   -10400.00
04149              -2.20   -10400.00
04150              -1.40   -10000.00
04151              -0.20   -10000.00
04152              -1.60    -9800.00
04153              -2.20    -9600.00
04154              -0.60    -9600.00
04155              -1.40    -9200.00
04156              -1.60    -9200.00
04157              -0.60    -9000.00
04158              -1.20    -8800.00
04159              -1.80    -8600.00
04160              -0.60    -8400.00
04161              -0.60    -8400.00
04162              -2.00    -8200.00
04163              -1.00    -8000.00
04164              -1.00    -7800.00
04165              -1.00    -7600.00
04166              -1.20    -7600.00
04167              -0.80    -7400.00
04168              -1.00    -7200.00
04169              -1.40    -6800.00
04170              -0.80    -6600.00
04171              -1.20    -6600.00
04172              -1.20    -6400.00
04173              -1.20    -6200.00
04174              -0.60    -6000.00
04175              -1.20    -5600.00
04176              -1.20    -5600.00
04177              -0.60    -5600.00
04178              -1.20    -5200.00
04179              -1.00    -5200.00
04180              -0.60    -4600.00
04181              -1.20    -4600.00
04182              -1.00    -4400.00
04183              -0.60    -4200.00
04184              -0.80    -4000.00
04185              -1.00    -3800.00
04186              -1.00    -3600.00
04187              -0.60    -3400.00
04188              -0.60    -3200.00
04189              -1.00    -3000.00
04190              -0.60    -2800.00
04191              -0.60    -2600.00
04192              -1.00    -2400.00
04193              -0.60    -2200.00
04194              -0.40    -1800.00
04195              -1.00    -1800.00
04196              -0.40    -1400.00
04197              -0.20    -1200.00
04198              -0.40    -1000.00
04199              -0.80     -800.00
04200              -0.60     -800.00
04201              -0.40     -400.00
04202              -0.40     -200.00
04203              -0.60     -200.00
04204              -0.20      200.00
04205               0.40      400.00
04206               1.80      400.00
04207               0.20      800.00
04208              -1.00      800.00
04209               0.20     1200.00
04210               1.20     1400.00
04211              -0.40     1600.00
04212               0.40     1800.00
04213               7.20     2000.00
04214              20.40     2200.00
04215             -11.60     2400.00
04216             -25.00     2600.00
04217               4.40     2800.00
04218               5.20     3000.00
04219              12.60     3200.00
04220              25.00     3400.00
04221             -25.00     3600.00
04222              25.00     4000.00
04223              25.00     4000.00
04224             -25.00     4000.00
04225              -6.20     4400.00
04226              25.00     4600.00
04227             -25.00     4800.00
04228              -6.00     5200.00
04229              25.00     5200.00
04230             -15.00     5600.00
04231               0.40     5600.00
04232              -4.80     5800.00
04233              12.60     6000.00
04234               2.00     6200.00
04235             -24.00     6400.00
04236              17.20     6400.00
04237              17.60     6800.00
04238             -17.20     7000.00
04239             -13.80     7200.00
04240              23.60     7400.00
04241               6.80     7600.00
04242             -25.00     7800.00
04243              13.60     8200.00
04244              22.80     8000.00
04245             -23.00     8400.00
04246              -2.80     8400.00
04247              22.80     8800.00
04248             -11.40     8800.00
04249             -13.40     9000.00
04250              22.00     9200.00
04251              -1.00     9400.00
04252             -14.80     9400.00
04253              12.40     9600.00
04254               6.00     9600.00
04255             -10.20    10000.00
04256               0.40    10000.00
04257               8.00    10400.00
04258              -1.00    10400.00
04259              -3.00    10400.00
04260               3.40    10800.00
04261               4.20    10800.00
04262              -3.20    11000.00
04263              -1.20    11200.00
04264               6.80    11200.00
04265              -1.80    11400.00
04266              -2.80    11200.00
04267               6.60    11600.00
04268               1.20    11800.00
04269              -4.20    11800.00
04270               4.00    12000.00
04271               3.60    12000.00
04272              -3.80    12400.00
04273               2.00    12400.00
04274               5.00    12400.00
04275              -1.20    12600.00
04276              -0.40    12800.00
04277               3.60    12800.00
04278               0.80    12800.00
04279              -0.60    13000.00
04280               2.40    13200.00
04281               2.60    13200.00
04282              -0.40    13200.00
04283               1.00    13400.00
04284               3.00    13400.00
04285               0.60    13600.00
04286              -0.40    13600.00
04287               2.60    13600.00
04288               2.40    13600.00
04289              -0.40    13800.00
04290               1.20    14000.00
04291               2.80    14000.00
04292               0.40    14000.00
04293               0.60    14000.00
04294               2.60    14200.00
04295               1.00    14200.00
04296               0.40    14400.00
04297               2.20    14200.00
04298               1.60    14200.00
04299               0.40    14200.00
04300               1.40    14200.00
04301               2.00    14200.00
04302               1.00    14600.00
04303               0.80    14400.00
04304               1.40    14400.00
04305               1.20    14400.00
04306               1.40    14400.00
04307               1.00    14600.00
04308               1.00    14400.00
04309               1.20    14600.00
04310               1.00    14400.00
04311               1.40    14600.00
04312               1.80    14600.00
04313               0.60    14400.00
04314               0.60    14400.00
04315               1.40    14600.00
04316               1.60    14400.00
04317               1.20    14600.00
04318               1.80    14400.00
04319               1.00    14400.00
04320               0.60    14200.00
04321               1.80    14200.00
04322               1.00    14200.00
04323               0.60    14200.00
04324               2.00    14200.00
04325               1.80    14000.00
04326               0.20    14000.00
04327               1.00    14000.00
04328               1.60    14000.00
04329               0.20    13800.00
04330               1.20    14000.00
04331               1.80    13600.00
04332               0.60    13600.00
04333               1.20    13400.00
04334               1.40    13600.00
04335               1.20    13400.00
04336               0.20    13200.00
04337               1.20    13200.00
04338               2.20    13000.00
04339               0.20    13200.00
04340               0.60    12800.00
04341               2.60    13200.00
04342               0.20    12800.00
04343               0.20    12600.00
04344               2.60    12800.00
04345               0.60    12600.00
04346              -0.20    12400.00
04347               2.60    12400.00
04348               1.20    12400.00
04349              -0.40    12000.00
04350               1.40    12000.00
04351               1.20    11800.00
04352               0.20    11600.00
04353               1.00    11600.00
04354               1.40    11600.00
04355               0.40    11400.00
04356               0.40    11200.00
04357               1.00    11000.00
04358               1.00    10800.00
04359               0.20    10800.00
04360               1.00    10800.00
04361               1.40    10600.00
04362               0.60    10400.00
04363               0.40    10200.00
04364               1.00    10000.00
04365               0.80    10000.00
04366               0.40     9600.00
04367               0.40     9400.00
04368               0.60     9400.00
04369               0.60     9200.00
04370               0.20     9200.00
04371               0.60     8800.00
04372               0.60     8600.00
04373               0.00     8600.00
04374               0.40     8400.00
04375               1.00     8400.00
04376               0.00     8200.00
04377               0.20     7800.00
04378               1.00     7800.00
04379               0.20     7600.00
04380               0.20     7400.00
04381               0.40     7200.00
04382               0.40     7000.00
04383               0.20     6800.00
04384               0.20     6600.00
04385               0.20     6400.00
04386               0.40     6200.00
04387               0.20     6200.00
04388               0.00     6000.00
04389               0.40     5600.00
04390               0.20     5600.00
04391              -0.40     5400.00
04392               0.20     5200.00
04393               0.40     4800.00
04394              -0.20     4800.00
04395               0.20     4400.00
04396               0.20     4400.00
04397              -0.20     4000.00
04398               0.40     3800.00
04399              -0.20     3600.00
04400              -1.00     3600.00
04401               0.80     3200.00
04402               0.20     3000.00
04403              -1.40     2800.00
04404               0.80     2800.00
04405               1.00     2400.00
04406              -1.80     2200.00
04407              -0.20     2000.00
04408               1.20     1800.00
04409              -1.00     1600.00
04410              -0.60     1400.00
04411               1.00     1200.00
04412              -0.40      800.00
04413              -0.60      600.00
04414               0.20      400.00
04415              -0.40      400.00
04416              -0.20      400.00
04417               0.20        0.00
04418              -0.60     -400.00
04419               0.60     -400.00
04420               2.00     -600.00
04421              -1.40     -800.00
04422              -1.80    -1000.00
04423               2.00    -1200.00
04424              -0.20    -1600.00
04425              -1.00    -1600.00
04426               5.40    -1800.00
04427              25.00    -2200.00
04428             -20.60    -2400.00
04429             -25.00    -2800.00
04430               6.20    -2800.00
04431               4.60    -2600.00
04432              25.00    -3200.00
04433             -25.00    -3600.00
04434             -25.00    -3200.00
04435              25.00    -3800.00
04436              25.00    -4000.00
04437             -25.00    -4000.00
04438              25.00    -4600.00
04439              25.00    -4400.00
04440             -25.00    -4600.00
04441              25.00    -5000.00
04442               9.40    -5000.00
04443             -22.00    -5600.00
04444               6.20    -5600.00
04445             -25.00    -5800.00
04446              25.00    -6200.00
04447             -25.00    -6000.00
04448             -25.00    -6400.00
04449              25.00    -6800.00
04450             -11.80    -6600.00
04451             -25.00    -7200.00
04452               6.00    -7200.00
04453              25.00    -7400.00
04454             -23.80    -7600.00
04455             -25.00    -7800.00
04456              25.00    -8000.00
04457             -11.40    -8000.00
04458             -25.00    -8400.00
04459              22.60    -8400.00
04460              10.20    -8400.00
04461             -23.60    -8800.00
04462              -6.20    -9000.00
04463              25.00    -9200.00
04464             -19.40    -9200.00
04465             -10.20    -9400.00
04466              19.00    -9600.00
04467              -7.80    -9600.00
04468             -10.60    -9800.00
04469               3.00   -10000.00
04470               6.60   -10000.00
04471              -9.20   -10400.00
04472              -2.00   -10600.00
04473               6.00   -10600.00
04474              -2.20   -10800.00
04475              -9.00   -11000.00
04476               3.00   -11000.00
04477               3.20   -11200.00
04478             -10.80   -11000.00
04479               3.40   -11400.00
04480               3.40   -11600.00
04481              -6.80   -11600.00
04482              -2.80   -12000.00
04483               5.20   -12000.00
04484              -4.40   -12200.00
04485              -6.80   -12400.00
04486               5.80   -12400.00
04487              -1.00   -12600.00
04488              -6.60   -12400.00
04489               1.00   -12800.00
04490               1.20   -12800.00
04491              -5.80   -12800.00
04492              -1.60   -13000.00
04493               2.00   -13000.00
04494              -2.60   -13200.00
04495              -4.40   -13200.00
04496               0.40   -13400.00
04497               0.40   -13200.00
04498              -5.80   -13600.00
04499              -1.20   -13600.00
04500               1.00   -13600.00
04501              -2.20   -13600.00
04502              -3.00   -13800.00
04503              -1.20   -13800.00
04504              -0.20   -14000.00
04505              -3.60   -14000.00
04506              -2.00   -14000.00
04507              -0.20   -14000.00
04508              -3.00   -14200.00
04509              -2.60   -14200.00
04510              -0.40   -14200.00
04511              -2.00   -14200.00
04512              -3.40   -14400.00
04513              -1.20   -14200.00
04514              -1.20   -14400.00
04515              -2.40   -14400.00
04516              -2.20   -14400.00
04517              -1.80   -14600.00
04518              -1.40   -14400.00
04519              -1.80   -14400.00
04520              -2.80   -14600.00
04521              -1.40   -14400.00
04522              -1.80   -14600.00
04523              -2.80   -14600.00
04524              -1.20   -14600.00
04525              -1.80   -14600.00
04526              -2.60   -14400.00
04527              -1.80   -14600.00
04528              -1.20   -14400.00
04529              -2.20   -14600.00
04530              -2.00   -14600.00
04531              -1.40   -14400.00
04532              -2.20   -14400.00
04533              -1.40   -14400.00
04534              -1.60   -14400.00
04535              -2.20   -14000.00
04536              -1.40   -14200.00
04537              -1.80   -14200.00
04538              -1.60   -14200.00
04539              -1.80   -14000.00
04540              -2.00   -14000.00
04541              -1.80   -14000.00
04542              -1.40   -13800.00
04543              -2.00   -13800.00
04544              -2.20   -13800.00
04545              -1.80   -13600.00
04546              -0.80   -13600.00
04547              -2.00   -13600.00
04548              -2.00   -13600.00
04549              -1.40   -13400.00
04550              -1.40   -13200.00
04551              -1.80   -13200.00
04552              -1.80   -13200.00
04553              -1.20   -13000.00
04554              -2.00   -13000.00
04555              -1.80   -13000.00
04556              -1.40   -12800.00
04557              -1.80   -12600.00
04558              -2.20   -12600.00
04559              -1.40   -12400.00
04560              -1.20   -12400.00
04561              -1.80   -12400.00
04562              -2.00   -12200.00
04563              -1.40   -12000.00
04564              -1.60   -12000.00
04565              -1.40   -12000.00
04566              -1.20   -11600.00
04567              -1.80   -11600.00
04568              -2.20   -11400.00
04569              -1.20   -11400.00
04570              -1.60   -11000.00
04571              -2.20   -11000.00
04572              -1.40   -10800.00
04573              -1.20   -10800.00
04574              -1.80   -10600.00
04575              -1.40   -10400.00
04576              -1.80   -10400.00
04577              -1.60   -10000.00
04578              -1.00   -10000.00
04579              -1.20    -9800.00
04580              -1.80    -9600.00
04581              -1.40    -9600.00
04582              -1.80    -9200.00
04583              -1.20    -9200.00
04584              -1.20    -9000.00
04585              -1.40    -9000.00
04586              -1.20    -8800.00
04587              -0.60    -8400.00
04588              -1.20    -8400.00
04589              -1.60    -8400.00
04590              -1.00    -8200.00
04591              -1.40    -8000.00
04592              -1.20    -7600.00
04593              -1.00    -7600.00
04594              -1.00    -7400.00
04595              -1.20    -7200.00
04596              -1.00    -7000.00
04597              -0.60    -6800.00
04598              -1.40    -6600.00
04599              -1.20    -6600.00
04600              -0.40    -6200.00
04601              -1.00    -6000.00
04602              -1.20    -6000.00
04603              -0.60    -5600.00
04604              -1.00    -5600.00
04605              -1.20    -5200.00
04606              -0.60    -5200.00
04607              -0.60    -4800.00
04608              -1.20    -4600.00
04609              -0.60    -4400.00
04610              -0.40    -4200.00
04611              -0.60    -4000.00
04612              -0.60    -3800.00
04613              -0.40    -3600.00
04614              -0.60    -3400.00
04615              -0.60    -3200.00
04616              -0.20    -3000.00
04617              -0.60    -2800.00
04618              -1.00    -2600.00
04619              -0.40    -2400.00
04620              -0.40    -2400.00
04621              -0.60    -2000.00
04622              -0.20    -1800.00
04623              -0.40    -1600.00
04624              -0.60    -1400.00
04625              -0.20    -1200.00
04626              -0.60    -1000.00
04627              -0.60     -800.00
04628              -0.20     -400.00
04629              -0.40     -400.00
04630              -0.60     -200.00
04631              -0.40        0.00
04632               0.20      400.00
04633               1.40      400.00
04634               0.40      600.00
04635              -1.20      800.00
04636               0.20     1000.00
04637               1.20     1400.00
04638              -0.40     1400.00
04639               0.20     1800.00
04640               5.80     2000.00
04641              19.40     2200.00
04642              -5.20     2400.00
04643             -25.00     2600.00
04644              -0.20     2800.00
04645               7.40     2800.00
04646               5.80     3200.00
04647              25.00     3400.00
04648             -25.00     3400.00
04649               6.60     4000.00
04650              25.00     3800.00
04651             -25.00     4000.00
04652             -25.00     4400.00
04653              25.00     4400.00
04654             -25.00     4600.00
04655             -19.60     5200.00
04656              25.00     5200.00
04657             -12.20     5400.00
04658              -2.20     5600.00
04659              -3.80     5800.00
04660              10.20     6000.00
04661               6.80     6200.00
04662             -25.00     6400.00
04663              12.20     6600.00
04664              21.80     7000.00
04665             -14.20     7000.00
04666             -17.00     7200.00
04667              20.20     7400.00
04668              13.60     7800.00
04669             -25.00     7800.00
04670               6.80     8000.00
04671              25.00     8200.00
04672             -19.40     8200.00
04673              -8.00     8400.00
04674              23.60     8600.00
04675              -5.80     8800.00
04676             -17.80     9000.00
04677              19.60     9200.00
04678               4.20     9400.00
04679             -16.20     9400.00
04680              10.20     9600.00
04681               9.00     9800.00
04682             -10.00    10000.00
04683              -1.20    10200.00
04684               8.40    10200.00
04685              -0.40    10400.00
04686              -3.40    10400.00
04687               3.00    10800.00
04688               5.00    10800.00
04689              -2.20    10800.00
04690              -2.20    11000.00
04691               6.40    11200.00
04692              -0.40    11400.00
04693              -3.60    11600.00
04694               5.80    11600.00
04695               2.60    11800.00
04696              -4.60    11800.00
04697               2.80    12000.00
04698               4.60    12000.00
04699              -3.80    12200.00
04700               0.60    12400.00
04701               5.20    12600.00
04702              -0.80    12600.00
04703              -1.00    12600.00
04704               3.60    12800.00
04705               1.00    12800.00
04706              -1.20    12800.00
04707               1.80    13200.00
04708               2.20    13200.00
04709               0.00    13200.00
04710               0.20    13400.00
04711               2.80    13200.00
04712               0.80    13400.00
04713              -1.20    13600.00
04714               2.00    13600.00
04715               2.80    13600.00
04716              -0.60    13800.00
04717               1.00    13800.00
04718               3.00    13800.00
04719               0.40    13800.00
04720              -0.20    14000.00
04721               2.60    14200.00
04722               1.40    14200.00
04723               0.20    14200.00
04724               2.00    14200.00
04725               2.00    14200.00
04726              -0.20    14200.00
04727               0.60    14200.00
04728               2.80    14400.00
04729               1.00    14600.00
04730               0.20    14400.00
04731               2.80    14600.00
04732               1.00    14600.00
04733               0.40    14400.00
04734               2.00    14600.00
04735               1.80    14600.00
04736               0.20    14400.00
04737               1.40    14400.00
04738               2.00    14400.00
04739               1.60    14600.00
04740               0.60    14600.00
04741               1.40    14400.00
04742               1.80    14600.00
04743               1.00    14600.00
04744               1.20    14400.00
04745               1.40    14600.00
04746               1.80    14200.00
04747               1.20    14400.00
04748               1.60    14400.00
04749               1.40    14200.00
04750               1.00    14200.00
04751               1.80    14200.00
04752               1.80    14000.00
04753               0.20    14000.00
04754               0.60    14000.00
04755               2.20    14000.00
04756               0.60    14000.00
04757               1.00    13600.00
04758               1.40    13600.00
04759               0.60    13600.00
04760               1.20    13600.00
04761               2.00    13600.00
04762               1.00    13400.00
04763               0.40    13400.00
04764               1.40    13200.00
04765               1.20    13200.00
04766               0.00    13000.00
04767               1.20    12800.00
04768               1.80    12800.00
04769               0.40    12800.00
04770               0.80    12600.00
04771               1.80    12600.00
04772               0.40    12400.00
04773               0.20    12400.00
04774               1.60    12200.00
04775               1.00    12200.00
04776              -0.20    12000.00
04777               1.40    11800.00
04778               1.20    12000.00
04779               0.20    11800.00
04780               1.00    11600.00
04781               0.60    11600.00
04782               1.00    11200.00
04783               0.20    11200.00
04784               1.20    11000.00
04785               1.60    11000.00
04786              -0.40    10800.00
04787               1.20    10800.00
04788               2.00    10400.00
04789              -0.20    10400.00
04790               0.20    10200.00
04791               1.80    10200.00
04792              -0.20    10000.00
04793               0.20     9800.00
04794               2.00     9600.00
04795               0.60     9400.00
04796              -0.20     9400.00
04797               1.80     9200.00
04798               0.40     9000.00
04799               0.20     8800.00
04800               0.60     8600.00
04801               1.00     8400.00
04802               0.40     8400.00
04803               0.40     8000.00
04804               0.80     8000.00
04805               1.00     7800.00
04806               0.40     7600.00
04807               0.60     7400.00
04808               0.60     7200.00
04809               0.60     7000.00
04810              -0.20     6800.00
04811               0.80     6600.00
04812               0.60     6400.00
04813              -0.60     6200.00
04814               0.60     6200.00
04815               1.00     6000.00
04816              -0.60     5600.00
04817               0.20     5600.00
04818               1.20     5400.00
04819               0.20     5200.00
04820              -0.40     4800.00
04821               0.40     4800.00
04822               0.40     4400.00
04823              -0.40     4400.00
04824               0.20     4000.00
04825               0.40     3800.00
04826               0.20     3600.00
04827              -0.20     3400.00
04828               0.20     3400.00
04829               0.40     3200.00
04830              -0.20     2800.00
04831              -0.80     2600.00
04832              -0.20     2400.00
04833              -0.20     2200.00
04834              -0.80     2000.00
04835               0.20     2000.00
04836              -0.20     1600.00
04837              -0.20     1400.00
04838              -0.40     1200.00
04839               0.20      800.00
04840              -0.40      800.00
04841              -1.00      600.00
04842              -0.40      400.00
04843               0.20        0.00
04844              -0.40        0.00
04845              -0.60     -200.00
04846               0.40     -400.00
04847               2.20     -600.00
04848              -0.60     -800.00
04849              -1.80    -1000.00
04850               0.60    -1200.00
04851               0.60    -1400.00
04852              -1.40    -1600.00
04853               3.40    -1800.00
04854              25.00    -2400.00
04855             -12.60    -2400.00
04856             -25.00    -2800.00
04857               2.80    -2800.00
04858               3.40    -2800.00
04859              25.00    -3000.00
04860              -3.60    -3600.00
04861             -25.00    -3200.00
04862              25.00    -3600.00
04863              25.00    -4000.00
04864             -25.00    -4000.00
04865              25.00    -4400.00
04866              25.00    -4600.00
04867             -25.00    -4400.00
04868              25.00    -4800.00
04869              25.00    -5000.00
04870             -25.00    -5400.00
04871              11.40    -5600.00
04872             -25.00    -5600.00
04873              25.00    -6000.00
04874             -12.60    -6000.00
04875             -25.00    -6400.00
04876              25.00    -6600.00
04877              -1.40    -6600.00
04878             -25.00    -7000.00
04879               1.80    -7200.00
04880              25.00    -7200.00
04881             -11.60    -7400.00
04882             -25.00    -7600.00
04883              25.00    -8000.00
04884               1.80    -8000.00
04885             -25.00    -8200.00
04886              18.20    -8600.00
04887              13.80    -8400.00
04888             -19.60    -8800.00
04889             -12.60    -8800.00
04890              25.00    -9000.00
04891             -12.80    -9200.00
04892             -15.60    -9400.00
04893              18.60    -9600.00
04894              -5.00    -9800.00
04895             -10.80   -10000.00
04896               0.60   -10000.00
04897               7.40   -10000.00
04898              -7.60   -10400.00
04899              -4.40   -10400.00
04900               5.20   -10600.00
04901              -0.80   -10800.00
04902              -8.60   -10800.00
04903               0.40   -11000.00
04904               5.20   -11200.00
04905             -10.00   -11400.00
04906               0.60   -11400.00
04907               3.60   -11600.00
04908              -5.80   -11800.00
04909              -4.20   -12000.00
04910               3.80   -12200.00
04911              -2.20   -12200.00
04912              -8.60   -12200.00
04913               4.40   -12200.00
04914               1.20   -12400.00
04915              -7.40   -12600.00
04916              -0.20   -12800.00
04917               2.60   -12800.00
04918              -6.20   -12800.00
04919              -3.00   -13000.00
04920               3.40   -13000.00
04921              -2.80   -13200.00
04922              -4.60   -13200.00
04923               1.20   -13200.00
04924               0.20   -13600.00
04925              -6.20   -13600.00
04926              -1.40   -13600.00
04927               1.40   -13600.00
04928              -2.80   -13800.00
04929              -2.80   -13600.00
04930              -0.40   -13800.00
04931              -0.60   -13800.00
04932              -4.00   -14000.00
04933              -1.20   -14000.00
04934              -0.80   -14000.00
04935              -3.60   -14200.00
04936              -1.40   -14000.00
04937              -0.20   -14200.00
04938              -2.00   -14400.00
04939              -2.80   -14400.00
04940              -1.20   -14400.00
04941              -1.00   -14400.00
04942              -2.80   -14400.00
04943              -1.80   -14600.00
04944              -1.20   -14400.00
04945              -1.20   -14400.00
04946              -2.00   -14400.00
04947              -2.20   -14600.00
04948              -1.20   -14600.00
04949              -2.20   -14600.00
04950              -2.20   -14600.00
04951              -1.00   -14400.00
04952              -1.80   -14600.00
04953              -2.20   -14400.00
04954              -2.20   -14400.00
04955              -2.00   -14600.00
04956              -1.40   -14600.00
04957              -2.00   -14400.00
04958              -2.80   -14400.00
04959              -1.40   -14400.00
04960              -1.00   -14400.00
04961              -2.20   -14400.00
04962              -2.80   -14400.00
04963              -1.20   -14000.00
04964              -1.60   -14200.00
04965              -1.80   -14200.00
04966              -1.40   -14200.00
04967              -2.40   -14000.00
04968              -2.60   -14000.00
04969              -1.40   -14000.00
04970              -2.00   -13800.00
04971              -2.20   -13800.00
04972              -1.20   -13800.00
04973              -1.20   -13600.00
04974              -2.80   -13600.00
04975              -2.20   -13600.00
04976              -1.40   -13600.00
04977              -1.80   -13600.00
04978              -1.40   -13200.00
04979              -1.80   -13200.00
04980              -2.20   -13000.00
04981              -1.20   -13000.00
04982              -0.60   -13000.00
04983              -1.60   -12800.00
04984              -2.20   -12800.00
04985              -2.00   -12600.00
04986              -1.80   -12400.00
04987              -1.80   -12400.00
04988              -1.20   -12400.00
04989              -1.40   -12200.00
04990              -1.00   -12000.00
04991              -2.00   -12000.00
04992              -1.80   -12000.00
04993              -0.80   -11600.00
04994              -1.80   -11600.00
04995              -2.40   -11400.00
04996               1.20   -11400.00
04997              -1.20   -11200.00
04998              -3.20   -11000.00
04999              -1.80   -10800.00
05000              -0.60   -10800.00
