Unit:(mV)
                     CH1         CH2
Frequency              ? 234.019 kHz
00001               5.00    12200.00
00002              -1.40    12400.00
00003              -3.60    12400.00
00004               2.20    12600.00
00005               0.20    12600.00
00006              -2.80    12800.00
00007               1.20    12800.00
00008               1.80    13200.00
00009              -2.00    13000.00
00010              -0.60    13200.00
00011               1.20    13200.00
00012              -0.60    13400.00
00013              -1.60    13400.00
00014               0.20    13400.00
00015               1.80    13600.00
00016              -1.20    13600.00
00017              -1.40    13600.00
00018               0.60    13600.00
00019              -0.80    13600.00
00020              -1.20    14000.00
00021               0.40    13800.00
00022              -0.40    14000.00
00023              -0.40    14000.00
00024              -0.20    14200.00
00025              -0.20    14000.00
00026              -0.60    14000.00
00027              -1.00    14000.00
00028               0.20    14200.00
00029               0.20    14200.00
00030              -0.40    14200.00
00031              -1.00    14200.00
00032              -0.60    14200.00
00033               0.20    14200.00
00034              -0.60    14400.00
00035              -0.20    14200.00
00036              -0.60    14200.00
00037              -0.20    14600.00
00038               0.60    14400.00
00039              -0.60    14400.00
00040              -1.40    14600.00
00041              -0.40    14400.00
00042              -0.20    14200.00
00043              -0.60    14200.00
00044              -0.20    14000.00
00045               0.20    14200.00
00046              -0.40    14200.00
00047              -0.40    14200.00
00048              -0.20    14200.00
00049              -0.60    14000.00
00050              -0.60    14000.00
00051               0.60    14000.00
00052               0.40    14000.00
00053              -0.40    14000.00
00054              -0.60    14000.00
00055              -0.80    13800.00
00056              -0.60    13600.00
00057               0.40    13600.00
00058              -0.60    13600.00
00059               0.20    13600.00
00060               0.40    13600.00
00061              -0.20    13200.00
00062              -0.20    13400.00
00063              -0.40    13200.00
00064              -0.60    13200.00
00065              -0.20    13200.00
00066              -0.20    13000.00
00067              -0.20    12800.00
00068               0.20    12800.00
00069              -0.20    12800.00
00070              -0.40    12600.00
00071               0.20    12400.00
00072              -0.60    12600.00
00073              -0.60    12400.00
00074               0.20    12400.00
00075               0.20    12000.00
00076              -0.20    12000.00
00077              -0.60    12000.00
00078              -0.40    11800.00
00079              -0.60    11600.00
00080              -0.40    11600.00
00081              -0.20    11600.00
00082              -0.40    11200.00
00083              -0.20    11200.00
00084              -0.40    11000.00
00085              -0.20    10800.00
00086              -0.60    10800.00
00087              -1.00    10600.00
00088               0.20    10400.00
00089              -0.40    10400.00
00090              -1.00    10200.00
00091              -0.40    10000.00
00092              -0.40    10000.00
00093              -0.20     9600.00
00094              -0.60     9600.00
00095              -0.60     9400.00
00096              -0.20     9200.00
00097              -0.60     9200.00
00098              -1.00     9000.00
00099              -0.20     8800.00
00100               0.00     8600.00
00101              -0.60     8400.00
00102              -0.60     8400.00
00103              -0.60     8200.00
00104              -0.60     8000.00
00105               0.20     7800.00
00106              -0.20     7600.00
00107              -0.80     7200.00
00108              -0.40     7200.00
00109              -0.60     7000.00
00110              -0.60     6800.00
00111               0.00     6600.00
00112              -0.40     6400.00
00113              -0.60     6200.00
00114              -0.20     6400.00
00115              -0.40     6000.00
00116              -0.60     5800.00
00117              -0.40     5600.00
00118              -0.40     5600.00
00119              -0.40     5200.00
00120               0.20     5000.00
00121              -0.20     4800.00
00122              -0.40     4600.00
00123              -0.60     4400.00
00124              -0.20     4200.00
00125              -0.20     4000.00
00126              -0.60     3800.00
00127               0.20     3600.00
00128              -0.40     3400.00
00129              -0.60     3200.00
00130               0.20     3000.00
00131              -0.60     2800.00
00132              -0.60     2400.00
00133               0.40     2400.00
00134              -0.60     2200.00
00135              -0.60     2000.00
00136               1.00     1800.00
00137              -0.60     1600.00
00138              -1.20     1400.00
00139               1.00     1200.00
00140              -0.20     1000.00
00141              -1.20      800.00
00142               0.20      600.00
00143               0.20      400.00
00144              -1.00        0.00
00145               0.20        0.00
00146               0.20     -200.00
00147               0.20     -400.00
00148               1.60     -600.00
00149              -1.20     -800.00
00150              -1.20    -1000.00
00151               1.00    -1200.00
00152               0.20    -1600.00
00153              -0.60    -1600.00
00154              13.00    -1800.00
00155              23.80    -2400.00
00156             -25.00    -2600.00
00157             -25.00    -2800.00
00158               6.80    -2600.00
00159              25.00    -2600.00
00160              25.00    -3400.00
00161             -25.00    -3200.00
00162               8.20    -3200.00
00163              25.00    -4000.00
00164             -25.00    -3800.00
00165             -25.00    -4000.00
00166              25.00    -4600.00
00167             -18.20    -4400.00
00168             -25.00    -4600.00
00169              25.00    -5000.00
00170             -25.00    -5000.00
00171               1.00    -5600.00
00172             -15.60    -5600.00
00173               7.00    -5800.00
00174              25.00    -6000.00
00175             -25.00    -5800.00
00176              18.60    -6400.00
00177              25.00    -6400.00
00178             -25.00    -6600.00
00179             -13.40    -7200.00
00180              25.00    -7000.00
00181              19.60    -7400.00
00182             -25.00    -7400.00
00183               9.80    -7600.00
00184              25.00    -8000.00
00185             -25.00    -8000.00
00186              -2.80    -8400.00
00187              25.00    -8200.00
00188             -10.00    -8600.00
00189             -25.00    -8800.00
00190              18.00    -8800.00
00191              16.40    -9000.00
00192             -25.00    -9000.00
00193              11.60    -9400.00
00194              13.00    -9600.00
00195             -14.00    -9600.00
00196              -4.20    -9800.00
00197               9.00   -10000.00
00198               1.60   -10000.00
00199             -10.80   -10200.00
00200               5.80   -10400.00
00201               5.80   -10400.00
00202              -6.20   -10600.00
00203              -5.00   -10800.00
00204               9.00   -10800.00
00205              -3.00   -11000.00
00206              -7.40   -11200.00
00207               9.40   -11200.00
00208              -1.20   -11400.00
00209              -6.20   -11600.00
00210               3.60   -11600.00
00211               3.80   -12000.00
00212              -7.80   -12000.00
00213               0.20   -12200.00
00214               6.60   -12400.00
00215              -5.00   -12400.00
00216              -2.60   -12400.00
00217               5.00   -12600.00
00218              -1.80   -12800.00
00219              -4.60   -12800.00
00220               3.60   -12800.00
00221               1.20   -13000.00
00222              -3.60   -13000.00
00223              -0.60   -13000.00
00224               3.40   -13200.00
00225              -2.00   -13200.00
00226              -3.00   -13200.00
00227               2.80   -13400.00
00228               0.20   -13600.00
00229              -2.20   -13600.00
00230              -0.20   -13600.00
00231               1.20   -13600.00
00232              -1.80   -13800.00
00233              -1.80   -13800.00
00234               1.80   -13800.00
00235              -0.80   -14000.00
00236              -2.00   -13800.00
00237               1.00   -13800.00
00238               0.40   -14000.00
00239              -1.40   -14000.00
00240              -0.60   -14000.00
00241               1.00   -14200.00
00242              -0.40   -14400.00
00243              -1.40   -14000.00
00244               0.20   -14400.00
00245              -0.20   -14200.00
00246              -0.60   -14400.00
00247              -0.40   -14400.00
00248               0.20   -14400.00
00249              -0.40   -14400.00
00250              -0.40   -14400.00
00251               0.20   -14400.00
00252              -0.20   -14000.00
00253              -0.60   -14200.00
00254               0.00   -14400.00
00255              -0.20   -14400.00
00256              -0.20   -14400.00
00257              -0.20   -14400.00
00258              -0.40   -14400.00
00259              -0.20   -14200.00
00260               0.20   -14200.00
00261              -0.20   -14400.00
00262              -0.60   -14000.00
00263              -0.20   -14000.00
00264              -0.20   -13800.00
00265              -0.40   -14000.00
00266               0.20   -14000.00
00267              -0.40   -13800.00
00268              -0.40   -14000.00
00269              -0.20   -13800.00
00270              -0.20   -13800.00
00271              -0.20   -13800.00
00272              -0.40   -13600.00
00273              -0.40   -13600.00
00274               0.20   -13400.00
00275              -0.60   -13200.00
00276              -1.20   -13400.00
00277              -0.20   -13200.00
00278               0.20   -13200.00
00279              -0.60   -13000.00
00280              -0.60   -13000.00
00281               0.20   -13000.00
00282              -0.60   -12800.00
00283              -1.00   -12800.00
00284               0.60   -12800.00
00285              -0.60   -12600.00
00286              -0.60   -12400.00
00287               0.40   -12400.00
00288               0.20   -12200.00
00289              -1.40   -12200.00
00290              -0.20   -12000.00
00291              -0.40   -12000.00
00292              -1.00   -11600.00
00293              -0.40   -11800.00
00294              -0.20   -11400.00
00295              -0.60   -11400.00
00296               0.40   -11200.00
00297              -1.20   -11000.00
00298              -0.20   -10800.00
00299              -0.60   -10800.00
00300              -0.60   -10800.00
00301              -0.60   -10600.00
00302               0.40   -10400.00
00303              -1.40   -10400.00
00304              -0.40   -10000.00
00305               0.20   -10000.00
00306              -1.00    -9800.00
00307              -0.40    -9800.00
00308               0.00    -9600.00
00309              -1.00    -9600.00
00310              -0.20    -9200.00
00311               0.20    -9000.00
00312              -1.20    -9000.00
00313              -0.40    -8800.00
00314               0.20    -8600.00
00315              -0.60    -8600.00
00316              -0.60    -8200.00
00317               0.00    -8000.00
00318              -0.40    -8000.00
00319              -0.40    -7600.00
00320               0.20    -7600.00
00321              -0.40    -7400.00
00322              -0.40    -7400.00
00323              -0.60    -6800.00
00324              -0.40    -6800.00
00325              -0.40    -6600.00
00326              -0.40    -6400.00
00327              -0.20    -6200.00
00328              -0.20    -6200.00
00329              -0.40    -6000.00
00330              -0.20    -5800.00
00331              -0.40    -5600.00
00332              -0.20    -5200.00
00333              -0.40    -5200.00
00334              -0.20    -5000.00
00335              -0.40    -4600.00
00336              -0.60    -4400.00
00337              -0.40    -4200.00
00338              -0.20    -4200.00
00339              -0.40    -4000.00
00340              -0.60    -3800.00
00341              -0.60    -3600.00
00342              -0.40    -3400.00
00343              -0.40    -3200.00
00344              -0.60    -3000.00
00345              -0.40    -2800.00
00346              -0.40    -2600.00
00347              -0.60    -2400.00
00348              -0.40    -2200.00
00349              -0.40    -2000.00
00350              -0.60    -1800.00
00351              -0.40    -1600.00
00352              -0.40    -1200.00
00353              -0.60    -1200.00
00354              -0.40    -1000.00
00355              -0.60     -800.00
00356              -0.60     -400.00
00357              -0.20     -200.00
00358              -0.40        0.00
00359              -1.20        0.00
00360               0.40      400.00
00361               1.80      600.00
00362              -0.40      800.00
00363              -1.80      800.00
00364               0.60     1200.00
00365               0.40     1200.00
00366              -0.60     1600.00
00367               0.60     1800.00
00368               8.40     2000.00
00369              19.80     2200.00
00370             -18.80     2600.00
00371             -25.00     2600.00
00372               6.00     2800.00
00373               3.20     2800.00
00374              25.00     3400.00
00375              -0.20     3200.00
00376             -25.00     3600.00
00377              25.00     3800.00
00378              25.00     4000.00
00379             -25.00     4000.00
00380              25.00     4400.00
00381              25.00     4400.00
00382             -25.00     4800.00
00383              17.40     5000.00
00384              25.00     5200.00
00385             -21.80     5400.00
00386              -1.40     5600.00
00387              -0.60     5600.00
00388              17.00     6000.00
00389             -13.40     6200.00
00390             -18.60     6600.00
00391              25.00     6400.00
00392               7.00     6800.00
00393             -25.00     7000.00
00394              -3.00     7000.00
00395              25.00     7200.00
00396             -11.60     7600.00
00397             -25.00     7600.00
00398              25.00     8200.00
00399               9.80     8200.00
00400             -25.00     8200.00
00401              12.00     8400.00
00402              18.00     8400.00
00403             -23.80     8800.00
00404              -2.80     8800.00
00405              23.40     9200.00
00406             -12.60     9200.00
00407             -10.80     9400.00
00408              16.40     9600.00
00409              -1.20     9600.00
00410             -11.80    10000.00
00411               3.80    10000.00
00412               6.00    10200.00
00413              -5.00    10000.00
00414              -3.40    10400.00
00415               4.60    10400.00
00416               1.40    10600.00
00417              -6.20    10800.00
00418               1.20    11000.00
00419               4.80    11000.00
00420              -6.20    11200.00
00421              -1.00    11600.00
00422               6.00    11400.00
00423              -3.80    11600.00
00424              -3.40    11800.00
00425               5.20    12000.00
00426              -1.00    12000.00
00427              -5.40    12000.00
00428               3.40    12200.00
00429               1.40    12400.00
00430              -4.40    12400.00
00431               1.00    12600.00
00432               2.20    12800.00
00433              -2.80    12800.00
00434              -1.20    12800.00
00435               2.00    12800.00
00436              -1.00    13000.00
00437              -2.20    13000.00
00438               1.20    13200.00
00439               1.80    13200.00
00440              -2.20    13400.00
00441              -1.20    13400.00
00442               2.00    13400.00
00443              -0.40    13600.00
00444              -2.20    13600.00
00445               1.00    13600.00
00446               1.40    13600.00
00447              -2.00    13800.00
00448               0.20    14000.00
00449               1.20    14000.00
00450              -1.80    14000.00
00451              -0.80    14000.00
00452               1.40    14200.00
00453              -0.40    14200.00
00454              -1.40    14000.00
00455               0.60    14200.00
00456               0.60    14200.00
00457              -0.80    14200.00
00458              -0.40    14200.00
00459               0.20    14200.00
00460              -0.40    14200.00
00461              -0.60    14200.00
00462               0.20    14200.00
00463               0.00    14200.00
00464              -0.60    14200.00
00465              -0.20    14200.00
00466               0.20    14600.00
00467              -0.60    14200.00
00468              -0.40    14200.00
00469              -0.20    14200.00
00470               0.00    14200.00
00471              -0.60    14200.00
00472              -0.20    14200.00
00473              -0.40    14200.00
00474              -0.60    14200.00
00475              -0.20    14000.00
00476              -0.40    14200.00
00477              -1.00    14200.00
00478               0.00    14000.00
00479              -0.20    14000.00
00480              -0.60    14000.00
00481              -1.00    13800.00
00482              -0.40    13800.00
00483              -0.60    13600.00
00484               0.40    13600.00
00485              -0.60    13600.00
00486              -0.20    13400.00
00487              -0.60    13400.00
00488              -0.40    13600.00
00489              -0.40    13200.00
00490              -0.20    13200.00
00491              -1.00    13200.00
00492              -0.20    13200.00
00493              -0.40    13000.00
00494              -0.80    13000.00
00495              -0.60    12800.00
00496               0.20    12800.00
00497              -0.40    12800.00
00498              -0.60    12800.00
00499              -0.20    12600.00
00500              -0.20    12400.00
00501              -1.20    12400.00
00502               0.20    12200.00
00503               0.40    12200.00
00504              -1.20    12000.00
00505              -0.20    11800.00
00506               0.20    11800.00
00507              -1.20    11600.00
00508              -0.80    11400.00
00509               0.40    11400.00
00510              -0.40    11200.00
00511              -0.60    11000.00
00512               0.60    11000.00
00513              -0.20    11000.00
00514              -1.20    10600.00
00515              -0.20    10400.00
00516               0.20    10400.00
00517              -0.60    10200.00
00518              -0.20    10200.00
00519              -0.20    10000.00
00520              -0.40     9800.00
00521              -0.20     9600.00
00522              -0.40     9400.00
00523              -0.60     9400.00
00524              -0.20     9200.00
00525              -0.20     9200.00
00526              -0.40     8800.00
00527              -0.60     8800.00
00528              -0.20     8600.00
00529              -0.20     8400.00
00530               0.00     8200.00
00531              -0.40     8200.00
00532              -0.20     8000.00
00533              -0.40     7600.00
00534               0.20     7600.00
00535              -0.40     7200.00
00536              -0.60     7200.00
00537              -0.40     7000.00
00538              -0.40     6800.00
00539              -0.60     6400.00
00540              -0.40     6400.00
00541              -0.40     6200.00
00542              -0.40     6000.00
00543              -0.20     6000.00
00544              -0.60     5600.00
00545              -0.60     5400.00
00546               0.00     5200.00
00547              -1.00     5000.00
00548              -0.40     4800.00
00549              -0.40     4600.00
00550              -0.60     4400.00
00551              -0.40     4200.00
00552              -0.40     4000.00
00553              -0.40     3800.00
00554               0.00     3600.00
00555              -0.40     3600.00
00556              -0.60     3200.00
00557              -0.20     3000.00
00558              -0.40     3000.00
00559              -0.60     2800.00
00560              -0.40     2400.00
00561               0.00     2200.00
00562              -0.40     2200.00
00563              -0.40     1800.00
00564              -0.20     1600.00
00565              -0.60     1400.00
00566              -0.40     1200.00
00567              -0.20     1000.00
00568              -0.40      800.00
00569              -0.60      400.00
00570              -0.20      400.00
00571              -0.20        0.00
00572              -0.40        0.00
00573              -0.60     -400.00
00574               0.60     -400.00
00575               2.00     -800.00
00576              -0.20     -800.00
00577              -1.20    -1000.00
00578               0.40    -1200.00
00579               0.60    -1400.00
00580              -0.60    -1600.00
00581               5.80    -1800.00
00582              25.00    -2000.00
00583             -21.00    -2600.00
00584             -25.00    -2800.00
00585               3.40    -2800.00
00586              15.80    -2600.00
00587              25.00    -3200.00
00588             -25.00    -3200.00
00589             -25.00    -3200.00
00590              25.00    -3800.00
00591              20.20    -4000.00
00592             -25.00    -4000.00
00593              25.00    -4400.00
00594              25.00    -4400.00
00595             -25.00    -4400.00
00596              25.00    -4800.00
00597               4.20    -5000.00
00598             -21.80    -5400.00
00599               2.80    -5600.00
00600             -19.00    -5800.00
00601              25.00    -6000.00
00602             -25.00    -6000.00
00603             -25.00    -6400.00
00604              25.00    -6600.00
00605             -25.00    -6400.00
00606             -25.00    -7000.00
00607              18.00    -7000.00
00608              25.00    -7200.00
00609             -25.00    -7400.00
00610             -24.60    -7600.00
00611              25.00    -7800.00
00612             -22.60    -8000.00
00613             -25.00    -8200.00
00614              25.00    -8400.00
00615               3.80    -8600.00
00616             -25.00    -8600.00
00617               2.60    -8800.00
00618              25.00    -9000.00
00619             -23.80    -9000.00
00620              -4.60    -9200.00
00621              21.40    -9600.00
00622             -10.80    -9600.00
00623              -8.20    -9800.00
00624               5.80    -9800.00
00625               6.80   -10000.00
00626             -10.00   -10000.00
00627               0.20   -10400.00
00628               8.20   -10400.00
00629              -3.40   -10600.00
00630              -7.00   -10800.00
00631               5.80   -11000.00
00632               2.80   -11000.00
00633             -10.00   -11000.00
00634               6.60   -11400.00
00635               3.00   -11400.00
00636              -7.00   -11600.00
00637               0.40   -11600.00
00638               5.80   -11600.00
00639              -5.00   -12000.00
00640              -4.00   -12200.00
00641               7.80   -12200.00
00642              -2.00   -12200.00
00643              -4.60   -12400.00
00644               4.20   -12600.00
00645               1.20   -12800.00
00646              -5.40   -12600.00
00647               1.40   -12800.00
00648               3.40   -12800.00
00649              -3.00   -13000.00
00650              -2.00   -13000.00
00651               3.40   -13200.00
00652               0.20   -13200.00
00653              -4.40   -13200.00
00654               2.00   -13400.00
00655               1.80   -13600.00
00656              -2.20   -13600.00
00657              -0.40   -13600.00
00658               1.80   -13600.00
00659              -0.60   -13800.00
00660              -2.00   -13600.00
00661               1.80   -13800.00
00662               0.40   -13800.00
00663              -2.20   -13800.00
00664               0.60   -13800.00
00665               1.00   -14000.00
00666              -1.20   -14000.00
00667              -0.80   -14200.00
00668               1.00   -14200.00
00669              -0.40   -14000.00
00670              -1.00   -14400.00
00671               0.20   -14200.00
00672              -0.40   -14400.00
00673              -0.80   -14400.00
00674               0.00   -14200.00
00675              -0.60   -14200.00
00676              -0.60   -14400.00
00677              -0.40   -14400.00
00678              -0.40   -14400.00
00679              -0.20   -14400.00
00680              -0.40   -14200.00
00681              -0.40   -14400.00
00682              -0.40   -14400.00
00683              -0.40   -14400.00
00684              -0.60   -14400.00
00685              -0.60   -14400.00
00686              -0.20   -14000.00
00687              -0.40   -14200.00
00688              -0.40   -14400.00
00689              -0.20   -14000.00
00690              -0.80   -14000.00
00691              -0.60   -14000.00
00692               0.20   -14000.00
00693              -0.20   -14000.00
00694              -1.00   -13800.00
00695              -0.40   -14000.00
00696               0.40   -13800.00
00697              -1.20   -13800.00
00698              -0.40   -13600.00
00699               0.40   -13800.00
00700              -1.00   -13600.00
00701              -0.20   -13600.00
00702               0.40   -13600.00
00703              -1.20   -13400.00
00704              -0.60   -13200.00
00705               0.40   -13200.00
00706              -0.40   -13200.00
00707              -0.60   -13000.00
00708               0.20   -12800.00
00709              -0.40   -12800.00
00710              -0.60   -12800.00
00711               0.20   -12600.00
00712              -0.60   -12800.00
00713              -0.60   -12600.00
00714               0.00   -12400.00
00715               0.20   -12200.00
00716              -0.40   -12200.00
00717              -1.00   -12000.00
00718               0.40   -12000.00
00719              -0.20   -11600.00
00720              -0.60   -11800.00
00721              -0.20   -11600.00
00722              -0.60   -11400.00
00723              -0.20   -11400.00
00724               0.20   -11000.00
00725              -1.00   -11000.00
00726               0.40   -10800.00
00727              -0.60   -10800.00
00728              -0.40   -10600.00
00729               0.20   -10400.00
00730              -0.20   -10400.00
00731              -1.20   -10200.00
00732               0.20   -10200.00
00733              -0.20   -10000.00
00734              -0.60    -9800.00
00735              -0.40    -9600.00
00736              -1.00    -9600.00
00737              -0.40    -9400.00
00738               0.20    -9200.00
00739              -0.60    -9000.00
00740              -0.60    -9000.00
00741              -0.20    -8800.00
00742              -0.20    -8600.00
00743              -0.60    -8400.00
00744              -0.40    -8200.00
00745              -0.60    -8000.00
00746              -0.20    -8000.00
00747              -0.40    -7600.00
00748              -0.20    -7600.00
00749              -0.60    -7200.00
00750              -0.80    -7200.00
00751               0.40    -6800.00
00752              -0.60    -6800.00
00753              -1.20    -6600.00
00754               0.40    -6400.00
00755              -0.20    -6400.00
00756              -1.20    -6000.00
00757               0.00    -5600.00
00758              -0.20    -5600.00
00759              -0.60    -5600.00
00760              -0.20    -5000.00
00761               0.40    -5000.00
00762              -0.60    -4600.00
00763              -1.20    -4600.00
00764              -0.20    -4400.00
00765               0.40    -4200.00
00766              -1.20    -4000.00
00767              -0.60    -4000.00
00768               0.40    -3600.00
00769              -0.60    -3400.00
00770              -0.60    -3200.00
00771               0.40    -3000.00
00772              -0.40    -2800.00
00773              -0.60    -2600.00
00774               0.20    -2400.00
00775              -0.40    -2200.00
00776              -0.60    -2000.00
00777              -0.40    -1800.00
00778              -0.60    -1600.00
00779               0.00    -1400.00
00780              -0.20    -1200.00
00781              -0.40    -1000.00
00782              -0.20     -800.00
00783              -0.20     -600.00
00784              -0.40     -200.00
00785              -0.20        0.00
00786              -0.40        0.00
00787              -0.40      400.00
00788               1.40      400.00
00789               1.40      600.00
00790              -1.80      800.00
00791               0.20     1000.00
00792               1.20     1200.00
00793              -0.40     1400.00
00794              -0.20     1800.00
00795               5.20     2000.00
00796              18.80     2200.00
00797              -2.20     2400.00
00798             -25.00     2600.00
00799              -4.20     2800.00
00800               6.00     2800.00
00801              16.20     3200.00
00802              25.00     3200.00
00803             -25.00     3600.00
00804              23.80     3800.00
00805              25.00     3800.00
00806             -25.00     4000.00
00807             -19.00     4600.00
00808              25.00     4400.00
00809             -25.00     4600.00
00810             -18.00     5000.00
00811              25.00     5200.00
00812             -16.60     5400.00
00813              -6.60     5600.00
00814              -1.40     5600.00
00815              13.20     6000.00
00816               1.20     6200.00
00817             -25.00     6400.00
00818              16.20     6400.00
00819              21.40     6800.00
00820             -21.00     7000.00
00821             -16.40     7000.00
00822              24.60     7200.00
00823               8.60     7400.00
00824             -25.00     7800.00
00825              12.60     7800.00
00826              25.00     8200.00
00827             -25.00     8200.00
00828              -4.40     8400.00
00829              25.00     8400.00
00830             -13.00     8800.00
00831             -17.80     8800.00
00832              22.80     9000.00
00833               0.00     9200.00
00834             -19.00     9400.00
00835              12.20     9400.00
00836               7.40     9600.00
00837             -12.60     9800.00
00838              -1.20     9800.00
00839               8.20    10200.00
00840              -2.00    10200.00
00841              -5.00    10400.00
00842               2.60    10400.00
00843               4.20    10600.00
00844              -4.60    10800.00
00845              -3.00    11000.00
00846               6.60    11000.00
00847              -2.80    11000.00
00848              -4.40    11400.00
00849               5.80    11600.00
00850               0.20    11600.00
00851              -5.80    11800.00
00852               3.00    11800.00
00853               2.60    12000.00
00854              -5.60    12000.00
00855               0.60    12000.00
00856               3.60    12400.00
00857              -2.80    12400.00
00858              -1.40    12400.00
00859               2.60    12600.00
00860              -1.40    12800.00
00861              -2.00    12800.00
00862               1.40    12800.00
00863               0.20    13000.00
00864              -2.00    13200.00
00865              -0.20    13000.00
00866               1.20    13400.00
00867              -1.80    13200.00
00868              -2.00    13400.00
00869               1.20    13400.00
00870               0.20    13600.00
00871              -1.80    13600.00
00872               0.40    13600.00
00873               0.40    13600.00
00874              -1.40    13600.00
00875               0.00    14000.00
00876               0.60    13800.00
00877              -1.40    14000.00
00878              -0.60    14000.00
00879               1.00    14000.00
00880              -0.60    14000.00
00881              -1.40    14200.00
00882               0.20    14200.00
00883               0.20    14200.00
00884              -1.00    14200.00
00885              -0.60    14400.00
00886               0.20    14400.00
00887              -0.60    14200.00
00888              -0.60    14200.00
00889               0.40    14600.00
00890              -0.20    14400.00
00891              -0.60    14200.00
00892               0.20    14600.00
00893              -0.20    14200.00
00894              -0.20    14200.00
00895              -0.60    14600.00
00896              -0.60    14200.00
00897              -0.20    14200.00
00898              -0.60    14400.00
00899              -0.20    14200.00
00900               0.40    14200.00
00901              -0.80    14200.00
00902              -0.40    14200.00
00903               0.80    14200.00
00904              -0.60    14200.00
00905              -1.00    14000.00
00906               0.00    14200.00
00907               0.00    14000.00
00908              -0.20    13800.00
00909               0.20    14000.00
00910               0.20    13600.00
00911              -0.60    13600.00
00912              -1.00    13600.00
00913              -0.20    13600.00
00914              -0.20    13400.00
00915               0.00    13400.00
00916              -0.20    13400.00
00917              -0.20    13400.00
00918              -0.40    13200.00
00919              -0.40    13200.00
00920               0.00    13200.00
00921               0.20    13000.00
00922              -0.20    12800.00
00923              -0.40    12800.00
00924              -0.40    12600.00
00925               0.00    12600.00
00926              -0.40    12400.00
00927              -0.60    12400.00
00928              -0.20    12200.00
00929               0.20    12400.00
00930              -0.40    12000.00
00931              -0.60    12000.00
00932              -0.60    11800.00
00933              -0.20    11800.00
00934              -0.40    11600.00
00935              -0.20    11600.00
00936              -0.40    11400.00
00937              -0.60    11200.00
00938              -0.20    11200.00
00939              -0.20    10800.00
00940              -0.60    10800.00
00941              -1.00    10800.00
00942               0.20    10400.00
00943              -0.20    10400.00
00944              -1.20    10200.00
00945              -0.20    10200.00
00946               0.20    10000.00
00947              -0.60    10000.00
00948              -0.40     9600.00
00949              -0.20     9600.00
00950              -0.60     9400.00
00951              -0.60     9200.00
00952              -0.20     9000.00
00953               0.20     8800.00
00954              -1.00     8800.00
00955              -0.20     8600.00
00956              -0.20     8400.00
00957              -0.60     8200.00
00958              -0.20     8000.00
00959              -0.20     8000.00
00960              -0.60     7600.00
00961               0.20     7600.00
00962               0.20     7200.00
00963              -0.60     7200.00
00964              -0.20     7000.00
00965              -0.40     6800.00
00966              -0.40     6800.00
00967              -0.20     6400.00
00968               0.20     6200.00
00969              -0.60     6000.00
00970              -0.20     5800.00
00971               0.20     5600.00
00972              -0.60     5600.00
00973              -0.60     5400.00
00974              -0.20     5000.00
00975              -0.20     4800.00
00976               0.40     4600.00
00977              -0.20     4600.00
00978              -0.60     4400.00
00979               0.20     4000.00
00980               0.00     3800.00
00981              -0.60     3800.00
00982              -0.20     3600.00
00983               0.20     3400.00
00984              -0.60     3000.00
00985              -0.40     3000.00
00986              -0.40     2800.00
00987              -0.20     2400.00
00988              -0.40     2400.00
00989              -0.20     2200.00
00990              -0.40     1800.00
00991              -0.40     1800.00
00992              -0.20     1400.00
00993              -0.40     1400.00
00994              -0.60     1200.00
00995              -0.60      800.00
00996               0.20      600.00
00997              -0.60      400.00
00998              -0.80      400.00
00999               0.20        0.00
01000              -0.40     -200.00
01001              -0.60     -400.00
01002               1.80     -400.00
01003               0.60     -800.00
01004              -2.00     -800.00
01005              -0.40    -1000.00
01006               1.00    -1600.00
01007              -1.00    -1600.00
01008               1.80    -1800.00
01009              25.00    -2000.00
01010              -0.60    -2400.00
01011             -25.00    -2800.00
01012              -6.60    -2800.00
01013               7.00    -2600.00
01014              25.00    -3000.00
01015               2.20    -3600.00
01016             -25.00    -3200.00
01017              25.00    -3400.00
01018              25.00    -4000.00
01019             -25.00    -4000.00
01020              25.00    -4200.00
01021              25.00    -4400.00
01022             -25.00    -4400.00
01023              25.00    -5000.00
01024              25.00    -5000.00
01025             -25.00    -5000.00
01026              11.60    -5600.00
01027             -25.00    -5600.00
01028              25.00    -6000.00
01029               3.40    -6000.00
01030             -25.00    -6000.00
01031              25.00    -6600.00
01032              11.00    -6600.00
01033             -25.00    -6800.00
01034               5.60    -6800.00
01035              25.00    -7200.00
01036              -7.60    -7400.00
01037             -25.00    -7400.00
01038              25.00    -7800.00
01039              13.20    -8000.00
01040             -25.00    -8200.00
01041              23.60    -8400.00
01042              19.00    -8400.00
01043             -21.40    -8800.00
01044             -14.20    -8800.00
01045              25.00    -9000.00
01046              -8.00    -9200.00
01047             -21.40    -9200.00
01048              22.80    -9200.00
01049              -1.20    -9600.00
01050             -11.80    -9600.00
01051               3.40    -9800.00
01052              10.20   -10000.00
01053              -6.40   -10000.00
01054              -5.40   -10200.00
01055               7.80   -10600.00
01056              -1.20   -10600.00
01057              -7.00   -10800.00
01058               0.60   -10800.00
01059               7.60   -11000.00
01060              -7.40   -11200.00
01061               1.40   -11200.00
01062               7.00   -11400.00
01063              -5.80   -11400.00
01064              -3.40   -11600.00
01065               4.20   -11600.00
01066              -1.20   -12000.00
01067              -7.40   -12000.00
01068               6.00   -12200.00
01069               2.80   -12400.00
01070              -5.80   -12400.00
01071               2.80   -12400.00
01072               2.80   -12600.00
01073              -6.20   -12800.00
01074              -0.40   -12800.00
01075               3.40   -12800.00
01076              -3.40   -13000.00
01077              -1.40   -13000.00
01078               2.60   -13200.00
01079               1.00   -13200.00
01080              -3.00   -13200.00
01081               0.20   -13200.00
01082               1.80   -13400.00
01083              -1.40   -13600.00
01084              -1.40   -13800.00
01085               0.00   -13600.00
01086               0.40   -13600.00
01087              -2.00   -13800.00
01088               0.60   -13600.00
01089               1.00   -13800.00
01090              -1.20   -13800.00
01091              -0.20   -14000.00
01092               0.60   -14000.00
01093              -0.60   -14000.00
01094              -2.20   -14000.00
01095              -0.40   -14000.00
01096               1.20   -14200.00
01097              -1.00   -14000.00
01098               0.20   -14000.00
01099               1.00   -14400.00
01100              -0.60   -14200.00
01101              -0.20   -14400.00
01102              -0.60   -14400.00
01103              -1.00   -14400.00
01104              -0.40   -14400.00
01105               0.40   -14200.00
01106               0.20   -14400.00
01107              -0.20   -14400.00
01108               0.20   -14400.00
01109              -0.40   -14400.00
01110              -0.60   -14400.00
01111               0.20   -14400.00
01112              -0.60   -14400.00
01113              -0.60   -14400.00
01114              -0.20   -14200.00
01115               0.00   -14200.00
01116              -0.20   -14000.00
01117              -0.40   -14200.00
01118               0.20   -14000.00
01119               0.20   -14200.00
01120              -0.20   -13800.00
01121              -0.40   -14000.00
01122              -1.00   -14000.00
01123              -0.60   -14000.00
01124              -0.40   -13800.00
01125              -0.60   -13600.00
01126              -0.20   -13600.00
01127              -0.40   -13600.00
01128               0.20   -13600.00
01129              -0.20   -13600.00
01130              -0.60   -13200.00
01131              -1.00   -13200.00
01132              -0.40   -13200.00
01133              -0.40   -13000.00
01134              -0.20   -13200.00
01135              -0.60   -13000.00
01136              -0.40   -13000.00
01137               0.00   -12800.00
01138               0.20   -12800.00
01139              -0.80   -12400.00
01140              -0.40   -12400.00
01141              -0.20   -12400.00
01142              -0.60   -12400.00
01143              -0.20   -12200.00
01144              -0.40   -12200.00
01145              -0.40   -12000.00
01146              -0.20   -12000.00
01147              -0.20   -11600.00
01148              -0.40   -11600.00
01149              -0.40   -11400.00
01150              -0.40   -11400.00
01151               0.40   -11000.00
01152              -1.40   -11000.00
01153              -0.40   -11000.00
01154              -0.60   -10800.00
01155              -0.40   -10800.00
01156              -0.60   -10600.00
01157               0.60   -10400.00
01158              -0.60   -10400.00
01159              -0.40   -10000.00
01160              -0.40   -10000.00
01161              -0.20    -9800.00
01162              -0.60    -9600.00
01163              -0.60    -9400.00
01164              -0.20    -9400.00
01165               0.20    -9200.00
01166              -0.20    -9000.00
01167              -0.40    -9000.00
01168               0.00    -8800.00
01169              -0.40    -8400.00
01170              -0.60    -8400.00
01171              -0.20    -8200.00
01172              -0.60    -8200.00
01173              -0.40    -7800.00
01174              -0.20    -7600.00
01175              -0.20    -7400.00
01176              -0.60    -7400.00
01177              -0.60    -7200.00
01178              -0.40    -6800.00
01179               0.20    -6800.00
01180              -0.20    -6600.00
01181              -0.40    -6400.00
01182              -0.20    -6200.00
01183              -0.20    -6000.00
01184              -0.60    -5800.00
01185              -0.40    -5600.00
01186              -0.40    -5600.00
01187              -0.80    -5200.00
01188              -0.20    -5000.00
01189               0.00    -4800.00
01190              -1.20    -4600.00
01191              -0.60    -4400.00
01192               0.20    -4400.00
01193              -0.60    -4200.00
01194              -0.20    -4000.00
01195              -0.60    -3600.00
01196               0.20    -3600.00
01197              -0.60    -3200.00
01198              -1.00    -3200.00
01199              -0.40    -3000.00
01200               0.20    -2800.00
01201              -1.00    -2400.00
01202              -0.60    -2400.00
01203               0.40    -2000.00
01204              -1.00    -1800.00
01205              -1.20    -1600.00
01206               0.20    -1600.00
01207               0.20    -1200.00
01208              -1.40    -1000.00
01209              -0.40     -800.00
01210              -0.40     -800.00
01211              -1.00     -400.00
01212               0.20     -200.00
01213              -0.40        0.00
01214              -1.00        0.00
01215               1.20      400.00
01216               1.20      600.00
01217              -1.20      800.00
01218              -0.40     1000.00
01219               0.40     1200.00
01220               0.20     1400.00
01221              -0.20     1800.00
01222               2.00     2000.00
01223              14.20     2000.00
01224              12.20     2400.00
01225             -25.00     2600.00
01226             -19.00     2800.00
01227               8.40     2800.00
01228               5.20     3200.00
01229              25.00     3200.00
01230             -25.00     3200.00
01231             -25.00     3800.00
01232              25.00     4000.00
01233             -23.80     3800.00
01234             -25.00     4400.00
01235              25.00     4400.00
01236              -2.20     4600.00
01237             -25.00     5000.00
01238              25.00     5200.00
01239              -0.40     5200.00
01240             -15.80     5400.00
01241              -0.20     5600.00
01242               6.80     5800.00
01243              12.40     6000.00
01244             -25.00     6400.00
01245               2.20     6400.00
01246              25.00     6800.00
01247             -13.00     7000.00
01248             -24.60     7000.00
01249              14.80     7200.00
01250              24.20     7400.00
01251             -25.00     7600.00
01252              -7.60     7800.00
01253              25.00     8000.00
01254             -15.00     8000.00
01255             -19.60     8200.00
01256              25.00     8400.00
01257               0.60     8600.00
01258             -25.00     8600.00
01259              15.40     8800.00
01260              13.00     9200.00
01261             -21.40     9200.00
01262               4.40     9400.00
01263              14.00     9600.00
01264             -10.60     9800.00
01265              -6.00    10000.00
01266               7.60    10000.00
01267               0.40    10200.00
01268              -6.00    10400.00
01269               1.00    10400.00
01270               4.20    10400.00
01271              -2.60    10800.00
01272              -4.20    11000.00
01273               4.20    11000.00
01274               0.40    11000.00
01275              -6.00    11200.00
01276               3.60    11200.00
01277               2.60    11600.00
01278              -6.00    11800.00
01279               0.60    11800.00
01280               4.40    12000.00
01281              -4.40    12000.00
01282              -1.80    12200.00
01283               4.60    12200.00
01284              -2.00    12400.00
01285              -3.40    12600.00
01286               2.80    12600.00
01287               0.20    12600.00
01288              -2.80    12800.00
01289               1.20    12800.00
01290               1.40    12800.00
01291              -2.20    13200.00
01292              -1.00    13200.00
01293               1.80    13200.00
01294              -0.40    13200.00
01295              -2.20    13400.00
01296               1.60    13400.00
01297               1.20    13600.00
01298              -2.00    13600.00
01299              -0.40    13600.00
01300               1.00    13600.00
01301              -1.40    13800.00
01302              -0.40    13600.00
01303               2.00    13800.00
01304              -0.60    14000.00
01305              -1.40    14000.00
01306               0.80    14000.00
01307               0.20    14200.00
01308              -1.40    14200.00
01309              -0.20    14200.00
01310               1.00    14200.00
01311              -0.20    14200.00
01312              -0.40    14200.00
01313              -0.20    14200.00
01314              -0.40    14600.00
01315              -0.20    14400.00
01316               0.00    14400.00
01317               0.20    14000.00
01318               0.40    14200.00
01319              -0.60    14200.00
01320              -0.40    14400.00
01321               0.40    14200.00
01322              -1.00    14200.00
01323              -1.20    14200.00
01324               0.60    14200.00
01325               0.40    14200.00
01326              -1.20    14200.00
01327               0.20    14200.00
01328               0.20    14200.00
01329              -1.20    14200.00
01330              -0.20    14000.00
01331               0.40    14000.00
01332              -0.60    14000.00
01333              -0.20    14000.00
01334               0.20    14000.00
01335              -0.60    14000.00
01336              -1.20    14000.00
01337              -0.60    13800.00
01338              -0.40    13600.00
01339               0.00    13600.00
01340              -0.60    13600.00
01341              -0.20    13400.00
01342              -0.20    13400.00
01343              -0.40    13400.00
01344              -1.00    13400.00
01345              -0.20    13200.00
01346              -0.20    13200.00
01347              -0.60    13000.00
01348              -0.40    13000.00
01349              -0.20    12800.00
01350              -0.40    12800.00
01351              -0.60    12600.00
01352               0.00    12600.00
01353              -0.20    12600.00
01354              -0.40    12400.00
01355              -0.60    12400.00
01356              -0.40    12400.00
01357              -0.40    12000.00
01358              -0.60    12000.00
01359              -0.40    12000.00
01360               0.20    11800.00
01361              -0.40    11800.00
01362              -0.40    11600.00
01363               0.20    11400.00
01364              -0.40    11400.00
01365              -0.40    11200.00
01366               0.20    11000.00
01367              -0.20    11000.00
01368              -0.60    10800.00
01369              -0.20    10600.00
01370               0.20    10400.00
01371              -0.20    10400.00
01372              -0.40    10200.00
01373              -0.40    10200.00
01374              -0.20    10000.00
01375              -0.20     9600.00
01376              -0.20     9600.00
01377              -0.20     9400.00
01378              -0.20     9400.00
01379              -0.20     9200.00
01380              -0.40     9000.00
01381              -0.60     8800.00
01382              -0.60     8600.00
01383              -0.20     8600.00
01384              -0.40     8400.00
01385              -0.20     8200.00
01386              -0.40     8000.00
01387              -0.40     7600.00
01388              -0.60     7600.00
01389              -0.20     7400.00
01390              -0.60     7200.00
01391              -1.00     7000.00
01392               0.00     7000.00
01393              -0.40     6800.00
01394              -0.60     6600.00
01395              -0.40     6400.00
01396              -0.40     6200.00
01397              -0.60     6000.00
01398              -0.40     6000.00
01399              -0.20     5600.00
01400              -0.60     5400.00
01401              -0.60     5200.00
01402              -0.60     5000.00
01403              -0.20     4800.00
01404              -0.60     4600.00
01405              -0.60     4400.00
01406              -0.40     4000.00
01407              -0.20     4000.00
01408              -0.40     3800.00
01409              -0.40     3600.00
01410              -0.60     3400.00
01411              -0.40     3200.00
01412               0.00     3000.00
01413              -0.40     2800.00
01414              -0.60     2800.00
01415              -0.40     2400.00
01416              -0.40     2000.00
01417              -0.60     2000.00
01418              -0.60     1800.00
01419              -0.40     1600.00
01420              -0.20     1400.00
01421              -0.40     1000.00
01422              -0.20      800.00
01423              -0.20      600.00
01424              -0.40      400.00
01425              -0.20      400.00
01426              -0.40        0.00
01427              -0.20        0.00
01428               0.00     -200.00
01429               1.00     -600.00
01430               1.40     -800.00
01431              -1.20    -1000.00
01432              -0.60    -1200.00
01433               1.20    -1200.00
01434               0.20    -1600.00
01435               0.40    -1800.00
01436              15.40    -1800.00
01437              20.20    -2400.00
01438             -25.00    -2600.00
01439             -22.00    -2800.00
01440               7.00    -2600.00
01441              25.00    -2800.00
01442              25.00    -3400.00
01443             -25.00    -3200.00
01444              25.00    -3400.00
01445              25.00    -4000.00
01446             -25.00    -4000.00
01447             -25.00    -4000.00
01448              25.00    -4800.00
01449             -25.00    -4400.00
01450             -25.00    -4800.00
01451              25.00    -5000.00
01452             -25.00    -5000.00
01453               5.80    -5600.00
01454             -18.80    -5600.00
01455              12.80    -5800.00
01456              25.00    -6000.00
01457             -25.00    -6000.00
01458              25.00    -6600.00
01459              25.00    -6400.00
01460             -25.00    -6800.00
01461              -9.80    -7000.00
01462              25.00    -7000.00
01463              15.60    -7400.00
01464             -25.00    -7400.00
01465              18.00    -7600.00
01466              25.00    -7800.00
01467             -25.00    -8000.00
01468               3.00    -8400.00
01469              25.00    -8200.00
01470             -12.60    -8600.00
01471             -24.40    -8800.00
01472              21.00    -8800.00
01473              12.20    -9000.00
01474             -25.00    -9200.00
01475              14.80    -9400.00
01476               9.60    -9600.00
01477             -14.20    -9800.00
01478              -2.40    -9800.00
01479               9.00    -9800.00
01480              -0.20   -10000.00
01481              -9.40   -10400.00
01482               7.40   -10400.00
01483               4.20   -10400.00
01484              -7.00   -10800.00
01485              -3.20   -11000.00
01486               8.60   -11000.00
01487              -5.00   -11000.00
01488              -4.60   -11000.00
01489               9.80   -11200.00
01490              -2.80   -11600.00
01491              -5.40   -11600.00
01492               4.40   -11600.00
01493               3.00   -12000.00
01494              -8.20   -12000.00
01495               2.00   -12000.00
01496               6.40   -12400.00
01497              -5.60   -12400.00
01498              -1.20   -12400.00
01499               4.60   -12400.00
01500              -2.80   -12600.00
01501              -3.80   -12800.00
01502               4.20   -12800.00
01503               1.20   -12800.00
01504              -3.80   -13000.00
01505               0.20   -13000.00
01506               3.40   -13200.00
01507              -2.40   -13200.00
01508              -2.60   -13200.00
01509               3.40   -13400.00
01510               0.20   -13600.00
01511              -2.60   -13600.00
01512               0.40   -13600.00
01513               1.40   -13600.00
01514              -2.20   -13800.00
01515              -1.00   -13800.00
01516               2.00   -13800.00
01517              -1.40   -13800.00
01518              -1.80   -13800.00
01519               1.40   -14000.00
01520               0.20   -14000.00
01521              -2.00   -14200.00
01522              -0.40   -14000.00
01523               1.00   -14000.00
01524              -0.80   -14200.00
01525              -0.80   -14200.00
01526              -0.20   -14000.00
01527              -0.20   -14400.00
01528              -0.60   -14400.00
01529              -0.60   -14200.00
01530              -0.20   -14400.00
01531              -0.60   -14400.00
01532              -0.60   -14400.00
01533               0.20   -14400.00
01534              -0.60   -14200.00
01535              -1.00   -14400.00
01536               0.20   -14400.00
01537              -0.20   -14400.00
01538              -0.20   -14400.00
01539              -0.60   -14400.00
01540              -0.20   -14200.00
01541              -0.60   -14000.00
01542              -1.00   -14200.00
01543               0.60   -14000.00
01544              -0.60   -14000.00
01545              -1.00   -14000.00
01546               1.00   -14000.00
01547               0.00   -14000.00
01548              -1.20   -13800.00
01549              -0.60   -13800.00
01550               1.20   -13800.00
01551              -0.60   -13600.00
01552              -1.20   -13600.00
01553               0.00   -13600.00
01554               0.00   -13600.00
01555               0.20   -13600.00
01556               0.40   -13400.00
01557              -0.60   -13400.00
01558              -0.40   -13400.00
01559              -0.40   -13200.00
01560              -0.40   -13000.00
01561               0.40   -13200.00
01562               0.20   -13000.00
01563              -0.60   -12800.00
01564              -0.60   -12800.00
01565               0.20   -12800.00
01566              -0.40   -12400.00
01567              -0.60   -12600.00
01568               0.20   -12400.00
01569              -0.20   -12200.00
01570              -0.40   -12200.00
01571              -0.60   -12200.00
01572              -0.60   -12000.00
01573              -0.40   -11800.00
01574               0.60   -11600.00
01575              -0.40   -11600.00
01576              -0.60   -11400.00
01577              -0.40   -11400.00
01578               0.20   -11400.00
01579              -1.40   -11000.00
01580              -0.20   -10800.00
01581               0.20   -10800.00
01582              -0.60   -10800.00
01583              -0.40   -10600.00
01584               0.40   -10400.00
01585              -1.00   -10400.00
01586              -1.20   -10400.00
01587              -0.60   -10000.00
01588              -0.20    -9800.00
01589              -0.60    -9600.00
01590               0.20    -9600.00
01591              -0.60    -9200.00
01592              -0.60    -9200.00
01593               0.00    -9000.00
01594              -0.60    -9000.00
01595              -0.60    -8800.00
01596              -0.20    -8600.00
01597              -0.60    -8400.00
01598              -0.60    -8200.00
01599              -0.20    -8000.00
01600              -0.40    -8000.00
01601              -0.60    -7600.00
01602              -0.60    -7400.00
01603              -0.60    -7400.00
01604              -0.80    -7200.00
01605              -0.60    -7000.00
01606              -0.20    -6800.00
01607              -0.60    -6800.00
01608              -0.40    -6600.00
01609              -0.20    -6400.00
01610              -0.60    -6000.00
01611              -0.60    -6000.00
01612               0.40    -5800.00
01613              -0.20    -5600.00
01614              -1.00    -5600.00
01615               0.20    -5000.00
01616               0.00    -5000.00
01617              -1.20    -5000.00
01618              -0.40    -4600.00
01619               0.40    -4400.00
01620              -0.40    -4200.00
01621              -0.40    -4000.00
01622              -0.20    -3600.00
01623              -0.40    -3400.00
01624              -0.40    -3400.00
01625              -0.20    -3200.00
01626              -0.40    -3000.00
01627              -0.60    -2600.00
01628               0.20    -2600.00
01629              -0.20    -2400.00
01630              -0.40    -2000.00
01631              -0.60    -2000.00
01632              -0.60    -1800.00
01633              -0.20    -1600.00
01634              -0.40    -1200.00
01635              -0.80    -1000.00
01636               0.40     -800.00
01637              -0.20     -800.00
01638              -0.60     -400.00
01639               0.40     -200.00
01640               0.20        0.00
01641              -1.60      200.00
01642               1.20      400.00
01643               2.20      600.00
01644              -1.40      600.00
01645              -0.60      800.00
01646               0.80     1200.00
01647               0.20     1200.00
01648              -0.60     1400.00
01649               1.40     1800.00
01650               9.40     2000.00
01651              18.60     2200.00
01652             -21.20     2400.00
01653             -25.00     2600.00
01654               5.20     2600.00
01655               3.80     2800.00
01656              25.00     3200.00
01657              -9.80     3200.00
01658             -25.00     3600.00
01659              25.00     4000.00
01660              25.00     3800.00
01661             -25.00     4400.00
01662              25.00     4400.00
01663              25.00     4400.00
01664             -25.00     4800.00
01665              25.00     5200.00
01666              22.20     5200.00
01667             -22.20     5400.00
01668              -1.20     5600.00
01669               0.40     5800.00
01670              17.20     6000.00
01671             -17.40     6200.00
01672             -14.80     6400.00
01673              25.00     6400.00
01674               2.60     6800.00
01675             -25.00     7000.00
01676               0.40     7200.00
01677              25.00     7200.00
01678             -16.60     7600.00
01679             -25.00     7800.00
01680              25.00     8200.00
01681               3.80     8200.00
01682             -25.00     8400.00
01683              15.40     8400.00
01684              14.60     8600.00
01685             -25.00     8800.00
01686               1.40     8800.00
01687              22.60     9000.00
01688             -15.20     9200.00
01689              -7.80     9400.00
01690              16.40     9600.00
01691              -3.40     9800.00
01692             -10.60     9800.00
01693               4.60    10000.00
01694               5.20    10200.00
01695              -5.20    10200.00
01696              -2.40    10400.00
01697               4.40    10400.00
01698               1.20    10800.00
01699              -5.80    10800.00
01700               1.20    11000.00
01701               4.40    11000.00
01702              -5.40    11200.00
01703              -0.60    11400.00
01704               5.40    11600.00
01705              -3.40    11600.00
01706              -3.40    11600.00
01707               5.20    11800.00
01708              -1.00    12000.00
01709              -5.20    12000.00
01710               3.40    12200.00
01711               1.40    12400.00
01712              -4.60    12400.00
01713               0.60    12600.00
01714               2.20    12600.00
01715              -3.00    12600.00
01716              -0.60    12800.00
01717               2.40    12800.00
01718              -1.20    13200.00
01719              -2.00    13000.00
01720               1.40    13200.00
01721               1.00    13200.00
01722              -3.00    13200.00
01723              -0.80    13400.00
01724               2.00    13400.00
01725              -1.00    13600.00
01726              -2.20    13600.00
01727               1.20    13600.00
01728               0.20    13600.00
01729              -2.60    13800.00
01730               0.40    13800.00
01731               0.60    14000.00
01732              -2.00    13800.00
01733              -0.80    14000.00
01734               1.00    14000.00
01735              -0.60    14000.00
01736              -1.80    14000.00
01737               0.40    14200.00
01738               1.00    14200.00
01739              -1.00    14200.00
01740              -1.20    14200.00
01741               0.20    14200.00
01742               0.20    14200.00
01743              -0.60    14600.00
01744              -0.40    14200.00
01745               0.00    14200.00
01746              -0.40    14600.00
01747              -0.60    14200.00
01748               0.60    14200.00
01749              -0.20    14200.00
01750              -1.00    14400.00
01751               0.40    14200.00
01752               0.40    14200.00
01753              -1.20    14200.00
01754              -0.60    14200.00
01755               0.40    14200.00
01756              -0.60    14000.00
01757              -0.60    14200.00
01758               0.40    14200.00
01759              -0.20    14000.00
01760              -0.40    14000.00
01761              -0.40    14000.00
01762              -0.20    14000.00
01763              -0.60    13800.00
01764              -0.60    13800.00
01765              -0.20    13800.00
01766               1.00    13600.00
01767              -0.60    13800.00
01768              -0.20    13400.00
01769               0.20    13600.00
01770              -0.20    13400.00
01771              -0.80    13200.00
01772              -0.20    13200.00
01773              -1.00    13200.00
01774              -0.40    13000.00
01775              -0.20    13000.00
01776              -0.20    13000.00
01777              -0.60    12800.00
01778              -0.40    12600.00
01779              -0.20    12600.00
01780              -0.20    12600.00
01781              -0.40    12400.00
01782              -0.40    12400.00
01783              -0.40    12200.00
01784              -0.20    12200.00
01785              -0.40    12000.00
01786              -0.60    12000.00
01787              -0.40    11800.00
01788              -0.20    11800.00
01789              -0.60    11600.00
01790              -0.40    11600.00
01791              -0.40    11200.00
01792              -0.60    11200.00
01793              -0.40    11000.00
01794               0.20    10800.00
01795              -0.40    10800.00
01796              -0.60    10600.00
01797              -0.20    10600.00
01798              -0.40    10400.00
01799              -0.60    10200.00
01800              -0.40    10000.00
01801              -0.20    10000.00
01802              -0.40     9600.00
01803              -0.20     9600.00
01804              -0.20     9600.00
01805              -0.60     9400.00
01806              -0.60     9200.00
01807               0.20     8800.00
01808              -0.20     8800.00
01809              -0.60     8600.00
01810               0.20     8600.00
01811               0.20     8400.00
01812              -0.40     8200.00
01813              -0.60     8000.00
01814               0.20     7800.00
01815              -0.40     7600.00
01816              -0.60     7600.00
01817               0.40     7400.00
01818              -0.60     7200.00
01819              -0.80     6800.00
01820               1.00     6600.00
01821              -0.40     6600.00
01822              -1.20     6400.00
01823               0.40     6400.00
01824               0.20     6000.00
01825              -0.60     6000.00
01826              -0.20     5600.00
01827               0.40     5600.00
01828              -0.60     5200.00
01829              -1.00     5000.00
01830               1.00     4800.00
01831               0.20     4600.00
01832              -1.80     4400.00
01833               0.80     4200.00
01834               0.40     4000.00
01835              -1.80     3800.00
01836               0.40     3600.00
01837               0.00     3600.00
01838              -0.60     3200.00
01839               0.20     3000.00
01840              -0.40     2800.00
01841              -0.40     2400.00
01842              -0.60     2400.00
01843              -0.60     2200.00
01844               0.20     2000.00
01845              -0.60     1800.00
01846              -0.40     1600.00
01847              -0.20     1400.00
01848               0.20     1200.00
01849              -1.20      800.00
01850              -0.60      600.00
01851               0.40      400.00
01852              -0.40      400.00
01853              -0.60        0.00
01854              -0.60        0.00
01855              -0.20     -200.00
01856               1.40     -400.00
01857               0.80     -600.00
01858              -0.40    -1000.00
01859              -0.40    -1000.00
01860              -0.60    -1200.00
01861              -0.60    -1400.00
01862               0.40    -1600.00
01863               6.60    -1800.00
01864              25.00    -2200.00
01865             -24.20    -2600.00
01866             -25.00    -2800.00
01867               3.80    -2800.00
01868              19.60    -2600.00
01869              25.00    -3200.00
01870             -25.00    -3400.00
01871             -25.00    -3200.00
01872              25.00    -4000.00
01873              -0.20    -4000.00
01874             -25.00    -4000.00
01875              25.00    -4600.00
01876              25.00    -4400.00
01877             -25.00    -4400.00
01878              25.00    -5000.00
01879              -6.60    -5000.00
01880             -15.80    -5600.00
01881              -0.60    -5600.00
01882             -15.00    -5800.00
01883              25.00    -6000.00
01884             -25.00    -5800.00
01885             -17.00    -6400.00
01886              25.00    -6600.00
01887             -25.00    -6600.00
01888             -25.00    -7000.00
01889              21.00    -7000.00
01890              25.00    -7200.00
01891             -25.00    -7600.00
01892             -17.00    -7400.00
01893              25.00    -8000.00
01894             -25.00    -8000.00
01895             -22.00    -8200.00
01896              25.00    -8200.00
01897              -0.20    -8400.00
01898             -25.00    -8800.00
01899               6.80    -8800.00
01900              25.00    -9000.00
01901             -25.00    -9200.00
01902              -0.60    -9400.00
01903              20.40    -9600.00
01904             -11.60    -9600.00
01905              -7.00    -9800.00
01906               6.20   -10000.00
01907               5.40   -10000.00
01908             -10.80   -10200.00
01909               1.20   -10400.00
01910               7.60   -10400.00
01911              -4.40   -10600.00
01912              -6.20   -10800.00
01913               6.80   -10800.00
01914               1.40   -11000.00
01915             -10.00   -11200.00
01916               7.40   -11200.00
01917               2.00   -11400.00
01918              -7.00   -11600.00
01919               1.20   -11600.00
01920               5.80   -11800.00
01921              -6.00   -12000.00
01922              -3.80   -12000.00
01923               7.60   -12200.00
01924              -3.20   -12400.00
01925              -4.60   -12400.00
01926               4.40   -12400.00
01927               0.80   -12800.00
01928              -5.00   -12800.00
01929               2.00   -12800.00
01930               2.60   -12800.00
01931              -3.60   -13000.00
01932              -1.80   -13200.00
01933               3.20   -13200.00
01934              -0.20   -13200.00
01935              -3.60   -13200.00
01936               2.00   -13400.00
01937               1.40   -13600.00
01938              -2.60   -13600.00
01939              -0.60   -13600.00
01940               1.00   -13600.00
01941              -1.00   -13800.00
01942              -2.00   -13800.00
01943               1.80   -13800.00
01944               0.20   -13800.00
01945              -2.00   -14000.00
01946               0.40   -13800.00
01947               1.00   -14200.00
01948              -1.00   -14000.00
01949              -1.20   -14000.00
01950               1.20   -14000.00
01951               0.60   -14200.00
01952              -1.40   -14200.00
01953              -0.60   -14400.00
01954               0.40   -14400.00
01955              -0.40   -14400.00
01956              -0.40   -14400.00
01957              -0.20   -14400.00
01958              -0.60   -14400.00
01959              -0.40   -14400.00
01960               0.80   -14200.00
01961              -0.20   -14400.00
01962              -1.20   -14200.00
01963               0.20   -14200.00
01964              -0.20   -14400.00
01965              -0.20   -14200.00
01966               0.40   -14400.00
01967              -0.60   -14400.00
01968              -0.60   -14400.00
01969               0.40   -14200.00
01970              -0.40   -14200.00
01971              -0.60   -14200.00
01972              -0.40   -14000.00
01973              -0.60   -14000.00
01974               0.00   -14000.00
01975              -0.60   -14000.00
01976              -0.60   -13800.00
01977              -0.40   -14000.00
01978              -1.00   -13800.00
01979               0.20   -13800.00
01980               0.40   -13600.00
01981              -1.60   -13600.00
01982              -0.20   -13600.00
01983               1.20   -13600.00
01984              -1.40   -13600.00
01985              -1.20   -13600.00
01986               0.60   -13200.00
01987              -0.60   -13200.00
01988              -1.00   -13200.00
01989               0.40   -13000.00
01990              -0.60   -13000.00
01991              -0.60   -12800.00
01992               0.00   -12800.00
01993               0.00   -12800.00
01994              -0.60   -12400.00
01995              -0.40   -12400.00
01996               0.00   -12400.00
01997              -0.40   -12200.00
01998              -0.40   -12200.00
01999              -0.60   -12000.00
02000              -0.40   -12000.00
02001               0.00   -12000.00
02002              -0.40   -11600.00
02003              -0.20   -11600.00
02004              -0.60   -11200.00
02005              -0.40   -11400.00
02006               0.20   -11000.00
02007              -0.60   -11000.00
02008              -0.40   -11000.00
02009              -0.40   -10800.00
02010               0.20   -10600.00
02011              -0.20   -10600.00
02012              -0.60   -10400.00
02013              -0.60   -10400.00
02014               0.20   -10000.00
02015              -0.20    -9800.00
02016              -0.60    -9800.00
02017               0.20    -9600.00
02018              -0.40    -9600.00
02019              -0.60    -9200.00
02020               0.00    -9200.00
02021              -0.20    -9000.00
02022              -0.60    -8800.00
02023              -0.20    -8600.00
02024               0.20    -8400.00
02025              -0.40    -8200.00
02026              -0.40    -8200.00
02027              -0.40    -8000.00
02028              -0.20    -7800.00
02029               0.20    -7600.00
02030              -0.40    -7400.00
02031              -0.60    -7200.00
02032              -0.40    -7200.00
02033              -0.60    -6800.00
02034              -0.60    -6800.00
02035              -0.40    -6600.00
02036              -0.40    -6400.00
02037              -0.60    -6400.00
02038              -0.40    -6000.00
02039              -0.60    -5800.00
02040              -0.40    -5600.00
02041              -0.40    -5200.00
02042              -0.60    -5200.00
02043              -0.20    -5000.00
02044              -0.60    -4800.00
02045              -0.60    -4600.00
02046              -0.40    -4400.00
02047              -0.60    -4200.00
02048              -0.60    -4000.00
02049               0.00    -4000.00
02050              -0.60    -3600.00
02051              -0.60    -3600.00
02052              -0.20    -3200.00
02053              -0.40    -3000.00
02054              -0.60    -2800.00
02055              -0.60    -2600.00
02056              -0.60    -2400.00
02057              -0.40    -2400.00
02058              -0.40    -2000.00
02059              -0.60    -1800.00
02060              -0.40    -1600.00
02061               0.00    -1200.00
02062              -0.40    -1000.00
02063              -0.60    -1000.00
02064              -0.60     -800.00
02065              -0.40     -400.00
02066              -0.20     -400.00
02067              -0.20     -200.00
02068              -0.40        0.00
02069              -0.20      200.00
02070               1.40      400.00
02071               1.00      800.00
02072              -1.40      800.00
02073              -0.20     1200.00
02074               1.20     1400.00
02075              -0.20     1400.00
02076              -0.20     1800.00
02077               5.20     2000.00
02078              19.40     2200.00
02079              -5.80     2400.00
02080             -25.00     2400.00
02081              -1.40     2800.00
02082               6.40     2800.00
02083              20.20     3200.00
02084              21.80     3200.00
02085             -25.00     3600.00
02086              25.00     3800.00
02087              25.00     3800.00
02088             -25.00     4000.00
02089              -4.60     4400.00
02090              25.00     4400.00
02091             -25.00     4600.00
02092              -9.80     5200.00
02093              25.00     5200.00
02094             -18.60     5400.00
02095              -5.40     5600.00
02096              -1.40     5600.00
02097              15.00     5800.00
02098              -1.40     6000.00
02099             -25.00     6400.00
02100              20.60     6400.00
02101              19.00     6800.00
02102             -23.60     6800.00
02103             -13.40     7000.00
02104              25.00     7200.00
02105               3.60     7400.00
02106             -25.00     7600.00
02107              17.60     7800.00
02108              22.60     8200.00
02109             -25.00     8200.00
02110               0.20     8400.00
02111              24.40     8400.00
02112             -16.80     8600.00
02113             -13.80     8800.00
02114              23.60     9000.00
02115              -4.40     9200.00
02116             -16.60     9400.00
02117              13.80     9400.00
02118               4.60     9600.00
02119             -12.20     9800.00
02120              -0.40     9800.00
02121               7.60    10200.00
02122              -2.80    10200.00
02123              -5.00    10200.00
02124               3.00    10400.00
02125               3.40    10600.00
02126              -5.40    10800.00
02127              -2.20    11000.00
02128               6.20    11000.00
02129              -3.80    11200.00
02130              -3.80    11200.00
02131               6.00    11400.00
02132              -0.80    11600.00
02133              -6.00    11800.00
02134               3.60    11800.00
02135               1.80    12000.00
02136              -5.80    12000.00
02137               1.80    12200.00
02138               3.60    12400.00
02139              -3.80    12400.00
02140              -0.80    12600.00
02141               3.00    12600.00
02142              -2.20    12800.00
02143              -2.00    12800.00
02144               2.20    12800.00
02145               0.20    13000.00
02146              -2.20    13200.00
02147               0.40    13200.00
02148               1.60    13200.00
02149              -1.80    13200.00
02150              -1.40    13400.00
02151               1.40    13400.00
02152               0.20    13400.00
02153              -1.40    13600.00
02154               0.20    13600.00
02155               0.40    13600.00
02156              -1.20    13600.00
02157              -0.20    13800.00
02158               0.60    13600.00
02159              -1.20    14000.00
02160              -0.40    14000.00
02161               0.40    14000.00
02162              -0.20    14200.00
02163              -0.60    14000.00
02164              -0.20    14200.00
02165               0.40    14200.00
02166              -0.40    14000.00
02167              -0.60    14200.00
02168              -0.40    14200.00
02169              -0.20    14200.00
02170              -0.20    14200.00
02171              -0.60    14200.00
02172              -0.60    14200.00
02173              -0.20    14200.00
02174              -0.40    14600.00
02175              -0.20    14200.00
02176              -0.20    14200.00
02177              -1.20    14200.00
02178               0.20    14200.00
02179               0.40    14200.00
02180              -1.00    14200.00
02181              -0.40    14200.00
02182               0.20    14200.00
02183              -0.80    14000.00
02184               0.20    14200.00
02185               0.20    14200.00
02186              -0.60    14000.00
02187              -1.00    14000.00
02188               0.40    14000.00
02189               0.20    14000.00
02190              -0.40    14000.00
02191               0.20    13800.00
02192              -0.80    13800.00
02193              -0.60    13600.00
02194               0.40    13600.00
02195              -0.60    13600.00
02196              -0.40    13400.00
02197              -0.20    13400.00
02198              -0.40    13400.00
02199              -0.40    13200.00
02200              -0.60    13400.00
02201              -0.20    13200.00
02202               0.00    13200.00
02203              -0.40    13000.00
02204               0.20    12800.00
02205              -0.20    13000.00
02206              -0.60    12800.00
02207               0.40    12600.00
02208              -0.60    12600.00
02209              -0.60    12400.00
02210               0.40    12400.00
02211              -0.80    12200.00
02212              -0.40    12000.00
02213               1.80    12000.00
02214              -2.00    12000.00
02215              -0.40    11800.00
02216               2.00    11600.00
02217              -2.20    11400.00
02218              -0.60    11200.00
02219               1.40    11200.00
02220              -1.20    11200.00
02221              -0.60    11000.00
02222               1.00    10800.00
02223              -0.60    10800.00
02224              -1.00    10800.00
02225               0.40    10400.00
02226               0.20    10400.00
02227              -1.20    10000.00
02228               0.40    10000.00
02229               0.00     9800.00
02230              -1.20     9600.00
02231              -0.20     9400.00
02232               0.20     9400.00
02233              -1.00     9200.00
02234              -0.40     9000.00
02235               0.20     8800.00
02236              -0.60     8800.00
02237              -0.60     8400.00
02238               0.40     8600.00
02239              -0.60     8400.00
02240              -0.60     8000.00
02241              -0.40     7800.00
02242              -0.60     7800.00
02243              -0.40     7600.00
02244               0.00     7200.00
02245               0.00     7000.00
02246              -0.60     7000.00
02247              -1.20     6800.00
02248              -1.00     6600.00
02249              -0.40     6400.00
02250              -0.40     6400.00
02251              -0.60     6200.00
02252               0.00     6000.00
02253              -0.20     5600.00
02254              -1.00     5600.00
02255              -0.80     5400.00
02256              -0.40     5000.00
02257              -0.60     4800.00
02258              -0.20     4800.00
02259              -0.20     4600.00
02260              -0.40     4400.00
02261              -0.20     4000.00
02262               0.20     3800.00
02263              -0.60     3800.00
02264              -1.00     3600.00
02265              -0.40     3400.00
02266               0.00     3200.00
02267              -0.80     3000.00
02268              -0.20     3000.00
02269               0.20     2400.00
02270              -0.20     2200.00
02271              -0.40     2000.00
02272              -0.40     2000.00
02273              -0.60     1800.00
02274              -0.40     1600.00
02275               0.00     1400.00
02276              -0.40     1000.00
02277              -0.20      800.00
02278               0.20      600.00
02279              -0.60      400.00
02280              -0.60        0.00
02281               0.20        0.00
02282              -0.40     -200.00
02283               0.20     -400.00
02284               2.00     -400.00
02285               0.60     -800.00
02286              -1.80    -1000.00
02287               0.20    -1200.00
02288               0.60    -1600.00
02289              -1.00    -1600.00
02290               2.80    -1800.00
02291              25.00    -2000.00
02292              -5.40    -2600.00
02293             -25.00    -2600.00
02294              -3.80    -2800.00
02295               8.20    -2600.00
02296              25.00    -3000.00
02297              -9.80    -3400.00
02298             -25.00    -3200.00
02299              25.00    -3600.00
02300              25.00    -4200.00
02301             -25.00    -3800.00
02302              25.00    -4200.00
02303              25.00    -4600.00
02304             -25.00    -4400.00
02305              25.00    -4800.00
02306              25.00    -4600.00
02307             -25.00    -5200.00
02308              11.00    -5600.00
02309             -25.00    -5600.00
02310              25.00    -6000.00
02311              -8.00    -6000.00
02312             -25.00    -6200.00
02313              25.00    -6600.00
02314               2.60    -6600.00
02315             -25.00    -6800.00
02316               9.00    -7200.00
02317              25.00    -7200.00
02318             -13.80    -7600.00
02319             -25.00    -7400.00
02320              25.00    -8000.00
02321               4.60    -7800.00
02322             -25.00    -8200.00
02323              25.00    -8200.00
02324              15.60    -8400.00
02325             -23.40    -8800.00
02326             -10.00    -8800.00
02327              25.00    -9000.00
02328             -11.80    -9000.00
02329             -18.00    -9200.00
02330              23.60    -9400.00
02331              -3.80    -9600.00
02332             -12.00    -9800.00
02333               3.00   -10000.00
02334              10.00   -10000.00
02335              -7.60   -10200.00
02336              -4.60   -10200.00
02337               9.40   -10400.00
02338              -0.60   -10600.00
02339              -7.60   -10600.00
02340               2.60   -10800.00
02341               6.80   -11000.00
02342              -9.60   -11000.00
02343               1.80   -11200.00
02344               6.80   -11400.00
02345              -6.00   -11400.00
02346              -2.00   -11800.00
02347               5.80   -11800.00
02348              -1.40   -12000.00
02349              -7.00   -12000.00
02350               6.60   -12000.00
02351               1.40   -12200.00
02352              -6.00   -12400.00
02353               2.60   -12400.00
02354               3.40   -12600.00
02355              -4.60   -12800.00
02356              -1.20   -12800.00
02357               4.20   -13000.00
02358              -1.40   -13000.00
02359              -3.40   -13000.00
02360               2.00   -13000.00
02361               2.20   -13200.00
02362              -4.20   -13200.00
02363              -0.40   -13200.00
02364               2.80   -13600.00
02365              -1.40   -13600.00
02366              -2.00   -13600.00
02367               1.00   -13600.00
02368               0.80   -13600.00
02369              -2.80   -13600.00
02370               0.40   -13800.00
02371               1.40   -13800.00
02372              -2.60   -13800.00
02373              -0.60   -14000.00
02374               1.40   -14000.00
02375              -0.60   -14000.00
02376              -1.80   -14200.00
02377               0.40   -14000.00
02378               1.00   -14200.00
02379              -1.20   -14200.00
02380              -1.20   -14400.00
02381               0.40   -14400.00
02382              -0.40   -14000.00
02383              -0.80   -14400.00
02384              -0.20   -14200.00
02385               0.20   -14400.00
02386              -1.00   -14400.00
02387              -0.60   -14400.00
02388               0.40   -14400.00
02389              -0.60   -14400.00
02390              -0.60   -14400.00
02391               0.20   -14400.00
02392              -0.60   -14400.00
02393              -0.60   -14400.00
02394              -0.20   -14200.00
02395              -0.40   -14000.00
02396              -0.40   -14400.00
02397               0.20   -14000.00
02398               0.00   -14000.00
02399              -0.60   -14000.00
02400              -0.40   -14000.00
02401              -0.20   -14000.00
02402              -0.20   -14000.00
02403              -0.20   -13800.00
02404              -0.40   -13800.00
02405              -0.20   -13800.00
02406              -0.40   -13600.00
02407              -0.40   -13800.00
02408              -0.60   -13600.00
02409              -0.60   -13600.00
02410               0.40   -13400.00
02411              -0.40   -13400.00
02412              -0.80   -13400.00
02413               0.40   -13200.00
02414              -0.60   -13200.00
02415              -0.60   -13000.00
02416               0.40   -12800.00
02417              -0.60   -13000.00
02418              -0.60   -12800.00
02419               0.60   -12800.00
02420              -0.20   -12800.00
02421              -1.00   -12600.00
02422              -0.40   -12400.00
02423               0.20   -12400.00
02424              -1.00   -12400.00
02425              -0.20   -12000.00
02426              -0.20   -12200.00
02427              -0.80   -12000.00
02428              -0.40   -11800.00
02429               0.40   -11600.00
02430              -0.60   -11600.00
02431              -0.80   -11400.00
02432              -0.40   -11400.00
02433               0.40   -11400.00
02434              -1.60   -11000.00
02435              -0.40   -10800.00
02436              -0.40   -10800.00
02437              -0.60   -10800.00
02438              -0.60   -10600.00
02439               0.20   -10400.00
02440              -0.80   -10400.00
02441              -0.60   -10000.00
02442               0.20    -9800.00
02443              -0.20   -10000.00
02444              -0.60    -9600.00
02445              -0.40    -9600.00
02446              -0.40    -9200.00
02447              -0.60    -9200.00
02448              -0.60    -9000.00
02449              -0.60    -9000.00
02450              -0.40    -8800.00
02451              -0.40    -8400.00
02452              -0.40    -8400.00
02453              -0.40    -8200.00
02454              -0.40    -8000.00
02455              -0.60    -7600.00
02456              -0.20    -7600.00
02457              -0.40    -7400.00
02458              -0.60    -7400.00
02459              -0.40    -7200.00
02460              -0.60    -6800.00
02461              -0.20    -6800.00
02462              -0.20    -6600.00
02463              -1.00    -6400.00
02464              -1.00    -6200.00
02465               0.40    -6000.00
02466              -0.60    -5800.00
02467              -1.00    -5600.00
02468               0.40    -5400.00
02469              -0.20    -5200.00
02470              -0.80    -5000.00
02471               0.20    -4600.00
02472              -0.20    -4600.00
02473              -0.60    -4400.00
02474              -0.20    -4200.00
02475               0.20    -4000.00
02476              -0.60    -3800.00
02477              -0.60    -3600.00
02478               0.20    -3400.00
02479              -0.20    -3200.00
02480              -0.60    -3000.00
02481              -0.40    -2800.00
02482              -0.20    -2600.00
02483              -0.40    -2400.00
02484              -0.40    -2000.00
02485               0.20    -2000.00
02486              -0.40    -2000.00
02487              -0.60    -1600.00
02488               0.20    -1400.00
02489              -0.40    -1200.00
02490              -0.60    -1000.00
02491              -0.40     -800.00
02492              -0.40     -600.00
02493              -0.40     -400.00
02494              -0.20     -200.00
02495              -0.60        0.00
02496              -0.40      200.00
02497               0.60      400.00
02498               1.80      600.00
02499              -1.20      800.00
02500              -0.80     1000.00
02501               0.60     1200.00
02502               0.20     1400.00
02503              -0.60     1600.00
02504               2.60     1800.00
02505              15.80     2200.00
02506               9.20     2400.00
02507             -25.00     2400.00
02508             -15.60     2800.00
02509               7.60     2800.00
02510               6.20     3200.00
02511              25.00     3400.00
02512             -25.00     3200.00
02513             -22.80     3800.00
02514              25.00     3800.00
02515             -25.00     3800.00
02516             -25.00     4400.00
02517              25.00     4400.00
02518             -14.20     4600.00
02519             -25.00     5000.00
02520              25.00     5200.00
02521              -4.40     5400.00
02522             -13.40     5600.00
02523              -1.40     5600.00
02524               8.20     5800.00
02525              11.20     6000.00
02526             -25.00     6200.00
02527               5.20     6400.00
02528              25.00     6800.00
02529             -15.00     7000.00
02530             -23.40     7000.00
02531              17.40     7200.00
02532              20.60     7200.00
02533             -25.00     7600.00
02534              -2.80     7600.00
02535              25.00     7800.00
02536             -18.00     8200.00
02537             -15.80     8400.00
02538              25.00     8200.00
02539              -2.60     8600.00
02540             -24.40     8800.00
02541              17.20     9000.00
02542              10.00     9200.00
02543             -20.40     9200.00
02544               6.00     9400.00
02545              12.40     9600.00
02546             -10.80     9600.00
02547              -5.20    10000.00
02548               7.80    10000.00
02549               0.60    10200.00
02550              -5.40    10400.00
02551               0.60    10400.00
02552               5.00    10600.00
02553              -2.60    10600.00
02554              -5.20    10800.00
02555               5.00    11000.00
02556               0.40    11000.00
02557              -6.60    11200.00
02558               3.60    11200.00
02559               2.80    11400.00
02560              -6.20    11800.00
02561               0.40    11800.00
02562               4.40    12000.00
02563              -4.60    12000.00
02564              -2.00    12000.00
02565               5.20    12400.00
02566              -2.00    12400.00
02567              -3.20    12600.00
02568               2.80    12600.00
02569              -0.60    12600.00
02570              -3.00    12800.00
02571               1.00    12800.00
02572               1.00    13000.00
02573              -2.20    13000.00
02574              -0.60    13200.00
02575               1.40    13200.00
02576              -1.00    13400.00
02577              -2.20    13400.00
02578               1.00    13400.00
02579               0.80    13600.00
02580              -1.80    13600.00
02581              -0.60    13600.00
02582               1.20    13600.00
02583              -0.60    13800.00
02584              -1.20    13800.00
02585               1.00    13800.00
02586              -0.60    14000.00
02587              -1.20    14000.00
02588               0.20    14000.00
02589               0.00    14000.00
02590              -0.80    14200.00
02591              -0.40    14000.00
02592               0.20    14200.00
02593              -0.40    14200.00
02594              -0.40    14000.00
02595              -0.20    14200.00
02596              -0.20    14200.00
02597              -0.20    14200.00
02598               0.20    14200.00
02599               0.00    14200.00
02600              -0.40    14200.00
02601               0.00    14400.00
02602              -0.20    14400.00
02603              -0.20    14200.00
02604              -0.60    14200.00
02605              -0.40    14200.00
02606               0.40    14400.00
02607               0.20    14200.00
02608              -0.60    14200.00
02609               0.20    14000.00
02610               0.20    14200.00
02611              -0.60    14200.00
02612               0.40    14200.00
02613               0.20    14200.00
02614              -1.00    14000.00
02615               0.20    14000.00
02616               0.40    14000.00
02617              -0.20    14000.00
02618              -1.00    13800.00
02619              -0.40    13800.00
02620              -0.60    13600.00
02621              -0.20    13600.00
02622              -0.80    13600.00
02623               0.20    13600.00
02624              -0.60    13400.00
02625              -0.60    13200.00
02626               0.20    13400.00
02627              -0.60    13200.00
02628              -0.80    13200.00
02629               0.20    13200.00
02630              -0.40    13000.00
02631              -0.60    12800.00
02632              -0.40    12800.00
02633              -0.40    12800.00
02634              -0.40    12600.00
02635              -0.40    12600.00
02636              -0.60    12400.00
02637              -0.40    12400.00
02638              -0.40    12200.00
02639              -0.40    12000.00
02640              -0.60    12000.00
02641              -0.40    11800.00
02642              -0.40    11800.00
02643              -0.20    11600.00
02644              -0.20    11600.00
02645              -0.80    11400.00
02646              -0.40    11200.00
02647               0.00    11200.00
02648              -0.60    11000.00
02649              -0.40    10800.00
02650               0.00    10800.00
02651              -0.80    10600.00
02652              -0.40    10400.00
02653               0.20    10400.00
02654              -0.60    10200.00
02655              -0.60    10000.00
02656              -0.20    10000.00
02657               0.20     9600.00
02658              -0.40     9600.00
02659              -0.40     9400.00
02660               0.00     9200.00
02661              -0.20     9200.00
02662              -0.60     8800.00
02663               0.20     8800.00
02664              -0.40     8600.00
02665              -0.60     8400.00
02666               0.20     8400.00
02667              -0.20     8200.00
02668              -0.40     8000.00
02669              -0.40     7800.00
02670               0.20     7600.00
02671              -0.20     7400.00
02672              -0.60     7200.00
02673               0.20     7000.00
02674               0.20     7000.00
02675              -0.40     6800.00
02676              -0.60     6600.00
02677              -0.20     6200.00
02678              -0.20     6200.00
02679              -0.60     6000.00
02680              -0.20     5600.00
02681               0.20     5400.00
02682              -0.40     5400.00
02683              -0.80     5000.00
02684              -0.40     5000.00
02685              -0.20     4800.00
02686              -0.60     4600.00
02687              -0.60     4400.00
02688              -0.40     4000.00
02689              -0.40     4000.00
02690              -0.40     3800.00
02691              -0.40     3600.00
02692              -0.60     3600.00
02693              -0.40     3000.00
02694               0.00     3000.00
02695              -0.60     2800.00
02696              -0.80     2600.00
02697               0.20     2400.00
02698              -0.20     2200.00
02699              -0.60     2000.00
02700              -0.40     2000.00
02701              -0.20     1400.00
02702              -0.60     1400.00
02703              -0.40     1200.00
02704              -0.60      800.00
02705              -0.60      600.00
02706              -0.40      600.00
02707              -0.20      200.00
02708              -0.20        0.00
02709              -0.40     -200.00
02710              -0.60     -400.00
02711               1.20     -400.00
02712               1.40     -800.00
02713              -2.00    -1000.00
02714              -1.00    -1200.00
02715               1.80    -1200.00
02716              -0.20    -1600.00
02717               0.20    -1800.00
02718              18.00    -2000.00
02719              16.20    -2400.00
02720             -25.00    -2600.00
02721             -18.40    -2800.00
02722               7.00    -2800.00
02723              25.00    -2800.00
02724              25.00    -3400.00
02725             -25.00    -3000.00
02726              25.00    -3400.00
02727              25.00    -4000.00
02728             -25.00    -3800.00
02729             -25.00    -4200.00
02730              25.00    -4600.00
02731             -25.00    -4400.00
02732             -25.00    -4800.00
02733              25.00    -4800.00
02734             -25.00    -4800.00
02735               8.20    -5600.00
02736             -21.20    -5200.00
02737              19.60    -5800.00
02738              25.00    -6000.00
02739             -25.00    -6000.00
02740              25.00    -6600.00
02741              25.00    -6400.00
02742             -25.00    -6800.00
02743              -5.60    -7200.00
02744              25.00    -7000.00
02745              11.40    -7400.00
02746             -25.00    -7400.00
02747              25.00    -7800.00
02748              25.00    -8000.00
02749             -25.00    -8000.00
02750               8.20    -8400.00
02751              25.00    -8400.00
02752             -15.40    -8800.00
02753             -22.60    -8800.00
02754              23.60    -9000.00
02755               8.20    -9000.00
02756             -25.00    -9000.00
02757              17.00    -9400.00
02758               7.40    -9600.00
02759             -14.00    -9600.00
02760              -1.80    -9800.00
02761               9.20   -10000.00
02762              -1.40   -10000.00
02763              -9.40   -10200.00
02764               7.40   -10400.00
02765               3.40   -10600.00
02766              -7.00   -10600.00
02767              -2.20   -10800.00
02768               8.60   -11000.00
02769              -6.40   -11000.00
02770              -3.80   -11200.00
02771               8.60   -11000.00
02772              -4.20   -11600.00
02773              -4.80   -11600.00
02774               4.40   -11800.00
02775               2.20   -12000.00
02776              -8.20   -12000.00
02777               2.20   -12000.00
02778               5.40   -12200.00
02779              -5.40   -12400.00
02780              -1.80   -12400.00
02781               4.60   -12400.00
02782              -1.80   -12800.00
02783              -4.60   -12800.00
02784               3.60   -12800.00
02785               1.80   -12800.00
02786              -4.40   -13000.00
02787               0.20   -13200.00
02788               3.60   -13200.00
02789              -3.60   -13200.00
02790              -2.20   -13200.00
02791               3.60   -13400.00
02792              -0.60   -13600.00
02793              -2.40   -13600.00
02794               1.00   -13600.00
02795               1.80   -13800.00
02796              -2.80   -13600.00
02797              -0.60   -13800.00
02798               3.00   -13800.00
02799              -2.00   -13800.00
02800              -1.80   -14000.00
02801               2.20   -14000.00
02802              -0.40   -14000.00
02803              -1.80   -14000.00
02804               0.60   -14000.00
02805               0.60   -14200.00
02806              -0.60   -14200.00
02807              -0.60   -14200.00
02808               0.20   -14400.00
02809              -0.40   -14000.00
02810               0.40   -14400.00
02811               0.00   -14200.00
02812              -0.40   -14400.00
02813               0.00   -14200.00
02814              -0.60   -14400.00
02815              -0.20   -14400.00
02816              -0.20   -14400.00
02817              -0.20   -14400.00
02818              -0.40   -14400.00
02819              -0.40   -14200.00
02820              -0.40   -14400.00
02821              -0.60   -14200.00
02822              -0.80   -14400.00
02823              -0.20   -14400.00
02824               0.20   -14200.00
02825              -0.20   -14200.00
02826              -1.00   -14000.00
02827              -0.40   -14000.00
02828               0.00   -14000.00
02829              -0.40   -13800.00
02830              -0.20   -13800.00
02831              -0.40   -13800.00
02832              -0.40   -13800.00
02833              -0.60   -13800.00
02834              -0.20   -13800.00
02835              -0.20   -13600.00
02836              -1.20   -13600.00
02837               0.20   -13600.00
02838               0.60   -13400.00
02839              -1.00   -13200.00
02840              -1.20   -13200.00
02841               0.20   -13200.00
02842               0.20   -13000.00
02843              -1.00   -13000.00
02844               0.00   -13000.00
02845               0.20   -13000.00
02846              -0.60   -12800.00
02847              -0.40   -12600.00
02848              -0.20   -12600.00
02849              -1.20   -12600.00
02850               0.60   -12400.00
02851               0.40   -12200.00
02852              -2.20   -12200.00
02853              -0.20   -12000.00
02854               2.20   -12000.00
02855              -1.80   -12000.00
02856              -2.20   -11600.00
02857               2.00   -11600.00
02858               0.60   -11600.00
02859              -2.60   -11400.00
02860               0.40   -11000.00
02861               0.40   -11200.00
02862              -0.60   -11000.00
02863              -1.20   -10800.00
02864               0.20   -10600.00
02865              -0.20   -10600.00
02866              -0.20   -10400.00
02867              -0.60   -10200.00
02868               0.20   -10200.00
02869              -0.40   -10000.00
02870               0.20    -9800.00
02871              -0.20    -9600.00
02872              -0.60    -9600.00
02873              -1.00    -9400.00
02874               1.20    -9200.00
02875              -0.40    -9000.00
02876              -1.00    -8800.00
02877               0.40    -9000.00
02878              -0.60    -8600.00
02879              -1.00    -8400.00
02880               0.20    -8400.00
02881              -0.40    -8000.00
02882              -0.40    -8000.00
02883              -0.80    -7600.00
02884              -0.60    -7600.00
02885               0.60    -7400.00
02886              -0.60    -7200.00
02887              -1.00    -7000.00
02888               0.40    -6800.00
02889              -1.40    -6600.00
02890              -1.20    -6400.00
02891               0.60    -6200.00
02892              -0.60    -6000.00
02893              -0.60    -6000.00
02894               0.20    -5800.00
02895              -0.60    -5600.00
02896              -1.00    -5400.00
02897              -0.20    -5000.00
02898              -0.20    -5000.00
02899              -0.60    -4600.00
02900              -0.60    -4400.00
02901              -0.20    -4400.00
02902              -0.80    -4200.00
02903              -0.60    -4000.00
02904              -0.40    -3600.00
02905              -0.60    -3600.00
02906               0.00    -3200.00
02907              -0.60    -3200.00
02908              -1.00    -3000.00
02909              -0.20    -2800.00
02910              -0.40    -2400.00
02911              -1.20    -2400.00
02912               0.00    -2200.00
02913              -0.20    -2000.00
02914              -1.20    -1800.00
02915              -0.20    -1600.00
02916               0.40    -1200.00
02917              -0.80    -1000.00
02918              -0.60     -800.00
02919               0.20     -800.00
02920              -0.20     -400.00
02921              -0.40     -200.00
02922               0.00        0.00
02923              -0.40        0.00
02924               0.40      400.00
02925               1.80      400.00
02926              -0.40      600.00
02927              -1.60      800.00
02928               0.60     1200.00
02929               1.00     1400.00
02930              -0.60     1800.00
02931               1.20     1800.00
02932              10.80     2000.00
02933              18.20     2400.00
02934             -24.40     2800.00
02935             -25.00     2800.00
02936               7.40     2800.00
02937               4.20     3000.00
02938              25.00     3200.00
02939             -17.00     3400.00
02940             -25.00     3600.00
02941              25.00     4000.00
02942              25.00     3800.00
02943             -25.00     4200.00
02944              25.00     4400.00
02945              25.00     4400.00
02946             -25.00     4800.00
02947              25.00     5200.00
02948              17.00     5200.00
02949             -21.20     5600.00
02950              -1.00     5600.00
02951               1.40     5800.00
02952              17.00     6000.00
02953             -21.00     6200.00
02954             -11.40     6600.00
02955              25.00     6600.00
02956              -1.40     6800.00
02957             -25.00     7000.00
02958               3.40     7000.00
02959              25.00     7200.00
02960             -20.20     7600.00
02961             -22.80     7800.00
02962              25.00     7800.00
02963              -0.20     8200.00
02964             -25.00     8400.00
02965              17.80     8400.00
02966              12.20     8600.00
02967             -25.00     8800.00
02968               4.40     9000.00
02969              20.60     9200.00
02970             -17.00     9400.00
02971              -5.20     9400.00
02972              15.00     9600.00
02973              -5.00     9800.00
02974              -8.80    10000.00
02975               4.20    10000.00
02976               4.20    10200.00
02977              -4.40    10200.00
02978              -2.20    10400.00
02979               3.80    10600.00
02980               0.80    10800.00
02981              -5.80    10800.00
02982               1.80    11000.00
02983               3.80    11000.00
02984              -6.20    11200.00
02985               1.20    11400.00
02986               5.20    11600.00
02987              -4.60    11600.00
02988              -2.60    11800.00
02989               5.00    12000.00
02990              -2.20    12000.00
02991              -4.60    12200.00
02992               4.60    12400.00
02993               1.00    12400.00
02994              -4.20    12600.00
02995               1.80    12600.00
02996               1.80    12800.00
02997              -2.80    12800.00
02998               0.00    12800.00
02999               2.20    13000.00
03000              -0.60    13200.00
03001              -1.80    13000.00
03002               1.20    13200.00
03003               0.60    13200.00
03004              -2.20    13200.00
03005              -0.60    13400.00
03006               2.00    13600.00
03007              -0.60    13600.00
03008              -1.80    13600.00
03009               1.20    13600.00
03010               0.20    13800.00
03011              -2.00    13600.00
03012               0.80    13800.00
03013              -0.20    13800.00
03014              -1.40    14000.00
03015               0.20    14000.00
03016               1.00    14200.00
03017              -0.40    14000.00
03018              -1.80    14000.00
03019              -0.20    14200.00
03020               0.20    14200.00
03021              -1.20    14200.00
03022               0.20    14000.00
03023               0.40    14400.00
03024              -0.20    14200.00
03025              -0.40    14200.00
03026              -0.60    14200.00
03027              -0.60    14200.00
03028              -0.20    14200.00
03029               0.20    14200.00
03030              -0.60    14200.00
03031              -0.40    14600.00
03032               0.00    14200.00
03033              -1.00    14200.00
03034              -0.40    14200.00
03035               0.40    14200.00
03036              -0.60    14200.00
03037              -0.40    14200.00
03038               0.20    14200.00
03039              -0.40    14200.00
03040              -1.00    14000.00
03041              -0.20    14000.00
03042               0.20    14200.00
03043              -0.20    14000.00
03044               0.20    14000.00
03045              -0.20    14000.00
03046              -0.60    14000.00
03047              -0.60    13600.00
03048               0.40    13600.00
03049              -0.80    13600.00
03050              -0.20    13600.00
03051              -0.40    13600.00
03052              -0.20    13400.00
03053              -0.20    13400.00
03054              -0.20    13200.00
03055              -0.60    13200.00
03056               0.20    13200.00
03057              -0.20    13000.00
03058              -0.40    12800.00
03059              -0.20    12800.00
03060              -0.40    12800.00
03061              -0.20    12800.00
03062              -0.20    12600.00
03063               0.20    12400.00
03064              -0.60    12400.00
03065              -0.40    12400.00
03066               0.20    12200.00
03067              -0.40    12200.00
03068              -0.40    12000.00
03069              -0.20    12000.00
03070              -0.20    11800.00
03071              -0.60    11600.00
03072              -0.40    11200.00
03073              -0.40    11200.00
03074              -0.40    11200.00
03075              -0.40    11000.00
03076               0.00    11000.00
03077              -0.40    10800.00
03078              -0.60    10600.00
03079              -0.20    10400.00
03080               0.00    10400.00
03081              -0.80    10200.00
03082              -0.20    10200.00
03083              -0.40    10000.00
03084              -0.60     9800.00
03085              -0.60     9600.00
03086              -0.40     9400.00
03087              -0.60     9400.00
03088              -0.40     9200.00
03089              -0.40     9000.00
03090              -0.40     8800.00
03091              -0.40     8600.00
03092              -0.40     8400.00
03093              -0.40     8400.00
03094              -0.40     8000.00
03095              -0.40     8200.00
03096              -0.40     7800.00
03097              -0.60     7800.00
03098               0.20     7600.00
03099              -0.40     7200.00
03100              -1.20     7200.00
03101              -0.20     6800.00
03102               0.20     6800.00
03103              -0.60     6400.00
03104              -0.40     6400.00
03105              -0.20     6200.00
03106              -0.40     6200.00
03107              -0.60     5800.00
03108               0.20     5600.00
03109              -0.60     5400.00
03110              -0.60     5400.00
03111               0.00     5000.00
03112              -0.40     4800.00
03113              -0.40     4800.00
03114              -0.20     4400.00
03115              -0.60     4200.00
03116              -0.40     4200.00
03117               0.20     3800.00
03118              -0.40     3600.00
03119              -0.60     3400.00
03120               0.20     3200.00
03121              -0.40     3200.00
03122              -0.60     2800.00
03123               0.20     2800.00
03124              -0.40     2400.00
03125              -0.60     2200.00
03126               0.40     2000.00
03127               0.40     2000.00
03128              -1.00     1800.00
03129              -0.40     1600.00
03130               0.20     1200.00
03131              -0.40     1000.00
03132              -0.60      800.00
03133              -0.20      600.00
03134               0.20      400.00
03135              -0.40      200.00
03136               0.20        0.00
03137              -0.20     -200.00
03138               1.00     -400.00
03139               1.20     -800.00
03140              -0.60     -800.00
03141              -0.80    -1000.00
03142               0.60    -1200.00
03143              -0.20    -1600.00
03144              -0.60    -1800.00
03145               8.60    -1800.00
03146              25.00    -2400.00
03147             -25.00    -2600.00
03148             -25.00    -2800.00
03149               5.20    -2800.00
03150              22.80    -2600.00
03151              25.00    -3400.00
03152             -25.00    -3200.00
03153             -25.00    -3200.00
03154              25.00    -4000.00
03155             -17.20    -3800.00
03156             -25.00    -4000.00
03157              25.00    -4600.00
03158              25.00    -4200.00
03159             -25.00    -4600.00
03160              25.00    -4800.00
03161             -15.00    -4800.00
03162             -11.40    -5400.00
03163              -4.60    -5600.00
03164              -9.20    -5600.00
03165              25.00    -6000.00
03166             -25.00    -6000.00
03167              -7.20    -6400.00
03168              25.00    -6600.00
03169             -25.00    -6600.00
03170             -23.00    -7200.00
03171              22.80    -6800.00
03172              25.00    -7200.00
03173             -25.00    -7400.00
03174             -10.00    -7600.00
03175              25.00    -8000.00
03176             -25.00    -8000.00
03177             -17.40    -8200.00
03178              25.00    -8200.00
03179              -3.00    -8400.00
03180             -25.00    -8800.00
03181              10.20    -8800.00
03182              24.60    -9000.00
03183             -25.00    -9000.00
03184               2.80    -9200.00
03185              18.60    -9400.00
03186             -12.80    -9600.00
03187              -6.00    -9800.00
03188               7.40    -9800.00
03189               4.40   -10000.00
03190             -10.60   -10000.00
03191               2.80   -10400.00
03192               7.00   -10600.00
03193              -4.80   -10600.00
03194              -6.00   -10800.00
03195               7.60   -10800.00
03196               0.40   -11000.00
03197              -8.60   -11200.00
03198               8.20   -11400.00
03199               1.00   -11400.00
03200              -6.80   -11600.00
03201               2.00   -11800.00
03202               5.20   -11600.00
03203              -6.00   -12000.00
03204              -1.80   -12000.00
03205               7.20   -12200.00
03206              -3.80   -12200.00
03207              -3.60   -12400.00
03208               3.60   -12400.00
03209              -0.20   -12600.00
03210              -4.40   -12800.00
03211               2.60   -12800.00
03212               2.60   -12800.00
03213              -3.00   -13000.00
03214              -1.40   -13000.00
03215               3.00   -13200.00
03216              -1.20   -13200.00
03217              -3.80   -13400.00
03218               2.80   -13200.00
03219               1.00   -13400.00
03220              -2.20   -13600.00
03221              -0.20   -13600.00
03222               1.20   -13800.00
03223              -1.40   -13800.00
03224              -2.20   -13800.00
03225               1.80   -13800.00
03226              -0.20   -13800.00
03227              -1.80   -14000.00
03228               1.00   -13800.00
03229               0.80   -14000.00
03230              -1.80   -14000.00
03231              -1.60   -14000.00
03232               0.60   -14000.00
03233               0.20   -14000.00
03234              -1.20   -14200.00
03235               0.20   -14200.00
03236              -0.20   -14400.00
03237              -0.60   -14000.00
03238              -0.40   -14400.00
03239              -0.60   -14200.00
03240              -0.20   -14400.00
03241              -0.60   -14200.00
03242              -0.40   -14400.00
03243               0.20   -14400.00
03244              -0.40   -14400.00
03245              -0.60   -14400.00
03246              -0.40   -14200.00
03247               0.20   -14400.00
03248              -0.20   -14200.00
03249              -0.20   -14400.00
03250              -0.20   -14400.00
03251              -0.40   -14200.00
03252              -0.40   -14000.00
03253              -0.60   -14000.00
03254              -0.20   -14000.00
03255               0.20   -14000.00
03256              -0.40   -14000.00
03257              -0.40   -13800.00
03258              -0.40   -13800.00
03259              -0.40   -13800.00
03260              -0.40   -13800.00
03261               0.00   -13600.00
03262              -0.20   -13600.00
03263              -0.40   -13600.00
03264              -0.20   -13600.00
03265               0.40   -13600.00
03266              -0.40   -13200.00
03267              -0.80   -13400.00
03268              -0.20   -13200.00
03269               0.20   -13200.00
03270              -0.20   -13200.00
03271              -0.20   -13000.00
03272              -0.20   -13000.00
03273              -0.40   -12800.00
03274              -0.60   -12800.00
03275              -0.40   -12600.00
03276              -0.40   -12600.00
03277              -0.40   -12400.00
03278              -0.40   -12400.00
03279               0.00   -12200.00
03280              -0.60   -12000.00
03281              -1.00   -12000.00
03282              -0.20   -11800.00
03283              -0.40   -12000.00
03284              -0.60   -11600.00
03285              -0.20   -11600.00
03286              -0.60   -11400.00
03287              -0.20   -11400.00
03288               0.40   -11200.00
03289              -1.80   -11000.00
03290              -0.20   -10800.00
03291              -0.40   -10800.00
03292              -0.40   -10600.00
03293              -0.40   -10400.00
03294              -0.20   -10200.00
03295              -1.00   -10200.00
03296              -0.20   -10000.00
03297              -0.40    -9800.00
03298              -0.60    -9800.00
03299              -0.60    -9600.00
03300              -1.00    -9400.00
03301              -0.20    -9200.00
03302              -0.20    -9200.00
03303              -0.40    -8800.00
03304              -0.60    -8800.00
03305              -0.20    -8400.00
03306              -0.40    -8400.00
03307              -0.20    -8200.00
03308              -0.40    -8200.00
03309              -0.60    -8000.00
03310              -0.20    -7800.00
03311              -0.40    -7600.00
03312              -0.40    -7400.00
03313              -0.40    -7200.00
03314              -0.40    -6800.00
03315              -0.20    -6800.00
03316              -0.40    -6600.00
03317              -0.40    -6600.00
03318              -0.20    -6200.00
03319              -0.60    -6000.00
03320              -0.20    -6000.00
03321              -0.40    -5800.00
03322              -0.40    -5800.00
03323              -0.20    -5200.00
03324              -0.40    -5200.00
03325              -0.20    -5000.00
03326              -0.60    -4600.00
03327              -0.60    -4400.00
03328              -0.20    -4400.00
03329               0.20    -4200.00
03330              -0.40    -4000.00
03331              -0.20    -3800.00
03332              -0.20    -3600.00
03333              -0.60    -3400.00
03334              -0.40    -3200.00
03335              -0.60    -3000.00
03336              -0.40    -2800.00
03337              -0.20    -2600.00
03338              -0.60    -2400.00
03339              -0.60    -2000.00
03340               0.00    -2000.00
03341              -0.60    -1800.00
03342              -1.20    -1600.00
03343               0.60    -1400.00
03344               0.40    -1200.00
03345              -2.00    -1000.00
03346              -0.80     -800.00
03347               0.60     -400.00
03348              -1.00     -200.00
03349              -0.80     -200.00
03350               0.60      200.00
03351              -0.40      400.00
03352               0.20      600.00
03353               1.80      800.00
03354              -1.20      800.00
03355              -1.00     1000.00
03356               1.80     1200.00
03357               0.20     1400.00
03358              -1.00     1800.00
03359               5.20     2000.00
03360              20.40     2200.00
03361              -9.60     2400.00
03362             -25.00     2600.00
03363               1.80     2800.00
03364               5.40     2800.00
03365              23.00     3200.00
03366              17.20     3200.00
03367             -25.00     3600.00
03368              25.00     3800.00
03369              25.00     3800.00
03370             -25.00     4000.00
03371               7.80     4400.00
03372              25.00     4400.00
03373             -25.00     4800.00
03374              -1.80     5200.00
03375              25.00     5200.00
03376             -20.40     5400.00
03377              -3.80     5600.00
03378              -0.60     6000.00
03379              16.20     5800.00
03380              -4.40     6200.00
03381             -25.00     6400.00
03382              23.60     6600.00
03383              15.40     6800.00
03384             -25.00     7000.00
03385             -10.20     7000.00
03386              25.00     7200.00
03387              -0.60     7600.00
03388             -25.00     7600.00
03389              21.80     7800.00
03390              19.60     8200.00
03391             -25.00     8200.00
03392               3.80     8400.00
03393              23.00     8600.00
03394             -18.80     8600.00
03395             -10.80     8800.00
03396              24.40     9000.00
03397              -7.00     9200.00
03398             -15.40     9200.00
03399              15.40     9400.00
03400               3.40     9600.00
03401             -12.40     9800.00
03402               1.00    10000.00
03403               7.40    10000.00
03404              -3.60    10200.00
03405              -4.40    10400.00
03406               3.60    10400.00
03407               2.80    10800.00
03408              -6.00    10800.00
03409              -1.80    11000.00
03410               5.80    11000.00
03411              -4.60    11200.00
03412              -2.80    11200.00
03413               6.00    11600.00
03414              -2.00    11600.00
03415              -5.00    11800.00
03416               3.80    11800.00
03417               1.00    12000.00
03418              -5.40    12000.00
03419               2.00    12200.00
03420               2.60    12200.00
03421              -3.60    12400.00
03422              -1.20    12600.00
03423               2.60    12600.00
03424              -2.00    12800.00
03425              -1.80    12800.00
03426               1.80    12800.00
03427              -0.20    13200.00
03428              -1.80    13200.00
03429               0.20    13200.00
03430               1.00    13200.00
03431              -1.40    13200.00
03432              -1.20    13400.00
03433               0.60    13600.00
03434              -0.40    13400.00
03435              -1.00    13600.00
03436              -0.60    13600.00
03437               0.80    13600.00
03438              -0.80    13800.00
03439              -0.60    14000.00
03440               0.40    13800.00
03441              -0.60    14000.00
03442              -0.80    14000.00
03443               0.40    14000.00
03444               0.20    14000.00
03445              -0.60    14000.00
03446              -0.40    14200.00
03447               0.60    14200.00
03448               0.40    14600.00
03449              -0.80    14200.00
03450              -1.20    14200.00
03451               0.40    14200.00
03452               1.20    14200.00
03453              -1.40    14600.00
03454              -1.00    14400.00
03455               1.20    14400.00
03456               0.00    14200.00
03457              -0.40    14200.00
03458               0.20    14200.00
03459              -0.80    14200.00
03460              -0.40    14200.00
03461              -0.20    14400.00
03462               0.20    14600.00
03463               0.20    14200.00
03464               0.20    14200.00
03465              -0.60    14200.00
03466              -0.40    14200.00
03467              -0.60    14000.00
03468              -0.60    14000.00
03469              -0.40    14000.00
03470              -0.40    14000.00
03471               0.20    14000.00
03472              -0.40    13800.00
03473              -0.40    13800.00
03474              -0.20    13600.00
03475               0.20    13600.00
03476              -0.40    13600.00
03477              -1.00    13600.00
03478              -0.40    13400.00
03479              -0.20    13400.00
03480              -1.20    13400.00
03481              -0.60    13400.00
03482              -0.20    13200.00
03483               0.20    13200.00
03484              -0.60    13000.00
03485              -0.40    13000.00
03486              -0.20    12800.00
03487              -0.60    12800.00
03488              -1.00    12800.00
03489              -0.20    12800.00
03490              -0.20    12400.00
03491              -0.60    12400.00
03492              -0.40    12400.00
03493               0.20    12200.00
03494              -0.60    12000.00
03495              -0.60    12000.00
03496              -0.20    12000.00
03497              -0.40    11800.00
03498              -0.40    11600.00
03499              -0.20    11600.00
03500              -0.60    11400.00
03501              -0.40    11200.00
03502              -0.40    11000.00
03503              -0.20    11000.00
03504              -0.60    11000.00
03505              -0.60    10600.00
03506              -0.40    10600.00
03507               0.20    10400.00
03508              -0.20    10200.00
03509              -0.20    10200.00
03510               0.20    10000.00
03511              -0.60     9800.00
03512              -0.40     9600.00
03513              -0.20     9600.00
03514              -0.40     9400.00
03515              -0.40     9200.00
03516              -0.20     9000.00
03517              -0.20     8800.00
03518              -0.20     8800.00
03519              -0.40     8600.00
03520              -0.20     8400.00
03521               0.20     8200.00
03522              -0.20     8200.00
03523              -0.40     7800.00
03524               0.00     7800.00
03525               0.20     7600.00
03526              -0.40     7200.00
03527              -0.40     7200.00
03528              -0.20     7000.00
03529              -0.20     6800.00
03530              -0.20     6600.00
03531              -0.40     6400.00
03532              -0.40     6400.00
03533              -0.60     6000.00
03534              -0.40     5800.00
03535              -0.20     5600.00
03536              -0.20     5600.00
03537              -0.60     5400.00
03538              -0.20     5200.00
03539               0.40     4800.00
03540              -0.60     4800.00
03541              -1.00     4400.00
03542               0.40     4400.00
03543              -0.60     4000.00
03544              -1.20     4000.00
03545               0.60     3600.00
03546              -0.40     3600.00
03547              -1.40     3200.00
03548               0.40     3200.00
03549              -0.20     2800.00
03550              -1.40     2800.00
03551              -0.40     2400.00
03552               0.20     2200.00
03553              -0.60     2200.00
03554              -0.40     2000.00
03555               0.20     1600.00
03556              -0.60     1400.00
03557              -0.60     1200.00
03558              -0.20     1000.00
03559              -0.40      800.00
03560              -0.80      600.00
03561              -0.20      400.00
03562              -0.20      400.00
03563              -0.40        0.00
03564              -0.60     -200.00
03565               0.40     -400.00
03566               1.80     -600.00
03567               0.40     -800.00
03568              -1.80    -1000.00
03569              -0.20    -1200.00
03570               1.20    -1200.00
03571              -0.60    -1400.00
03572               3.00    -1600.00
03573              25.00    -2000.00
03574              -9.80    -2400.00
03575             -25.00    -2600.00
03576              -1.20    -2800.00
03577               9.60    -2600.00
03578              25.00    -3000.00
03579             -21.00    -3600.00
03580             -25.00    -3200.00
03581              25.00    -3600.00
03582              25.00    -4000.00
03583             -25.00    -3600.00
03584              25.00    -4400.00
03585              25.00    -4400.00
03586             -25.00    -4400.00
03587              25.00    -4800.00
03588              25.00    -5000.00
03589             -25.00    -5200.00
03590              10.00    -5600.00
03591             -25.00    -5600.00
03592              25.00    -6000.00
03593             -18.00    -6000.00
03594             -25.00    -6000.00
03595              25.00    -6600.00
03596              -5.20    -6400.00
03597             -25.00    -6800.00
03598              10.20    -6800.00
03599              25.00    -7200.00
03600             -18.80    -7600.00
03601             -25.00    -7400.00
03602              25.00    -8000.00
03603              -2.60    -8000.00
03604             -25.00    -8200.00
03605              25.00    -8400.00
03606              13.00    -8200.00
03607             -25.00    -8800.00
03608              -7.00    -8600.00
03609              25.00    -9000.00
03610             -16.20    -9000.00
03611             -14.80    -9200.00
03612              24.00    -9600.00
03613              -6.20    -9400.00
03614             -11.20    -9800.00
03615               3.80    -9800.00
03616               9.00   -10000.00
03617              -8.60   -10000.00
03618              -3.20   -10200.00
03619               9.00   -10400.00
03620              -1.40   -10600.00
03621              -7.60   -10600.00
03622               3.00   -10800.00
03623               6.00   -11000.00
03624             -10.00   -11000.00
03625               2.80   -11000.00
03626               5.80   -11400.00
03627              -6.00   -11600.00
03628              -1.60   -11600.00
03629               5.60   -11600.00
03630              -2.20   -12000.00
03631              -6.20   -12000.00
03632               6.60   -12000.00
03633               0.60   -12200.00
03634              -5.40   -12400.00
03635               2.60   -12400.00
03636               2.00   -12800.00
03637              -4.40   -12800.00
03638               0.20   -12800.00
03639               2.80   -13000.00
03640              -2.00   -13000.00
03641              -1.80   -13000.00
03642               1.80   -13200.00
03643               1.00   -13200.00
03644              -3.40   -13200.00
03645               0.60   -13400.00
03646               1.80   -13400.00
03647              -1.80   -13400.00
03648              -0.40   -13600.00
03649               1.00   -13600.00
03650              -0.40   -13800.00
03651              -1.40   -13800.00
03652               1.40   -13600.00
03653              -0.20   -13800.00
03654              -2.60   -13800.00
03655               1.00   -13800.00
03656               0.60   -14000.00
03657              -1.20   -14000.00
03658              -0.40   -14000.00
03659               0.40   -14200.00
03660               0.20   -14000.00
03661              -0.80   -14000.00
03662              -0.40   -14200.00
03663              -0.20   -14400.00
03664              -0.40   -14200.00
03665               0.00   -14400.00
03666              -0.60   -14400.00
03667              -1.00   -14400.00
03668              -0.20   -14400.00
03669              -0.40   -14400.00
03670              -0.60   -14400.00
03671              -0.60   -14400.00
03672              -0.20   -14200.00
03673              -0.40   -14400.00
03674              -0.60   -14200.00
03675               0.20   -14400.00
03676              -0.60   -14400.00
03677              -1.20   -14200.00
03678              -0.40   -14200.00
03679               0.60   -14400.00
03680              -0.60   -14000.00
03681              -1.20   -14000.00
03682               0.40   -14000.00
03683              -0.40   -14000.00
03684              -1.00   -14000.00
03685              -0.20   -14000.00
03686              -0.40   -13800.00
03687              -0.80   -13800.00
03688              -0.20   -13800.00
03689               0.00   -13800.00
03690              -0.60   -13800.00
03691              -1.00   -13600.00
03692               0.40   -13600.00
03693               0.20   -13600.00
03694              -1.00   -13400.00
03695              -0.40   -13200.00
03696               0.40   -13200.00
03697              -0.40   -13200.00
03698              -0.60   -13000.00
03699               0.20   -12800.00
03700              -0.40   -12800.00
03701              -0.60   -12800.00
03702               0.40   -12600.00
03703              -0.40   -12800.00
03704              -0.60   -12600.00
03705               0.20   -12200.00
03706               0.00   -12400.00
03707              -0.40   -12200.00
03708              -0.40   -12000.00
03709              -0.60   -12000.00
03710              -0.20   -12000.00
03711               0.20   -11800.00
03712              -1.20   -11600.00
03713              -0.20   -11600.00
03714               1.00   -11200.00
03715              -0.60   -11400.00
03716              -1.20   -11000.00
03717               0.60   -10800.00
03718              -1.00   -10800.00
03719               0.00   -10800.00
03720               0.20   -10400.00
03721              -0.20   -10400.00
03722              -0.60   -10200.00
03723              -0.40   -10000.00
03724               0.40   -10000.00
03725              -0.20    -9800.00
03726              -0.80    -9600.00
03727              -0.40    -9400.00
03728               0.40    -9400.00
03729              -1.20    -9200.00
03730              -1.40    -9000.00
03731               0.40    -8800.00
03732               0.00    -8800.00
03733              -1.20    -8400.00
03734              -0.60    -8400.00
03735              -0.20    -8200.00
03736               0.20    -8000.00
03737              -1.00    -7600.00
03738              -0.40    -7600.00
03739               1.00    -7400.00
03740              -1.80    -7400.00
03741              -1.40    -7200.00
03742               2.00    -6800.00
03743               0.20    -6600.00
03744              -6.80    -6600.00
03745               9.40    -6600.00
03746             -11.80    -6200.00
03747               2.60    -6000.00
03748               3.40    -5800.00
03749              -4.60    -5600.00
03750               9.20    -5400.00
03751              -6.80    -5200.00
03752               3.60    -5000.00
03753              -4.40    -4600.00
03754              -0.20    -4600.00
03755              -3.00    -4400.00
03756              -2.40    -4200.00
03757               4.60    -4000.00
03758               1.00    -3800.00
03759              -0.80    -3600.00
03760              -0.40    -3400.00
03761               2.20    -3400.00
03762              -4.20    -3000.00
03763              -2.00    -2800.00
03764              -2.00    -2600.00
03765               0.80    -2400.00
03766               2.60    -2200.00
03767              -2.80    -2000.00
03768               0.20    -1800.00
03769               3.60    -1600.00
03770              -3.00    -1400.00
03771              -0.80    -1200.00
03772              -0.20    -1000.00
03773              -0.80     -800.00
03774              -0.20     -600.00
03775              -3.00     -400.00
03776               1.80        0.00
03777               0.60        0.00
03778              -0.60      200.00
03779               0.80      400.00
03780               3.80      600.00
03781              -3.60      800.00
03782              -1.60     1200.00
03783               2.80     1200.00
03784              -2.20     1400.00
03785              -0.20     1800.00
03786               5.20     2000.00
03787              17.20     2400.00
03788               5.20     2400.00
03789             -25.00     2600.00
03790             -13.20     2800.00
03791               6.80     2800.00
03792               8.80     3200.00
03793              25.00     3200.00
03794             -25.00     3200.00
03795             -10.60     3800.00
03796              25.00     3800.00
03797             -25.00     4000.00
03798             -25.00     4400.00
03799              25.00     4400.00
03800             -25.00     4400.00
03801             -25.00     4800.00
03802              25.00     5000.00
03803              -8.20     5200.00
03804             -12.20     5600.00
03805              -1.20     5600.00
03806               9.20     6000.00
03807               9.40     6000.00
03808             -25.00     6400.00
03809               9.00     6400.00
03810              25.00     6600.00
03811             -17.80     6800.00
03812             -23.40     7000.00
03813              19.60     7200.00
03814              18.60     7400.00
03815             -25.00     7600.00
03816               1.60     7800.00
03817              25.00     8200.00
03818             -22.00     8200.00
03819             -13.40     8400.00
03820              25.00     8400.00
03821              -6.20     8800.00
03822             -23.60     8800.00
03823              19.60     8800.00
03824               7.80     9200.00
03825             -20.40     9200.00
03826               8.20     9400.00
03827              11.00     9600.00
03828             -11.80     9800.00
03829              -4.40    10000.00
03830               7.80    10000.00
03831              -0.40    10200.00
03832              -5.00    10400.00
03833               1.80    10600.00
03834               4.40    10400.00
03835              -3.40    10800.00
03836              -4.20    10800.00
03837               5.80    11000.00
03838              -0.60    11200.00
03839              -6.00    11400.00
03840               4.60    11400.00
03841               1.60    11600.00
03842              -6.00    11800.00
03843               2.00    11800.00
03844               3.80    12000.00
03845              -5.00    12000.00
03846              -1.00    12200.00
03847               4.40    12400.00
03848              -2.20    12400.00
03849              -2.60    12400.00
03850               2.60    12600.00
03851              -0.40    12600.00
03852              -2.20    12800.00
03853               1.20    12800.00
03854               1.00    13000.00
03855              -2.00    12800.00
03856              -1.00    13000.00
03857               1.40    13200.00
03858              -1.20    13400.00
03859              -2.20    13200.00
03860               1.00    13400.00
03861               1.20    13600.00
03862              -1.80    13600.00
03863              -0.60    13600.00
03864               1.20    13600.00
03865              -1.40    13600.00
03866              -1.20    13800.00
03867               0.60    14000.00
03868              -0.60    13800.00
03869              -1.20    14000.00
03870               0.40    14000.00
03871               0.20    14000.00
03872              -1.20    14000.00
03873              -0.60    14000.00
03874               0.60    14200.00
03875              -0.60    14200.00
03876              -0.60    14200.00
03877              -0.40    14400.00
03878              -0.40    14400.00
03879              -0.20    14200.00
03880               0.20    14200.00
03881              -0.40    14200.00
03882              -0.60    14200.00
03883               0.00    14400.00
03884              -0.40    14600.00
03885              -0.60    14400.00
03886              -0.40    14600.00
03887              -0.40    14400.00
03888              -0.20    14200.00
03889               0.00    14200.00
03890               0.20    14200.00
03891              -0.60    14200.00
03892              -0.60    14200.00
03893               0.20    14200.00
03894               0.00    14000.00
03895              -0.80    14000.00
03896              -0.40    14000.00
03897               0.40    14000.00
03898               0.20    14000.00
03899               0.40    13800.00
03900              -0.20    13800.00
03901              -0.60    14000.00
03902              -0.60    13600.00
03903              -0.20    13800.00
03904              -0.60    13600.00
03905              -0.20    13400.00
03906               0.20    13400.00
03907               0.20    13400.00
03908              -0.40    13400.00
03909              -0.60    13200.00
03910              -0.20    13200.00
03911               0.20    13000.00
03912              -0.20    13000.00
03913              -0.60    12800.00
03914               0.80    12600.00
03915              -0.40    12800.00
03916              -0.80    12800.00
03917               0.40    12600.00
03918              -0.20    12400.00
03919              -1.40    12400.00
03920               1.00    12000.00
03921              -0.20    12200.00
03922              -1.20    12000.00
03923               0.40    12000.00
03924               0.20    11800.00
03925              -0.60    11800.00
03926              -0.40    11600.00
03927               0.00    11400.00
03928              -0.40    11200.00
03929              -1.00    11200.00
03930              -0.20    11000.00
03931              -0.20    11000.00
03932              -1.00    10800.00
03933              -0.60    10600.00
03934               0.40    10400.00
03935              -0.40    10400.00
03936              -1.20    10200.00
03937               0.20    10000.00
03938              -0.40     9800.00
03939              -1.20     9600.00
03940               0.20     9600.00
03941              -0.40     9400.00
03942              -1.20     9200.00
03943               0.20     9200.00
03944              -0.20     9000.00
03945              -1.00     8600.00
03946              -0.40     8600.00
03947              -0.40     8400.00
03948              -0.20     8200.00
03949              -0.60     8000.00
03950              -0.60     7800.00
03951              -0.20     7600.00
03952              -0.40     7600.00
03953              -0.40     7600.00
03954              -0.40     7200.00
03955              -0.40     7000.00
03956              -0.40     7000.00
03957              -0.20     6800.00
03958               0.20     6400.00
03959              -0.20     6200.00
03960              -0.60     6000.00
03961              -1.00     6000.00
03962              -0.40     5800.00
03963               0.00     5600.00
03964               0.20     5400.00
03965              -0.40     5200.00
03966              -0.60     4800.00
03967               0.00     4800.00
03968              -0.40     4600.00
03969              -1.20     4400.00
03970              -0.20     4200.00
03971               1.00     4000.00
03972              -0.60     3800.00
03973               0.00     3600.00
03974               0.40     3400.00
03975              -1.20     3200.00
03976              -1.20     3000.00
03977               0.40     2800.00
03978               0.40     2600.00
03979              -0.40     2400.00
03980              -0.20     2000.00
03981              -0.40     2000.00
03982              -1.00     1800.00
03983              -0.20     1800.00
03984              -0.40     1400.00
03985              -0.20     1200.00
03986               0.40      800.00
03987              -1.00      600.00
03988              -0.60      600.00
03989               0.40      200.00
03990              -1.00        0.00
03991              -1.20     -200.00
03992               0.40     -200.00
03993               1.20     -400.00
03994               0.40     -800.00
03995              -1.60     -800.00
03996              -0.40    -1200.00
03997               0.40    -1400.00
03998              -0.40    -1600.00
03999               1.00    -1600.00
04000              19.60    -1800.00
04001              11.60    -2600.00
04002             -25.00    -2400.00
04003             -15.60    -2800.00
04004               6.60    -2600.00
04005              25.00    -2800.00
04006              25.00    -3400.00
04007             -25.00    -3000.00
04008              25.00    -3400.00
04009              25.00    -4000.00
04010             -25.00    -3800.00
04011             -25.00    -4200.00
04012              25.00    -4600.00
04013             -25.00    -4200.00
04014             -24.60    -4800.00
04015              25.00    -5000.00
04016             -25.00    -5200.00
04017               9.80    -5600.00
04018             -23.80    -5400.00
04019              25.00    -6000.00
04020              25.00    -6000.00
04021             -25.00    -6000.00
04022              25.00    -6600.00
04023              25.00    -6400.00
04024             -25.00    -6800.00
04025              -2.60    -7000.00
04026              25.00    -6800.00
04027               7.00    -7400.00
04028             -25.00    -7400.00
04029              25.00    -7800.00
04030              25.00    -8000.00
04031             -25.00    -8000.00
04032              12.40    -8400.00
04033              25.00    -8400.00
04034             -16.60    -8800.00
04035             -20.20    -8800.00
04036              25.00    -8800.00
04037               4.20    -9000.00
04038             -25.00    -9000.00
04039              19.00    -9400.00
04040               4.60    -9400.00
04041             -13.40    -9800.00
04042              -0.60    -9800.00
04043               9.40    -9800.00
04044              -2.60   -10200.00
04045              -8.60   -10200.00
04046               7.80   -10400.00
04047               3.00   -10400.00
04048              -7.00   -10800.00
04049              -1.80   -10800.00
04050               9.00   -11000.00
04051              -6.20   -11000.00
04052              -3.00   -11200.00
04053               8.40   -11400.00
04054              -3.80   -11600.00
04055              -4.60   -11800.00
04056               4.40   -11800.00
04057               1.80   -12000.00
04058              -8.20   -12000.00
04059               3.40   -12200.00
04060               5.00   -12200.00
04061              -6.20   -12400.00
04062              -0.60   -12400.00
04063               4.60   -12400.00
04064              -3.60   -12600.00
04065              -3.00   -12800.00
04066               4.20   -12800.00
04067              -0.20   -12800.00
04068              -3.40   -13000.00
04069               0.60   -13000.00
04070               2.60   -13200.00
04071              -3.00   -13200.00
04072              -2.20   -13200.00
04073               3.00   -13400.00
04074              -0.60   -13400.00
04075              -2.40   -13600.00
04076               0.60   -13600.00
04077               1.20   -13600.00
04078              -2.60   -13600.00
04079              -0.60   -13800.00
04080               2.20   -13800.00
04081              -2.00   -13800.00
04082              -1.20   -13800.00
04083               1.60   -14000.00
04084              -0.20   -14000.00
04085              -2.20   -14000.00
04086              -0.20   -14000.00
04087               1.20   -14000.00
04088              -1.00   -14200.00
04089              -0.60   -14000.00
04090               0.60   -14200.00
04091              -0.60   -14400.00
04092              -0.40   -14200.00
04093               0.40   -14400.00
04094              -0.60   -14200.00
04095              -0.40   -14400.00
04096               0.00   -14400.00
04097              -0.20   -14400.00
04098              -0.40   -14400.00
04099              -0.40   -14400.00
04100              -0.20   -14400.00
04101              -0.40   -14400.00
04102              -0.20   -14400.00
04103              -0.60   -14000.00
04104              -0.60   -14400.00
04105              -0.20   -14200.00
04106               0.40   -14000.00
04107               0.00   -14200.00
04108              -1.00   -14000.00
04109              -0.20   -14200.00
04110               0.20   -14000.00
04111              -0.60   -13800.00
04112              -0.40   -13800.00
04113              -0.20   -13800.00
04114              -0.20   -13800.00
04115              -0.40   -13800.00
04116              -0.80   -13800.00
04117              -0.40   -13600.00
04118               0.00   -13600.00
04119              -0.60   -13600.00
04120               0.00   -13600.00
04121              -0.40   -13400.00
04122              -1.00   -13200.00
04123              -0.40   -13200.00
04124               0.40   -13200.00
04125              -1.20   -13000.00
04126              -0.60   -13000.00
04127               0.60   -13000.00
04128              -1.40   -12800.00
04129              -0.40   -12800.00
04130               0.60   -12600.00
04131              -1.40   -12400.00
04132              -0.60   -12600.00
04133               0.40   -12400.00
04134              -0.60   -12200.00
04135              -1.20   -12200.00
04136               0.20   -12000.00
04137              -0.60   -12000.00
04138              -1.20   -11800.00
04139               0.60   -11600.00
04140              -0.20   -11400.00
04141              -1.80   -11400.00
04142               1.20   -11200.00
04143              -1.00   -11000.00
04144              -2.00   -10800.00
04145              -0.20   -10800.00
04146               0.40   -10800.00
04147              -1.20   -10600.00
04148              -0.20   -10400.00
04149              -0.20   -10400.00
04150              -0.40   -10200.00
04151              -0.60   -10000.00
04152              -0.20    -9800.00
04153              -0.40    -9600.00
04154              -0.60    -9600.00
04155              -0.80    -9400.00
04156               0.40    -9200.00
04157               0.40    -9000.00
04158              -2.20    -8800.00
04159              -1.00    -8800.00
04160               1.20    -8600.00
04161              -0.40    -8400.00
04162              -1.00    -8400.00
04163               0.60    -8000.00
04164              -0.20    -8000.00
04165              -1.20    -7600.00
04166              -0.60    -7400.00
04167              -0.20    -7400.00
04168              -0.60    -7200.00
04169               0.40    -7000.00
04170               0.20    -6800.00
04171              -0.60    -6800.00
04172              -0.20    -6400.00
04173              -0.60    -6200.00
04174              -1.20    -6000.00
04175               1.00    -5800.00
04176               0.40    -5800.00
04177              -2.00    -5600.00
04178              -0.40    -5200.00
04179               0.60    -5000.00
04180              -1.00    -4600.00
04181              -0.60    -4600.00
04182               1.00    -4600.00
04183              -0.40    -4400.00
04184              -1.20    -4200.00
04185               0.20    -4000.00
04186              -0.60    -3600.00
04187              -1.20    -3600.00
04188               0.20    -3200.00
04189               0.00    -3200.00
04190              -0.60    -3000.00
04191              -0.60    -2800.00
04192              -0.60    -2600.00
04193              -0.40    -2400.00
04194              -0.40    -2000.00
04195              -0.40    -2000.00
04196              -0.20    -1800.00
04197              -0.20    -1600.00
04198              -0.60    -1200.00
04199              -0.60    -1000.00
04200              -0.60    -1000.00
04201              -0.60     -800.00
04202              -0.40     -400.00
04203               0.00     -200.00
04204              -0.60        0.00
04205              -0.80        0.00
04206               0.60      400.00
04207               1.80      400.00
04208              -1.00      800.00
04209              -1.20      800.00
04210               1.00     1200.00
04211               0.40     1400.00
04212              -0.80     1600.00
04213               1.80     1800.00
04214              11.60     2200.00
04215              16.60     2200.00
04216             -25.00     2400.00
04217             -25.00     2800.00
04218               7.40     2800.00
04219               3.80     3000.00
04220              25.00     3400.00
04221             -25.00     3200.00
04222             -25.00     3800.00
04223              25.00     4000.00
04224              17.00     3800.00
04225             -25.00     4200.00
04226              25.00     4400.00
04227              25.00     4600.00
04228             -25.00     4800.00
04229              25.00     5000.00
04230              12.40     5200.00
04231             -20.20     5600.00
04232              -0.60     5600.00
04233               2.80     5800.00
04234              16.00     6000.00
04235             -23.60     6400.00
04236              -7.80     6400.00
04237              25.00     6600.00
04238              -4.40     7000.00
04239             -25.00     6800.00
04240               6.60     7200.00
04241              25.00     7200.00
04242             -23.40     7600.00
04243             -18.80     7800.00
04244              25.00     8000.00
04245              -4.00     8200.00
04246             -25.00     8200.00
04247              20.20     8400.00
04248               9.40     8600.00
04249             -25.00     8600.00
04250               7.40     9000.00
04251              19.40     9000.00
04252             -18.20     9400.00
04253              -3.40     9400.00
04254              15.60     9400.00
04255              -6.20     9600.00
04256              -9.40    10000.00
04257               5.60    10000.00
04258               3.80    10200.00
04259              -5.60    10400.00
04260              -1.20    10400.00
04261               5.00    10400.00
04262              -0.60    10800.00
04263              -5.60    10800.00
04264               2.60    11000.00
04265               2.60    11200.00
04266              -6.20    11200.00
04267               1.60    11600.00
04268               4.40    11600.00
04269              -5.00    11800.00
04270              -1.40    11800.00
04271               4.60    12000.00
04272              -3.00    12000.00
04273              -3.40    12000.00
04274               4.40    12200.00
04275              -0.20    12400.00
04276              -3.60    12600.00
04277               1.80    12600.00
04278               1.00    12600.00
04279              -2.80    12600.00
04280               0.20    12800.00
04281               1.80    12800.00
04282              -1.60    13200.00
04283              -1.40    13200.00
04284               1.40    13200.00
04285              -0.20    13200.00
04286              -2.80    13400.00
04287              -0.20    13400.00
04288               1.40    13600.00
04289              -1.00    13600.00
04290              -1.00    13600.00
04291               1.00    13600.00
04292              -0.20    13600.00
04293              -1.60    13800.00
04294               0.40    14000.00
04295              -0.20    14000.00
04296              -1.20    14000.00
04297               0.20    14000.00
04298               1.00    14200.00
04299              -0.60    14000.00
04300              -1.00    14200.00
04301               0.20    14200.00
04302              -0.20    14200.00
04303              -0.60    14200.00
04304              -0.40    14200.00
04305              -0.40    14200.00
04306               0.60    14400.00
04307               0.00    14400.00
04308              -0.80    14400.00
04309               0.40    14400.00
04310              -0.20    14400.00
04311              -1.00    14600.00
04312               0.40    14400.00
04313              -0.40    14400.00
04314              -1.20    14200.00
04315               0.20    14200.00
04316               0.20    14200.00
04317              -0.40    14200.00
04318              -0.60    14400.00
04319              -0.20    14200.00
04320               0.00    14200.00
04321              -0.60    14000.00
04322              -0.60    14200.00
04323              -0.20    14000.00
04324               0.00    14200.00
04325              -0.60    14000.00
04326              -0.20    14000.00
04327              -1.00    14000.00
04328              -1.00    14000.00
04329              -0.60    13800.00
04330               0.60    13600.00
04331              -0.60    13600.00
04332              -0.20    13600.00
04333              -0.20    13400.00
04334              -0.60    13400.00
04335              -0.40    13200.00
04336              -0.60    13200.00
04337              -1.00    13200.00
04338               0.20    13200.00
04339              -0.20    13000.00
04340              -0.40    12800.00
04341              -0.40    13000.00
04342              -0.60    12600.00
04343              -0.40    12800.00
04344              -0.20    12600.00
04345              -0.40    12400.00
04346              -0.40    12400.00
04347              -0.20    12400.00
04348              -0.20    12200.00
04349              -1.00    12000.00
04350              -0.40    12000.00
04351               0.20    11800.00
04352              -0.40    11800.00
04353              -0.60    11600.00
04354               0.20    11400.00
04355              -0.40    11400.00
04356              -0.40    11200.00
04357               0.00    11200.00
04358              -0.40    11000.00
04359              -0.60    10800.00
04360              -0.60    10800.00
04361              -0.20    10400.00
04362              -0.20    10400.00
04363              -0.20    10200.00
04364              -0.20    10000.00
04365              -0.40    10000.00
04366              -0.40     9800.00
04367               0.20     9600.00
04368               0.20     9600.00
04369              -0.60     9200.00
04370              -0.20     9200.00
04371               0.40     9000.00
04372              -0.60     8800.00
04373              -0.20     8600.00
04374              -0.20     8400.00
04375              -0.20     8200.00
04376              -0.20     8200.00
04377              -0.60     8000.00
04378              -0.60     7800.00
04379              -0.20     7600.00
04380              -0.80     7600.00
04381              -0.20     7200.00
04382              -0.20     7200.00
04383              -0.40     6800.00
04384              -0.20     6800.00
04385              -0.20     6400.00
04386              -0.60     6400.00
04387              -0.60     6200.00
04388              -0.20     6000.00
04389              -0.40     5800.00
04390              -0.40     5600.00
04391              -0.60     5400.00
04392              -0.60     5400.00
04393              -0.20     5000.00
04394              -0.40     4800.00
04395              -0.60     4600.00
04396              -0.40     4400.00
04397              -0.40     4200.00
04398              -0.20     4000.00
04399              -0.60     3800.00
04400              -0.40     3800.00
04401              -0.40     3600.00
04402              -0.40     3200.00
04403              -0.60     3000.00
04404              -0.40     2800.00
04405              -0.40     2800.00
04406              -0.40     2400.00
04407              -0.20     2200.00
04408              -0.20     2000.00
04409              -0.60     1800.00
04410              -0.40     1600.00
04411              -0.40     1400.00
04412              -0.40     1400.00
04413              -0.40     1000.00
04414              -0.40      800.00
04415              -0.20      600.00
04416              -0.40      400.00
04417               0.20      200.00
04418               0.20        0.00
04419              -0.60     -200.00
04420               0.80     -400.00
04421               2.00     -800.00
04422              -1.20     -800.00
04423              -1.00    -1000.00
04424               1.20    -1200.00
04425               0.40    -1600.00
04426              -0.40    -1600.00
04427               9.80    -1800.00
04428              25.00    -2400.00
04429             -25.00    -2600.00
04430             -25.00    -2800.00
04431               6.60    -2600.00
04432              25.00    -2600.00
04433              25.00    -3200.00
04434             -25.00    -3200.00
04435             -18.40    -3200.00
04436              25.00    -4000.00
04437             -25.00    -3800.00
04438             -25.00    -4000.00
04439              25.00    -4400.00
04440              12.80    -4400.00
04441             -25.00    -4600.00
04442              25.00    -5000.00
04443             -23.40    -5000.00
04444              -6.00    -5600.00
04445              -7.80    -5600.00
04446              -4.20    -5600.00
04447              25.00    -6200.00
04448             -25.00    -6000.00
04449               2.60    -6400.00
04450              25.00    -6400.00
04451             -25.00    -6400.00
04452             -19.00    -7200.00
04453              24.20    -7000.00
04454              25.00    -7200.00
04455             -25.00    -7400.00
04456              -3.20    -7600.00
04457              25.00    -8000.00
04458             -25.00    -8000.00
04459             -11.80    -8200.00
04460              25.00    -8400.00
04461              -5.80    -8400.00
04462             -25.00    -8800.00
04463              12.60    -8800.00
04464              21.80    -9000.00
04465             -25.00    -9000.00
04466               5.80    -9200.00
04467              16.20    -9600.00
04468             -13.40    -9600.00
04469              -5.40    -9800.00
04470               7.20   -10000.00
04471               3.80   -10000.00
04472             -10.60   -10200.00
04473               3.40   -10400.00
04474               6.60   -10400.00
04475              -5.00   -10600.00
04476              -5.40   -10800.00
04477               7.60   -10800.00
04478              -1.00   -11000.00
04479              -8.40   -11200.00
04480               8.40   -11200.00
04481               0.40   -11400.00
04482              -6.60   -11600.00
04483               2.60   -11600.00
04484               4.40   -12000.00
04485              -6.80   -12000.00
04486              -1.00   -12200.00
04487               6.80   -12200.00
04488              -4.00   -12400.00
04489              -2.80   -12400.00
04490               4.40   -12600.00
04491              -1.00   -12800.00
04492              -3.80   -12800.00
04493               2.60   -12800.00
04494               1.00   -12800.00
04495              -2.20   -12800.00
04496              -0.60   -13200.00
04497               2.40   -13200.00
04498              -0.60   -13200.00
04499              -3.00   -13200.00
04500               1.20   -13200.00
04501               1.00   -13200.00
04502              -1.20   -13400.00
04503              -1.00   -13600.00
04504               1.00   -13800.00
04505              -0.60   -13600.00
04506              -1.80   -13800.00
04507               1.20   -13800.00
04508              -0.40   -14000.00
04509              -2.00   -13800.00
04510               0.60   -13800.00
04511               0.60   -14200.00
04512              -1.20   -14000.00
04513              -1.20   -13800.00
04514               0.40   -14000.00
04515               0.20   -14000.00
04516              -1.20   -14000.00
04517              -0.60   -14200.00
04518              -0.20   -14200.00
04519              -0.40   -14200.00
04520              -0.60   -14200.00
04521              -0.60   -14200.00
04522              -0.20   -14400.00
04523              -0.40   -14400.00
04524              -0.60   -14400.00
04525               0.20   -14400.00
04526              -0.40   -14400.00
04527              -0.60   -14400.00
04528              -0.60   -14400.00
04529               0.20   -14400.00
04530              -1.00   -14200.00
04531              -1.20   -14400.00
04532               0.20   -14200.00
04533              -0.60   -14400.00
04534              -0.20   -14000.00
04535              -0.20   -14000.00
04536              -0.60   -14000.00
04537              -0.20   -14000.00
04538              -0.40   -13800.00
04539              -0.20   -14000.00
04540              -0.40   -14000.00
04541              -0.40   -13800.00
04542              -0.20   -13800.00
04543              -0.40   -13800.00
04544              -0.20   -13600.00
04545              -0.60   -13600.00
04546              -0.20   -13600.00
04547               0.20   -13200.00
04548              -0.40   -13200.00
04549              -0.60   -13400.00
04550               0.20   -13200.00
04551              -0.20   -13200.00
04552              -0.20   -13000.00
04553              -0.20   -13000.00
04554               0.20   -13000.00
04555              -0.40   -12800.00
04556               0.00   -12600.00
04557               0.20   -12800.00
04558              -0.80   -12600.00
04559               0.00   -12400.00
04560              -0.20   -12400.00
04561              -0.40   -12400.00
04562              -0.20   -12200.00
04563              -0.60   -12200.00
04564              -0.40   -11800.00
04565               0.40   -11600.00
04566              -0.40   -11600.00
04567              -1.00   -11400.00
04568              -0.20   -11400.00
04569               0.40   -11400.00
04570              -0.40   -11000.00
04571              -0.60   -10800.00
04572               0.40   -10800.00
04573              -0.60   -10800.00
04574              -0.60   -10600.00
04575               0.20   -10400.00
04576              -0.40   -10400.00
04577              -1.20   -10000.00
04578               0.40   -10000.00
04579              -0.20    -9800.00
04580              -1.00    -9600.00
04581              -0.60    -9600.00
04582              -0.40    -9400.00
04583              -1.00    -9200.00
04584               0.00    -9000.00
04585               0.20    -9000.00
04586              -0.60    -8800.00
04587              -0.60    -8800.00
04588              -0.20    -8400.00
04589              -0.80    -8400.00
04590              -0.60    -8200.00
04591              -0.60    -7800.00
04592              -0.20    -7800.00
04593              -0.40    -7400.00
04594              -0.60    -7400.00
04595              -0.40    -7200.00
04596              -0.40    -7000.00
04597              -0.60    -6800.00
04598              -0.60    -6600.00
04599              -0.40    -6600.00
04600              -0.60    -6400.00
04601               0.00    -6200.00
04602              -0.40    -6000.00
04603              -1.00    -5800.00
04604              -0.40    -5600.00
04605              -0.40    -5200.00
04606              -0.60    -5200.00
04607              -0.40    -4800.00
04608              -0.20    -4600.00
04609              -0.40    -4600.00
04610              -0.40    -4400.00
04611              -0.60    -4200.00
04612               0.20    -4000.00
04613              -0.20    -3600.00
04614              -0.60    -3600.00
04615               0.20    -3400.00
04616               0.00    -3200.00
04617              -1.00    -2800.00
04618              -0.40    -2800.00
04619               0.00    -2600.00
04620              -0.40    -2400.00
04621              -0.60    -2000.00
04622               0.20    -2000.00
04623              -0.40    -1800.00
04624              -0.60    -1600.00
04625              -0.20    -1200.00
04626              -0.20    -1000.00
04627              -0.60     -800.00
04628              -0.40     -600.00
04629              -0.20     -400.00
04630              -0.20     -200.00
04631              -0.20     -200.00
04632              -0.40      200.00
04633               0.20      400.00
04634               1.60      600.00
04635               0.40      800.00
04636              -1.40      800.00
04637              -0.20     1000.00
04638               1.40     1200.00
04639              -0.60     1400.00
04640              -0.20     1800.00
04641               6.80     2000.00
04642              20.00     2400.00
04643             -13.20     2600.00
04644             -25.00     2400.00
04645               2.80     2800.00
04646               5.20     2800.00
04647              25.00     3200.00
04648              10.20     3200.00
04649             -25.00     3600.00
04650              25.00     4000.00
04651              25.00     3800.00
04652             -25.00     4000.00
04653              20.00     4400.00
04654              25.00     4400.00
04655             -25.00     4800.00
04656               5.80     5000.00
04657              25.00     5200.00
04658             -21.80     5400.00
04659              -2.60     5600.00
04660              -0.60     5600.00
04661              15.80     6000.00
04662              -8.20     6200.00
04663             -22.60     6400.00
04664              25.00     6400.00
04665              11.60     6800.00
04666             -24.40     7000.00
04667              -8.20     7200.00
04668              25.00     7200.00
04669              -4.60     7600.00
04670             -25.00     7600.00
04671              25.00     8000.00
04672              15.60     8200.00
04673             -25.00     8200.00
04674               6.80     8400.00
04675              21.00     8600.00
04676             -20.20     8800.00
04677              -8.40     9000.00
04678              23.80     9000.00
04679              -8.20     9200.00
04680             -14.60     9400.00
04681              16.00     9600.00
04682               1.80     9600.00
04683             -13.40    10000.00
04684               2.20    10000.00
04685               7.80    10200.00
04686              -5.20    10200.00
04687              -2.80    10400.00
04688               5.00    10400.00
04689               0.60    10600.00
04690              -5.60    10800.00
04691               0.60    10800.00
04692               4.80    11000.00
04693              -5.00    11200.00
04694              -1.20    11600.00
04695               6.00    11400.00
04696              -2.80    11600.00
04697              -4.40    11800.00
04698               5.00    12000.00
04699               0.20    12000.00
04700              -5.40    12000.00
04701               3.40    12200.00
04702               2.20    12400.00
04703              -4.40    12400.00
04704               0.40    12600.00
04705               2.60    12600.00
04706              -2.60    12800.00
04707              -1.20    12800.00
04708               2.20    12800.00
04709              -1.00    12800.00
04710              -2.40    13200.00
04711               1.20    13200.00
04712               1.40    13200.00
04713              -2.80    13200.00
04714              -1.40    13400.00
04715               2.00    13400.00
04716              -0.60    13600.00
04717              -2.60    13600.00
04718               1.60    13600.00
04719               1.00    13600.00
04720              -2.60    13800.00
04721               0.40    13800.00
04722               0.60    14000.00
04723              -1.80    14000.00
04724              -0.60    14000.00
04725               1.00    14000.00
04726              -0.40    14200.00
04727              -1.40    14000.00
04728              -0.20    14000.00
04729               0.40    14200.00
04730              -1.20    14200.00
04731              -0.40    14200.00
04732               0.00    14200.00
04733              -0.40    14600.00
04734              -0.20    14200.00
04735               0.20    14200.00
04736              -0.60    14600.00
04737              -1.00    14200.00
04738              -0.20    14400.00
04739               0.80    14400.00
04740              -0.20    14200.00
04741              -1.20    14200.00
04742               0.00    14400.00
04743               0.20    14200.00
04744              -0.60    14200.00
04745               0.20    14600.00
04746               0.40    14200.00
04747              -1.00    14000.00
04748              -0.20    14200.00
04749               0.20    14200.00
04750              -0.60    14200.00
04751              -0.40    14200.00
04752              -0.20    14000.00
04753               0.20    14000.00
04754              -0.20    13800.00
04755              -0.40    13800.00
04756               0.20    13800.00
04757               0.20    13800.00
04758              -0.60    13600.00
04759              -0.20    13600.00
04760              -0.20    13600.00
04761              -0.20    13400.00
04762              -0.60    13400.00
04763              -0.40    13200.00
04764               0.20    13200.00
04765              -0.60    13200.00
04766              -0.20    13000.00
04767               0.00    12800.00
04768              -0.40    12800.00
04769              -0.40    12800.00
04770              -0.40    12600.00
04771               0.20    12600.00
04772              -1.00    12400.00
04773              -0.60    12400.00
04774               0.20    12400.00
04775              -0.60    12400.00
04776              -0.40    12200.00
04777              -0.60    12000.00
04778              -0.40    11800.00
04779              -0.20    11800.00
04780              -0.80    11600.00
04781               0.00    11400.00
04782               0.00    11200.00
04783              -0.60    11200.00
04784              -1.00    11200.00
04785               0.60    11000.00
04786              -0.40    10800.00
04787              -1.20    10800.00
04788               0.20    10600.00
04789               0.40    10400.00
04790              -1.20    10200.00
04791              -0.60    10000.00
04792               0.20    10000.00
04793              -0.60     9800.00
04794              -1.00     9600.00
04795               0.00     9400.00
04796               0.20     9400.00
04797              -1.00     9200.00
04798              -0.20     9000.00
04799               0.20     8800.00
04800              -0.20     8800.00
04801              -0.60     8600.00
04802              -0.20     8400.00
04803               0.20     8400.00
04804              -0.60     7800.00
04805              -0.60     8200.00
04806              -0.20     7600.00
04807              -0.40     7600.00
04808              -0.40     7400.00
04809              -0.40     7000.00
04810              -0.40     7000.00
04811              -0.40     6800.00
04812               0.20     6600.00
04813              -0.40     6400.00
04814              -0.40     6200.00
04815              -0.20     6200.00
04816              -0.20     6000.00
04817              -0.20     5800.00
04818              -0.40     5400.00
04819              -0.80     5400.00
04820              -0.40     5200.00
04821               0.20     4800.00
04822               0.20     4600.00
04823              -0.80     4400.00
04824               0.20     4400.00
04825              -0.20     4200.00
04826              -1.20     3800.00
04827               0.20     3600.00
04828               0.00     3600.00
04829              -0.60     3200.00
04830               0.40     3200.00
04831              -0.20     3000.00
04832              -0.80     2800.00
04833              -0.40     2400.00
04834              -0.40     2200.00
04835              -0.40     2200.00
04836              -0.20     2000.00
04837              -0.40     1800.00
04838              -0.60     1400.00
04839               0.00     1200.00
04840              -0.60     1000.00
04841              -1.00      800.00
04842              -0.20      600.00
04843              -0.60      400.00
04844              -0.60        0.00
04845               0.40        0.00
04846              -0.60     -200.00
04847               0.40     -400.00
04848               2.20     -400.00
04849              -0.60     -800.00
04850              -2.00    -1000.00
04851               0.40    -1200.00
04852              -0.20    -1400.00
04853              -1.00    -1600.00
04854               4.40    -1800.00
04855              25.00    -2000.00
04856             -14.00    -2400.00
04857             -25.00    -2600.00
04858              -0.20    -2800.00
04859              11.60    -2600.00
04860              25.00    -3000.00
04861             -25.00    -3400.00
04862             -25.00    -2800.00
04863              25.00    -3600.00
04864              25.00    -3800.00
04865             -25.00    -3800.00
04866              25.00    -4400.00
04867              25.00    -4400.00
04868             -25.00    -4400.00
04869              25.00    -4800.00
04870              21.20    -4800.00
04871             -25.00    -5400.00
04872               7.80    -5400.00
04873             -24.60    -5600.00
04874              25.00    -6000.00
04875             -25.00    -5800.00
04876             -25.00    -6000.00
04877              25.00    -6400.00
04878             -13.00    -6400.00
04879             -25.00    -6800.00
04880              13.40    -7000.00
04881              25.00    -7200.00
04882             -23.80    -7600.00
04883             -25.00    -7400.00
04884              25.00    -7800.00
04885             -10.00    -7800.00
04886             -25.00    -8200.00
04887              25.00    -8400.00
04888               9.20    -8200.00
04889             -25.00    -8800.00
04890              -2.60    -8800.00
04891              25.00    -9000.00
04892             -19.40    -9000.00
04893             -10.40    -9200.00
04894              23.20    -9600.00
04895              -8.40    -9400.00
04896              -9.60   -10000.00
04897               5.00    -9800.00
04898               7.80   -10000.00
04899              -9.20   -10000.00
04900              -2.00   -10400.00
04901               8.20   -10400.00
04902              -2.60   -10600.00
04903              -7.00   -10800.00
04904               4.20   -10800.00
04905               5.20   -10800.00
04906              -9.80   -11000.00
04907               4.60   -11400.00
04908               4.40   -11400.00
04909              -7.00   -11600.00
04910              -1.20   -11600.00
04911               5.80   -11600.00
04912              -3.40   -12000.00
04913              -5.40   -12000.00
04914               7.40   -12200.00
04915              -0.40   -12200.00
04916              -6.00   -12400.00
04917               2.80   -12400.00
04918               2.20   -12600.00
04919              -5.40   -12800.00
04920               0.20   -12800.00
04921               3.60   -13000.00
04922              -2.20   -12800.00
04923              -2.20   -13200.00
04924               2.60   -13200.00
04925               1.20   -13200.00
04926              -4.20   -13200.00
04927               0.60   -13200.00
04928               2.20   -13400.00
04929              -2.20   -13600.00
04930              -1.20   -13600.00
04931               1.40   -13600.00
04932              -0.60   -13800.00
04933              -2.20   -13800.00
04934               1.40   -13800.00
04935               0.80   -13800.00
04936              -2.20   -13800.00
04937               0.40   -13800.00
04938               1.40   -14000.00
04939              -1.20   -14000.00
04940              -1.00   -14200.00
04941               1.00   -14000.00
04942               0.20   -14200.00
04943              -1.20   -14200.00
04944               0.00   -14200.00
04945               0.20   -14400.00
04946              -0.60   -14200.00
04947               0.20   -14200.00
04948              -0.20   -14400.00
04949              -0.40   -14200.00
04950              -0.40   -14400.00
04951               0.20   -14400.00
04952              -0.40   -14400.00
04953              -0.40   -14000.00
04954              -0.20   -14400.00
04955              -0.40   -14400.00
04956              -0.20   -14400.00
04957              -0.20   -14400.00
04958              -0.20   -14000.00
04959              -0.40   -14200.00
04960              -0.20   -14400.00
04961               0.20   -14200.00
04962               0.20   -14000.00
04963              -0.60   -14000.00
04964              -0.20   -14000.00
04965              -0.20   -14000.00
04966              -0.40   -13800.00
04967              -0.60   -13800.00
04968              -1.00   -13800.00
04969               1.00   -13800.00
04970              -1.40   -13600.00
04971              -0.60   -13600.00
04972               1.00   -13600.00
04973              -1.20   -13600.00
04974              -0.60   -13600.00
04975               0.80   -13400.00
04976              -1.20   -13400.00
04977              -1.20   -13200.00
04978               0.40   -13200.00
04979              -0.20   -13200.00
04980              -1.00   -12800.00
04981               0.20   -12800.00
04982              -0.20   -12800.00
04983              -1.00   -12800.00
04984              -0.20   -12800.00
04985              -0.20   -12600.00
04986              -1.00   -12400.00
04987              -0.20   -12400.00
04988               0.20   -12400.00
04989              -1.20   -12200.00
04990              -0.80   -12000.00
04991              -0.20   -12000.00
04992              -0.60   -11800.00
04993              -0.60   -11600.00
04994               0.00   -11600.00
04995              -0.60   -11400.00
04996              -0.20   -11200.00
04997               0.60   -11000.00
04998              -1.20   -11200.00
04999               0.00   -10800.00
05000              -0.60   -10800.00
