Unit:(mV)
                     CH1         CH2
Frequency              ? 234.071 kHz
00001              10.20     5400.00
00002              11.60     5400.00
00003               0.20     5400.00
00004               6.00     5600.00
00005              13.80     5600.00
00006               3.60     5400.00
00007               2.60     5600.00
00008              12.60     5600.00
00009               9.00     5600.00
00010               2.20     5600.00
00011               9.00     5600.00
00012              11.60     5600.00
00013               4.40     5600.00
00014               6.60     5600.00
00015              12.20     5800.00
00016               7.40     5600.00
00017               5.40     6000.00
00018              11.40     5600.00
00019              10.00     5800.00
00020               5.80     5600.00
00021               8.40     5800.00
00022              11.80     6000.00
00023               7.80     5800.00
00024               7.00     5800.00
00025              10.80     6000.00
00026              10.20     5800.00
00027               7.60     6000.00
00028               9.40     6000.00
00029              10.60     6000.00
00030               8.80     6000.00
00031               9.20     6000.00
00032              10.60     6000.00
00033              10.20     6000.00
00034               9.00     6000.00
00035               9.20     6000.00
00036              10.60     6000.00
00037              10.20     5800.00
00038               8.40     6000.00
00039               9.80     6000.00
00040              11.40     6000.00
00041               7.60     6000.00
00042               8.40     5800.00
00043              12.20     6000.00
00044               7.80     5600.00
00045               6.20     6000.00
00046              11.60     5800.00
00047               9.00     5800.00
00048               5.80     5800.00
00049              10.00     5600.00
00050              10.20     5600.00
00051               6.20     5600.00
00052               7.40     5600.00
00053               9.00     5600.00
00054               7.40     5600.00
00055               6.60     5600.00
00056               8.20     5600.00
00057               7.00     5600.00
00058               6.20     5600.00
00059               7.60     5400.00
00060               7.00     5400.00
00061               6.40     5400.00
00062               7.00     5400.00
00063               7.00     5200.00
00064               5.80     5200.00
00065               5.80     5400.00
00066               6.00     5200.00
00067               6.60     5200.00
00068               5.80     5000.00
00069               5.80     5200.00
00070               6.00     5000.00
00071               5.20     4800.00
00072               5.20     4800.00
00073               5.80     5000.00
00074               5.20     4800.00
00075               4.40     4800.00
00076               5.20     4600.00
00077               5.40     4600.00
00078               4.40     4600.00
00079               4.40     4600.00
00080               4.60     4400.00
00081               4.60     4400.00
00082               4.20     4400.00
00083               4.40     4200.00
00084               4.00     4200.00
00085               3.60     4000.00
00086               3.80     4000.00
00087               3.80     4000.00
00088               3.40     4000.00
00089               3.40     3800.00
00090               3.60     3800.00
00091               3.40     3800.00
00092               3.40     3800.00
00093               3.40     3600.00
00094               3.40     3600.00
00095               3.40     3600.00
00096               2.80     3600.00
00097               2.60     3400.00
00098               3.20     3400.00
00099               2.60     3200.00
00100               2.60     3200.00
00101               3.00     3000.00
00102               2.60     3000.00
00103               1.80     3000.00
00104               2.60     2800.00
00105               2.80     3000.00
00106               1.40     2800.00
00107               2.00     2800.00
00108               2.20     2600.00
00109               2.00     2400.00
00110               1.80     2400.00
00111               2.00     2400.00
00112               2.00     2200.00
00113               1.40     2200.00
00114               1.80     2200.00
00115               2.00     2000.00
00116               1.20     2000.00
00117               1.20     1800.00
00118               1.40     1800.00
00119               1.00     1800.00
00120               1.00     1600.00
00121               1.00     1800.00
00122               1.00     1400.00
00123               1.20     1400.00
00124               1.20     1200.00
00125               0.60     1400.00
00126               1.00     1000.00
00127               0.60     1000.00
00128               1.00     1000.00
00129               0.40      800.00
00130               0.40      800.00
00131               0.40      800.00
00132               0.60      600.00
00133               0.40      600.00
00134               0.20      400.00
00135               0.20      400.00
00136               0.20      400.00
00137               0.20      200.00
00138               0.00        0.00
00139               0.20        0.00
00140               0.40     -200.00
00141              -0.40     -200.00
00142               0.20     -200.00
00143               0.40     -400.00
00144              -0.20     -400.00
00145              -0.60     -400.00
00146              -0.60     -400.00
00147              -0.20     -600.00
00148               3.40     -800.00
00149              15.00     -800.00
00150             -14.60    -1000.00
00151             -25.00     -800.00
00152              25.00    -1000.00
00153              25.00    -1200.00
00154             -25.00    -1600.00
00155             -25.00    -1000.00
00156              25.00    -1600.00
00157              25.00    -1600.00
00158             -25.00    -1600.00
00159              -6.00    -1600.00
00160              25.00    -1800.00
00161             -25.00    -2000.00
00162             -25.00    -1600.00
00163              25.00    -2200.00
00164              25.00    -2400.00
00165             -25.00    -2000.00
00166             -11.60    -2400.00
00167              25.00    -2400.00
00168             -25.00    -2400.00
00169             -25.00    -2400.00
00170              25.00    -2600.00
00171              25.00    -2600.00
00172             -25.00    -2600.00
00173              25.00    -3000.00
00174              25.00    -2800.00
00175             -25.00    -2800.00
00176             -25.00    -3200.00
00177              25.00    -3200.00
00178              15.80    -3000.00
00179             -25.00    -3400.00
00180              -1.20    -3400.00
00181              25.00    -3400.00
00182             -24.60    -3600.00
00183             -25.00    -3600.00
00184              25.00    -3600.00
00185              24.00    -3600.00
00186             -25.00    -4000.00
00187              14.00    -3800.00
00188              25.00    -4000.00
00189             -25.00    -4000.00
00190             -13.00    -4000.00
00191              25.00    -4200.00
00192             -25.00    -4200.00
00193             -25.00    -4400.00
00194              25.00    -4400.00
00195              -6.20    -4400.00
00196             -25.00    -4400.00
00197               5.40    -4600.00
00198               5.80    -4400.00
00199             -17.00    -4400.00
00200              -8.40    -4600.00
00201               7.60    -4600.00
00202              -9.00    -4800.00
00203             -15.80    -4600.00
00204               4.80    -5000.00
00205              -2.00    -4800.00
00206             -18.00    -5000.00
00207              -1.40    -5000.00
00208               2.60    -5000.00
00209             -14.20    -5200.00
00210             -10.00    -5200.00
00211               3.00    -5000.00
00212              -7.80    -5200.00
00213             -15.00    -5200.00
00214              -0.20    -5400.00
00215              -2.00    -5600.00
00216             -16.60    -5400.00
00217              -6.00    -5600.00
00218               1.40    -5600.00
00219             -13.80    -5600.00
00220             -12.20    -5600.00
00221               0.20    -5600.00
00222              -7.80    -5800.00
00223             -14.60    -5600.00
00224              -4.80    -5800.00
00225              -4.20    -5800.00
00226             -13.40    -5800.00
00227              -9.20    -5600.00
00228              -3.80    -5800.00
00229             -10.80    -5800.00
00230             -11.80    -5800.00
00231              -5.20    -5800.00
00232              -8.20    -6000.00
00233             -12.80    -5800.00
00234              -8.60    -6000.00
00235              -6.20    -6000.00
00236             -11.40    -5800.00
00237             -11.40    -6000.00
00238              -7.20    -6000.00
00239              -9.40    -6000.00
00240             -11.80    -6000.00
00241              -9.20    -6000.00
00242              -9.20    -6000.00
00243             -11.40    -6200.00
00244             -10.20    -5800.00
00245              -9.20    -6000.00
00246             -11.00    -5800.00
00247             -10.80    -6000.00
00248              -9.80    -6000.00
00249             -10.20    -6000.00
00250             -10.80    -6000.00
00251             -10.20    -6000.00
00252             -10.60    -6000.00
00253             -10.20    -6000.00
00254              -9.80    -6000.00
00255             -10.00    -6000.00
00256             -10.20    -6000.00
00257              -9.40    -6000.00
00258              -9.40    -6000.00
00259              -9.40    -5800.00
00260              -9.60    -5800.00
00261              -9.20    -5800.00
00262              -8.60    -5800.00
00263              -8.60    -6000.00
00264              -8.60    -5800.00
00265              -8.40    -5800.00
00266              -8.60    -5800.00
00267              -8.20    -5800.00
00268              -7.40    -5800.00
00269              -8.40    -5600.00
00270              -8.20    -5600.00
00271              -7.00    -5600.00
00272              -7.40    -5600.00
00273              -7.80    -5400.00
00274              -7.00    -5600.00
00275              -6.80    -5400.00
00276              -7.00    -5600.00
00277              -7.00    -5600.00
00278              -6.20    -5400.00
00279              -6.60    -5200.00
00280              -6.60    -5400.00
00281              -6.20    -5200.00
00282              -6.00    -5000.00
00283              -6.80    -5000.00
00284              -6.20    -5000.00
00285              -5.40    -5000.00
00286              -5.80    -5000.00
00287              -6.40    -5000.00
00288              -6.00    -4800.00
00289              -5.60    -5000.00
00290              -5.40    -4600.00
00291              -5.60    -4600.00
00292              -5.20    -4600.00
00293              -5.00    -4600.00
00294              -4.80    -4400.00
00295              -5.20    -4400.00
00296              -4.40    -4400.00
00297              -5.20    -4400.00
00298              -5.20    -4400.00
00299              -4.40    -4200.00
00300              -4.20    -4200.00
00301              -5.00    -4200.00
00302              -4.20    -4000.00
00303              -3.80    -4000.00
00304              -4.20    -4000.00
00305              -4.40    -4000.00
00306              -3.80    -4000.00
00307              -3.60    -3800.00
00308              -3.80    -3600.00
00309              -3.40    -3600.00
00310              -3.60    -3400.00
00311              -3.80    -3600.00
00312              -3.20    -3400.00
00313              -2.80    -3400.00
00314              -3.40    -3400.00
00315              -3.20    -3200.00
00316              -3.00    -3200.00
00317              -2.80    -3000.00
00318              -2.80    -2800.00
00319              -3.20    -3000.00
00320              -2.00    -2800.00
00321              -2.60    -2800.00
00322              -2.80    -2800.00
00323              -2.20    -2600.00
00324              -2.20    -2600.00
00325              -2.60    -2400.00
00326              -2.00    -2400.00
00327              -2.00    -2400.00
00328              -2.00    -2200.00
00329              -2.20    -2000.00
00330              -2.60    -2000.00
00331              -1.20    -2000.00
00332              -1.80    -1800.00
00333              -2.20    -1800.00
00334              -1.20    -1800.00
00335              -1.20    -1800.00
00336              -1.80    -1600.00
00337              -1.40    -1600.00
00338              -1.00    -1200.00
00339              -1.40    -1200.00
00340              -1.20    -1200.00
00341              -0.60    -1200.00
00342              -1.20    -1000.00
00343              -1.20    -1000.00
00344              -1.00     -800.00
00345              -0.60     -800.00
00346              -1.00     -600.00
00347              -1.20     -800.00
00348              -0.60     -400.00
00349              -0.20     -400.00
00350              -1.00     -400.00
00351              -1.00     -400.00
00352              -0.40     -200.00
00353              -0.40        0.00
00354              -0.20     -200.00
00355              -0.20        0.00
00356               0.40        0.00
00357               0.80        0.00
00358              -0.40      200.00
00359              -0.40      400.00
00360               0.40      400.00
00361               0.20      600.00
00362               3.00      600.00
00363              13.20      800.00
00364              -4.60      800.00
00365             -25.00      800.00
00366              14.60     1000.00
00367              25.00     1200.00
00368             -11.80     1200.00
00369             -25.00     1200.00
00370              25.00     1400.00
00371              25.00     1800.00
00372             -25.00     1400.00
00373             -25.00     1800.00
00374              25.00     1800.00
00375              25.00     1800.00
00376             -25.00     2000.00
00377              25.00     2000.00
00378              25.00     2000.00
00379             -25.00     2200.00
00380             -25.00     2200.00
00381              25.00     2200.00
00382              14.60     2400.00
00383             -25.00     2600.00
00384              25.00     2400.00
00385              25.00     2600.00
00386             -25.00     2800.00
00387             -22.00     2600.00
00388              25.00     2800.00
00389             -11.00     2800.00
00390             -25.00     3000.00
00391              25.00     3000.00
00392              25.00     3200.00
00393             -25.00     3400.00
00394             -13.00     3200.00
00395              25.00     3200.00
00396              -4.60     3400.00
00397             -25.00     3400.00
00398              25.00     3600.00
00399              25.00     3800.00
00400             -25.00     3600.00
00401               2.40     3800.00
00402              25.00     3800.00
00403             -21.20     4000.00
00404             -23.60     4000.00
00405              25.00     4000.00
00406               5.80     4000.00
00407             -25.00     4200.00
00408              20.20     4000.00
00409              21.80     4400.00
00410             -18.20     4400.00
00411               2.00     4400.00
00412              23.40     4600.00
00413              -3.40     4600.00
00414              -5.80     4600.00
00415              16.40     4600.00
00416               8.20     4800.00
00417              -7.00     4800.00
00418               8.60     4600.00
00419              14.00     4800.00
00420              -2.60     4800.00
00421               1.20     5000.00
00422              15.40     5000.00
00423               5.20     5000.00
00424              -3.60     5000.00
00425              11.40     5200.00
00426              11.00     5200.00
00427              -1.40     5200.00
00428               6.20     5400.00
00429              14.00     5200.00
00430               2.20     5400.00
00431               2.00     5400.00
00432              13.80     5400.00
00433               7.00     5400.00
00434               0.40     5400.00
00435              10.60     5400.00
00436              11.60     5600.00
00437               2.60     5600.00
00438               6.60     5600.00
00439              12.20     5600.00
00440               6.20     5600.00
00441               5.00     5600.00
00442              10.80     5600.00
00443               9.40     5800.00
00444               4.60     5600.00
00445               9.80     5800.00
00446              11.80     5800.00
00447               5.60     6000.00
00448               7.80     5800.00
00449              12.00     6000.00
00450               8.60     6000.00
00451               7.40     6000.00
00452              10.20     6000.00
00453              10.40     6000.00
00454               8.40     5800.00
00455              10.00     6000.00
00456              10.20     6000.00
00457               8.80     6000.00
00458              10.40     6000.00
00459              10.60     6000.00
00460               9.80     6000.00
00461               9.20     6000.00
00462              10.60     6000.00
00463              10.80     6000.00
00464               9.00     6000.00
00465              10.20     5800.00
00466              10.80     6000.00
00467               9.00     6000.00
00468               9.80     6000.00
00469              10.40     6000.00
00470               9.00     5800.00
00471               8.40     5800.00
00472              10.00     5800.00
00473               9.20     6000.00
00474               7.80     5800.00
00475               9.00     5600.00
00476               9.20     5800.00
00477               7.80     5800.00
00478               7.60     5600.00
00479               7.80     5600.00
00480               7.40     5600.00
00481               8.40     5600.00
00482               8.20     5600.00
00483               7.40     5600.00
00484               6.60     5600.00
00485               7.60     5400.00
00486               6.80     5600.00
00487               6.60     5400.00
00488               6.60     5400.00
00489               6.60     5400.00
00490               6.20     5200.00
00491               6.20     5200.00
00492               6.60     5400.00
00493               6.00     5200.00
00494               5.80     5200.00
00495               6.00     5200.00
00496               6.00     5000.00
00497               5.00     5000.00
00498               5.60     4800.00
00499               6.00     5000.00
00500               5.20     4800.00
00501               4.40     4600.00
00502               5.20     4800.00
00503               5.40     4800.00
00504               4.20     4600.00
00505               4.20     4600.00
00506               5.40     4600.00
00507               4.60     4400.00
00508               3.60     4400.00
00509               5.00     4400.00
00510               5.00     4400.00
00511               3.40     4400.00
00512               4.00     4200.00
00513               5.00     4200.00
00514               3.80     4000.00
00515               3.40     3800.00
00516               3.80     4000.00
00517               3.60     3800.00
00518               3.40     3800.00
00519               3.40     3600.00
00520               3.40     3800.00
00521               3.40     3600.00
00522               2.80     3600.00
00523               3.60     3600.00
00524               3.40     3600.00
00525               2.60     3200.00
00526               2.80     3400.00
00527               3.40     3200.00
00528               2.60     3200.00
00529               2.60     3200.00
00530               2.60     3000.00
00531               2.80     3000.00
00532               2.20     2800.00
00533               2.20     2800.00
00534               2.20     2800.00
00535               2.00     2600.00
00536               2.00     2400.00
00537               2.20     2400.00
00538               2.00     2400.00
00539               1.80     2400.00
00540               2.00     2200.00
00541               1.80     2200.00
00542               1.60     2000.00
00543               1.40     2200.00
00544               1.20     2000.00
00545               1.20     2000.00
00546               1.40     1800.00
00547               1.00     1600.00
00548               1.00     1800.00
00549               1.00     1600.00
00550               1.00     1400.00
00551               1.00     1400.00
00552               0.80     1200.00
00553               0.40     1200.00
00554               0.60     1200.00
00555               1.00     1000.00
00556               0.60      800.00
00557               0.20      800.00
00558               0.40      800.00
00559               0.40      600.00
00560               0.20      600.00
00561              -0.20      400.00
00562               0.20      400.00
00563               0.20      200.00
00564              -0.20      200.00
00565              -0.40        0.00
00566               0.20        0.00
00567              -0.40     -200.00
00568              -0.40        0.00
00569               0.20     -200.00
00570               0.20     -200.00
00571              -0.20     -400.00
00572              -0.60     -400.00
00573              -0.40     -600.00
00574              -0.40     -600.00
00575               1.20     -600.00
00576              14.20     -800.00
00577              -2.20    -1200.00
00578             -25.00     -800.00
00579              25.00    -1000.00
00580              25.00    -1000.00
00581             -25.00    -1600.00
00582             -25.00    -1000.00
00583              25.00    -1400.00
00584              25.00    -1600.00
00585             -25.00    -1800.00
00586             -25.00    -1600.00
00587              25.00    -1600.00
00588              25.00    -2000.00
00589             -25.00    -1600.00
00590              25.00    -2000.00
00591              25.00    -2400.00
00592             -25.00    -2200.00
00593             -25.00    -2000.00
00594              25.00    -2400.00
00595              22.00    -2600.00
00596             -25.00    -2400.00
00597              25.00    -2600.00
00598              25.00    -2800.00
00599             -25.00    -2800.00
00600             -20.40    -2600.00
00601              25.00    -3000.00
00602             -25.00    -2800.00
00603             -25.00    -3200.00
00604              25.00    -3400.00
00605              25.00    -3200.00
00606             -25.00    -3400.00
00607             -25.00    -3400.00
00608              25.00    -3400.00
00609               2.00    -3400.00
00610             -25.00    -3600.00
00611              23.00    -3600.00
00612              25.00    -3600.00
00613             -25.00    -3800.00
00614             -14.60    -3800.00
00615              25.00    -3800.00
00616             -25.00    -4000.00
00617             -25.00    -4200.00
00618              25.00    -4000.00
00619              -8.80    -4000.00
00620             -25.00    -4200.00
00621              20.20    -4400.00
00622               6.80    -4200.00
00623             -25.00    -4400.00
00624              -1.20    -4400.00
00625              10.20    -4400.00
00626             -14.00    -4400.00
00627             -13.40    -4600.00
00628               6.60    -4600.00
00629              -3.00    -4600.00
00630             -18.20    -4800.00
00631               0.60    -5000.00
00632               2.60    -5000.00
00633             -17.20    -5000.00
00634              -6.60    -4600.00
00635               4.60    -5000.00
00636             -11.00    -5000.00
00637             -13.40    -5200.00
00638               1.80    -5200.00
00639              -3.80    -5200.00
00640             -15.80    -5200.00
00641              -4.00    -5400.00
00642               1.60    -5200.00
00643             -15.00    -5200.00
00644             -10.40    -5400.00
00645               2.80    -5600.00
00646              -9.80    -5600.00
00647             -15.00    -5600.00
00648              -0.80    -5600.00
00649              -3.80    -5600.00
00650             -15.00    -5800.00
00651              -7.00    -5600.00
00652              -2.20    -5600.00
00653             -12.40    -5600.00
00654             -11.00    -5600.00
00655              -3.00    -5800.00
00656              -9.00    -5600.00
00657             -13.00    -5800.00
00658              -6.20    -6000.00
00659              -6.40    -5800.00
00660             -12.20    -5800.00
00661             -10.00    -6000.00
00662              -6.00    -5800.00
00663              -9.60    -5800.00
00664             -12.40    -6000.00
00665              -7.40    -5800.00
00666              -8.20    -6000.00
00667             -12.20    -5800.00
00668              -9.20    -6000.00
00669              -8.40    -6000.00
00670             -11.80    -6000.00
00671             -10.60    -6000.00
00672              -8.40    -6000.00
00673             -11.60    -5800.00
00674             -10.20    -6000.00
00675             -10.00    -5800.00
00676             -11.00    -6000.00
00677              -9.80    -5800.00
00678             -10.20    -6000.00
00679             -11.40    -6000.00
00680              -9.80    -6000.00
00681             -10.00    -6000.00
00682             -10.20    -6000.00
00683              -9.80    -5800.00
00684             -10.20    -5800.00
00685              -9.40    -6000.00
00686              -9.20    -5800.00
00687              -9.40    -5800.00
00688              -9.40    -5800.00
00689              -8.80    -5800.00
00690              -8.60    -5800.00
00691              -9.40    -5800.00
00692              -8.40    -5800.00
00693              -8.20    -5800.00
00694              -8.80    -5600.00
00695              -7.80    -5800.00
00696              -7.60    -5800.00
00697              -9.00    -5600.00
00698              -7.40    -5600.00
00699              -6.80    -5600.00
00700              -8.20    -5600.00
00701              -7.60    -5600.00
00702              -6.80    -5600.00
00703              -7.00    -5400.00
00704              -7.40    -5400.00
00705              -6.60    -5200.00
00706              -6.20    -5200.00
00707              -7.20    -5200.00
00708              -6.40    -5200.00
00709              -5.80    -5200.00
00710              -6.60    -5000.00
00711              -6.60    -5000.00
00712              -6.00    -5000.00
00713              -5.00    -5000.00
00714              -5.80    -5000.00
00715              -6.80    -4800.00
00716              -5.00    -4600.00
00717              -5.00    -4800.00
00718              -5.80    -4600.00
00719              -5.00    -4600.00
00720              -4.80    -4600.00
00721              -5.00    -4400.00
00722              -5.00    -4600.00
00723              -4.60    -4400.00
00724              -5.00    -4400.00
00725              -5.00    -4400.00
00726              -4.40    -4200.00
00727              -3.80    -4200.00
00728              -4.40    -4200.00
00729              -4.40    -4000.00
00730              -3.80    -4000.00
00731              -4.00    -4000.00
00732              -4.20    -4000.00
00733              -4.20    -3800.00
00734              -3.60    -3800.00
00735              -3.80    -3600.00
00736              -3.80    -3600.00
00737              -3.40    -3600.00
00738              -3.80    -3400.00
00739              -3.60    -3400.00
00740              -2.80    -3400.00
00741              -3.00    -3400.00
00742              -3.80    -3200.00
00743              -3.00    -3200.00
00744              -2.80    -3000.00
00745              -3.60    -2800.00
00746              -2.80    -2800.00
00747              -2.20    -2800.00
00748              -3.20    -2800.00
00749              -2.80    -2600.00
00750              -1.80    -2600.00
00751              -3.40    -2400.00
00752              -2.20    -2400.00
00753              -1.40    -2400.00
00754              -2.80    -2200.00
00755              -2.20    -2400.00
00756              -2.00    -2200.00
00757              -2.60    -2000.00
00758              -1.20    -2000.00
00759              -2.20    -2000.00
00760              -2.20    -1800.00
00761              -1.00    -1600.00
00762              -2.20    -1600.00
00763              -2.60    -1600.00
00764               0.20    -1400.00
00765              -2.00    -1400.00
00766              -2.80    -1200.00
00767               0.60    -1200.00
00768              -1.40    -1000.00
00769              -2.80    -1000.00
00770               0.60    -1000.00
00771              -1.20    -1000.00
00772              -2.00     -800.00
00773              -0.20     -800.00
00774              -0.60     -600.00
00775              -1.20     -400.00
00776              -0.80     -400.00
00777              -0.60     -400.00
00778               0.20     -200.00
00779              -1.00     -200.00
00780              -1.20     -200.00
00781               1.40        0.00
00782              -0.60        0.00
00783              -1.40        0.00
00784               2.80      400.00
00785               0.40      400.00
00786              -2.20      400.00
00787               1.60      600.00
00788               1.20      400.00
00789               0.20      600.00
00790              11.40      800.00
00791               5.20      800.00
00792             -25.00      800.00
00793              -8.60      800.00
00794              25.00      800.00
00795              10.80     1200.00
00796             -25.00     1000.00
00797              15.40     1400.00
00798              25.00     1400.00
00799             -25.00     1600.00
00800             -25.00     1800.00
00801              25.00     1600.00
00802              25.00     1800.00
00803             -25.00     1800.00
00804             -15.60     2000.00
00805              25.00     2000.00
00806             -25.00     2000.00
00807             -25.00     2400.00
00808              25.00     2400.00
00809              25.00     2400.00
00810             -25.00     2600.00
00811              17.00     2400.00
00812              25.00     2600.00
00813             -25.00     2600.00
00814             -25.00     2800.00
00815              25.00     2800.00
00816              25.00     2800.00
00817             -25.00     3000.00
00818              19.40     3000.00
00819              25.00     3200.00
00820             -25.00     3200.00
00821             -25.00     3200.00
00822              25.00     3200.00
00823              20.60     3600.00
00824             -25.00     3600.00
00825              17.20     3600.00
00826              25.00     3800.00
00827             -25.00     3800.00
00828             -20.20     3800.00
00829              25.00     3800.00
00830              -2.20     3800.00
00831             -25.00     4000.00
00832              25.00     4000.00
00833              22.60     4000.00
00834             -25.00     4200.00
00835               7.60     4200.00
00836              25.00     4200.00
00837             -13.20     4400.00
00838              -7.00     4400.00
00839              23.40     4400.00
00840               3.80     4600.00
00841             -10.00     4600.00
00842              13.40     4600.00
00843              13.20     4600.00
00844              -6.80     4800.00
00845               4.60     4800.00
00846              15.60     4600.00
00847               1.00     4800.00
00848              -1.40     4800.00
00849              13.80     5200.00
00850               9.00     5000.00
00851              -2.80     5200.00
00852               7.60     5000.00
00853              13.00     5000.00
00854               0.60     5200.00
00855               2.80     5400.00
00856              14.00     5400.00
00857               5.40     5400.00
00858               1.00     5400.00
00859              11.60     5400.00
00860              10.20     5600.00
00861               1.00     5400.00
00862               7.60     5400.00
00863              13.20     5600.00
00864               4.20     5600.00
00865               4.20     5600.00
00866              12.00     5600.00
00867               8.40     5600.00
00868               3.60     5600.00
00869               9.80     5600.00
00870              10.80     5600.00
00871               5.20     5600.00
00872               7.80     5600.00
00873              11.60     5800.00
00874               7.40     6000.00
00875               5.80     5800.00
00876              11.40     6000.00
00877              10.60     6000.00
00878               6.60     5800.00
00879               9.20     5800.00
00880              11.00     6000.00
00881               8.40     6000.00
00882               8.40     6000.00
00883              10.80     6000.00
00884               9.60     5800.00
00885               8.40     6000.00
00886              10.60     6000.00
00887              10.20     6000.00
00888               9.00     6000.00
00889               9.40     6000.00
00890              10.80     6000.00
00891               9.40     6000.00
00892               9.20     6000.00
00893              10.60     5800.00
00894              10.00     6000.00
00895               9.20     6000.00
00896               9.80     6000.00
00897               9.20     6000.00
00898               9.00     5800.00
00899               9.00     6000.00
00900               9.20     6000.00
00901               8.80     6000.00
00902               8.20     5800.00
00903               8.00     5800.00
00904               8.60     5600.00
00905               7.80     5800.00
00906               7.80     5600.00
00907               8.40     5600.00
00908               8.60     5600.00
00909               7.40     5600.00
00910               7.60     5400.00
00911               7.40     5600.00
00912               6.80     5400.00
00913               7.40     5400.00
00914               7.00     5400.00
00915               6.00     5400.00
00916               7.00     5400.00
00917               6.80     5400.00
00918               6.40     5400.00
00919               6.60     5400.00
00920               6.80     5200.00
00921               5.80     5400.00
00922               5.80     5200.00
00923               6.40     5000.00
00924               5.20     5200.00
00925               5.00     5000.00
00926               6.20     4800.00
00927               5.80     4800.00
00928               5.00     4800.00
00929               5.20     4800.00
00930               5.20     4600.00
00931               5.00     4600.00
00932               4.40     4600.00
00933               4.60     4400.00
00934               4.60     4600.00
00935               4.20     4400.00
00936               4.20     4400.00
00937               5.00     4400.00
00938               3.80     4400.00
00939               3.40     4400.00
00940               4.40     4000.00
00941               4.00     4000.00
00942               3.40     4000.00
00943               3.80     4000.00
00944               3.80     4000.00
00945               3.20     3800.00
00946               3.00     3800.00
00947               3.00     3800.00
00948               3.00     3600.00
00949               2.80     3600.00
00950               3.40     3600.00
00951               3.20     3400.00
00952               2.60     3200.00
00953               2.40     3400.00
00954               2.80     3200.00
00955               2.80     3200.00
00956               2.20     3000.00
00957               2.60     3200.00
00958               2.60     3000.00
00959               2.20     2800.00
00960               2.00     2800.00
00961               2.00     2800.00
00962               2.00     2800.00
00963               2.00     2400.00
00964               2.00     2400.00
00965               2.20     2400.00
00966               1.80     2400.00
00967               1.40     2200.00
00968               2.00     2200.00
00969               1.80     2000.00
00970               1.00     2200.00
00971               1.40     2000.00
00972               1.80     1800.00
00973               1.20     1600.00
00974               1.20     1600.00
00975               1.40     1600.00
00976               1.00     1600.00
00977               1.00     1600.00
00978               1.40     1400.00
00979               1.00     1400.00
00980               0.40     1200.00
00981               1.20     1200.00
00982               0.60      800.00
00983               0.40      800.00
00984               0.60      800.00
00985               0.20      800.00
00986               0.20      600.00
00987               0.80      600.00
00988               0.20      400.00
00989               0.00      400.00
00990               0.60      400.00
00991               0.20      400.00
00992              -0.60        0.00
00993               0.40        0.00
00994               0.00        0.00
00995              -0.60        0.00
00996               0.00     -200.00
00997               0.40     -200.00
00998              -0.20     -400.00
00999              -0.60     -400.00
01000              -0.60     -400.00
01001              -0.60     -600.00
01002               0.40     -800.00
01003              10.80     -800.00
01004               6.40    -1000.00
01005             -25.00    -1000.00
01006              -2.60     -800.00
01007              25.00    -1000.00
01008               1.80    -1400.00
01009             -25.00    -1400.00
01010              25.00    -1200.00
01011              25.00    -1600.00
01012             -25.00    -1800.00
01013             -25.00    -1400.00
01014              25.00    -1600.00
01015              25.00    -2000.00
01016             -25.00    -1800.00
01017             -13.20    -2000.00
01018              25.00    -2000.00
01019             -25.00    -2400.00
01020             -25.00    -2000.00
01021              25.00    -2400.00
01022              25.00    -2600.00
01023             -25.00    -2200.00
01024              19.60    -2600.00
01025              25.00    -2600.00
01026             -25.00    -2800.00
01027             -25.00    -2600.00
01028              25.00    -3000.00
01029              17.20    -2800.00
01030             -25.00    -3000.00
01031              20.40    -3200.00
01032              25.00    -3200.00
01033             -25.00    -3200.00
01034             -25.00    -3400.00
01035              25.00    -3600.00
01036              25.00    -3400.00
01037             -25.00    -3600.00
01038              -2.80    -3600.00
01039              25.00    -3600.00
01040             -25.00    -3600.00
01041             -25.00    -3800.00
01042              25.00    -4000.00
01043              -7.00    -3800.00
01044             -25.00    -4000.00
01045              25.00    -4200.00
01046              13.20    -4200.00
01047             -25.00    -4200.00
01048               7.80    -4400.00
01049              18.60    -4200.00
01050             -25.00    -4400.00
01051              -9.80    -4400.00
01052              12.60    -4400.00
01053              -8.20    -4400.00
01054             -17.20    -4400.00
01055               3.00    -4800.00
01056               3.20    -4600.00
01057             -18.00    -4600.00
01058              -5.80    -4600.00
01059               6.60    -4800.00
01060             -13.80    -5000.00
01061             -11.80    -5000.00
01062               5.40    -5000.00
01063              -6.20    -5000.00
01064             -16.20    -5200.00
01065              -1.40    -5200.00
01066               0.40    -5200.00
01067             -15.00    -5200.00
01068              -9.00    -5200.00
01069               2.80    -5200.00
01070             -11.00    -5400.00
01071             -14.20    -5600.00
01072               1.00    -5400.00
01073              -5.40    -5400.00
01074             -15.80    -5600.00
01075              -5.00    -5600.00
01076              -1.80    -5600.00
01077             -13.40    -5600.00
01078             -10.40    -5600.00
01079              -2.20    -5800.00
01080              -9.20    -5800.00
01081             -13.60    -5800.00
01082              -5.00    -5800.00
01083              -6.60    -5800.00
01084             -13.60    -5800.00
01085              -7.60    -5800.00
01086              -5.40    -5800.00
01087             -12.20    -6000.00
01088             -10.80    -6000.00
01089              -6.60    -6000.00
01090              -9.40    -5800.00
01091             -11.40    -6000.00
01092              -8.60    -6000.00
01093              -7.80    -6000.00
01094              -9.60    -5800.00
01095             -10.60    -6000.00
01096             -11.40    -5800.00
01097              -6.60    -6000.00
01098             -16.40    -6000.00
01099             -10.00    -6000.00
01100              -7.80    -6000.00
01101             -11.00    -6000.00
01102              -7.00    -6000.00
01103             -10.20    -6000.00
01104              -9.80    -6000.00
01105             -12.00    -6000.00
01106             -10.80    -6000.00
01107             -11.80    -6000.00
01108             -12.40    -6000.00
01109              -9.00    -6000.00
01110              -7.40    -6000.00
01111              -9.80    -5800.00
01112              -8.40    -6000.00
01113              -7.40    -6000.00
01114             -12.20    -6000.00
01115             -10.60    -6000.00
01116             -11.60    -5800.00
01117              -9.40    -5800.00
01118              -5.80    -5800.00
01119             -10.00    -5800.00
01120              -7.20    -5800.00
01121              -5.00    -5600.00
01122              -9.40    -5800.00
01123              -9.20    -5800.00
01124              -9.20    -5600.00
01125              -7.40    -5600.00
01126              -7.00    -5800.00
01127              -9.40    -5400.00
01128              -6.20    -5400.00
01129              -6.00    -5600.00
01130              -7.60    -5600.00
01131              -7.40    -5600.00
01132              -6.60    -5400.00
01133              -7.00    -5200.00
01134              -7.00    -5200.00
01135              -6.80    -5200.00
01136              -6.20    -5200.00
01137              -5.80    -5200.00
01138              -8.20    -5000.00
01139              -6.00    -5000.00
01140              -3.00    -5000.00
01141              -6.20    -5000.00
01142              -9.00    -4600.00
01143              -3.00    -4800.00
01144              -6.00    -5000.00
01145              -8.40    -4600.00
01146              -3.80    -4600.00
01147              -4.20    -4600.00
01148              -7.20    -4600.00
01149              -3.80    -4400.00
01150              -3.00    -4400.00
01151              -6.60    -4400.00
01152              -5.20    -4400.00
01153              -4.00    -4400.00
01154              -4.60    -4200.00
01155              -5.40    -4200.00
01156              -4.20    -4200.00
01157              -3.80    -4200.00
01158              -4.40    -4000.00
01159              -3.80    -4000.00
01160              -3.60    -4000.00
01161              -4.40    -3800.00
01162              -5.00    -3600.00
01163              -3.20    -3600.00
01164              -3.40    -3600.00
01165              -3.80    -3600.00
01166              -3.00    -3600.00
01167              -2.20    -3400.00
01168              -3.60    -3400.00
01169              -3.00    -3200.00
01170              -2.20    -3200.00
01171              -3.60    -3000.00
01172              -3.40    -3200.00
01173              -2.00    -3000.00
01174              -3.00    -2800.00
01175              -3.00    -2800.00
01176              -1.80    -2800.00
01177              -2.40    -2600.00
01178              -2.80    -2400.00
01179              -1.80    -2400.00
01180              -2.20    -2400.00
01181              -2.40    -2400.00
01182              -2.20    -2200.00
01183              -2.00    -2400.00
01184              -2.00    -2000.00
01185              -2.00    -2000.00
01186              -1.60    -1800.00
01187              -1.00    -2000.00
01188              -2.20    -1800.00
01189              -2.20    -1600.00
01190              -0.60    -1600.00
01191              -1.60    -1600.00
01192              -2.20    -1200.00
01193              -0.60    -1600.00
01194              -1.20    -1200.00
01195              -2.00    -1200.00
01196              -1.00    -1000.00
01197              -0.60    -1000.00
01198              -1.40     -800.00
01199              -1.00     -800.00
01200              -0.20     -800.00
01201              -1.00     -600.00
01202              -1.40     -600.00
01203              -0.60     -400.00
01204              -0.40     -400.00
01205              -1.00     -400.00
01206              -1.00     -200.00
01207               0.40     -200.00
01208              -0.40        0.00
01209              -0.60        0.00
01210              -0.20      200.00
01211               0.60      200.00
01212              -0.20      200.00
01213              -0.40      400.00
01214               0.40      400.00
01215               0.60      600.00
01216               0.80      600.00
01217               7.40      800.00
01218              10.40     1200.00
01219             -25.00      800.00
01220             -25.00      800.00
01221              25.00     1200.00
01222              25.00     1200.00
01223             -25.00     1000.00
01224             -25.00     1400.00
01225              25.00     1400.00
01226              16.20     1600.00
01227             -25.00     1800.00
01228              25.00     1600.00
01229              25.00     2000.00
01230             -25.00     1800.00
01231             -25.00     2000.00
01232              25.00     2000.00
01233              25.00     2000.00
01234             -25.00     2200.00
01235              25.00     2200.00
01236              25.00     2400.00
01237             -25.00     2400.00
01238             -25.00     2600.00
01239              25.00     2400.00
01240              -8.80     2600.00
01241             -25.00     2800.00
01242              25.00     2600.00
01243              25.00     2800.00
01244             -25.00     3200.00
01245             -11.80     3000.00
01246              25.00     3200.00
01247              -9.20     3200.00
01248             -25.00     3400.00
01249              25.00     3200.00
01250              25.00     3600.00
01251             -25.00     3600.00
01252              -6.20     3400.00
01253              25.00     3600.00
01254             -13.00     3800.00
01255             -25.00     3800.00
01256              25.00     3600.00
01257              18.20     3800.00
01258             -25.00     4000.00
01259              16.40     4000.00
01260              25.00     4000.00
01261             -24.20     4000.00
01262              -6.60     4000.00
01263              25.00     4200.00
01264              -3.40     4400.00
01265             -14.20     4400.00
01266              19.40     4400.00
01267              12.20     4600.00
01268             -11.80     4600.00
01269               7.40     4600.00
01270              17.20     4600.00
01271              -3.80     4800.00
01272              -0.60     4800.00
01273              15.40     4800.00
01274               5.20     4800.00
01275              -4.20     4800.00
01276              10.80     4800.00
01277              11.40     4800.00
01278              -2.20     5200.00
01279               4.20     5200.00
01280              14.00     5000.00
01281               3.40     5400.00
01282               0.40     5200.00
01283              12.40     5200.00
01284               8.40     5400.00
01285              -0.20     5400.00
01286               9.20     5400.00
01287              12.20     5400.00
01288               1.40     5400.00
01289               5.20     5400.00
01290              13.60     5400.00
01291               5.80     5600.00
01292               3.20     5600.00
01293              10.80     5600.00
01294               9.40     5600.00
01295               4.20     5600.00
01296               9.00     5600.00
01297              10.60     5600.00
01298               6.40     5600.00
01299               7.00     5800.00
01300              11.20     5600.00
01301               9.00     5800.00
01302               5.80     5800.00
01303              10.00     5800.00
01304              11.60     5800.00
01305               7.40     6000.00
01306               8.20     6000.00
01307              11.40     6000.00
01308               9.20     6000.00
01309               8.20     6000.00
01310              10.80     6000.00
01311              10.20     6000.00
01312               8.60     5800.00
01313              10.20     6000.00
01314              10.60     6000.00
01315               9.20     6000.00
01316               9.60     6000.00
01317              10.60     5800.00
01318              10.00     5800.00
01319               9.80     6000.00
01320              10.00     6000.00
01321              10.00     6000.00
01322               9.40     6000.00
01323               9.80     5800.00
01324               9.60     5800.00
01325               9.00     6000.00
01326               9.00     6000.00
01327               9.40     5600.00
01328               8.80     5800.00
01329               8.20     5600.00
01330               7.80     5600.00
01331               9.00     5600.00
01332               8.40     5600.00
01333               8.20     5600.00
01334               8.40     5800.00
01335               8.20     5600.00
01336               7.00     5600.00
01337               7.80     5600.00
01338               7.40     5400.00
01339               6.20     5400.00
01340               7.00     5600.00
01341               7.40     5400.00
01342               6.00     5400.00
01343               6.60     5400.00
01344               7.00     5200.00
01345               6.00     5400.00
01346               6.00     5400.00
01347               6.60     5200.00
01348               5.80     5200.00
01349               5.40     5200.00
01350               6.00     5000.00
01351               5.80     4800.00
01352               5.20     5000.00
01353               5.40     5000.00
01354               6.00     4800.00
01355               5.20     4800.00
01356               5.00     4800.00
01357               5.20     4600.00
01358               4.80     4800.00
01359               4.60     4600.00
01360               4.60     4600.00
01361               5.00     4400.00
01362               4.20     4400.00
01363               4.40     4400.00
01364               4.60     4400.00
01365               4.20     4400.00
01366               3.60     4200.00
01367               4.20     4200.00
01368               4.60     4200.00
01369               3.40     4000.00
01370               3.60     4000.00
01371               4.00     3800.00
01372               3.60     4000.00
01373               3.60     3800.00
01374               3.60     3800.00
01375               3.00     3600.00
01376               3.00     3600.00
01377               3.40     3600.00
01378               3.40     3400.00
01379               3.00     3400.00
01380               2.40     3200.00
01381               3.00     3200.00
01382               3.40     3200.00
01383               2.00     3200.00
01384               2.00     3000.00
01385               3.20     3000.00
01386               2.60     3000.00
01387               1.40     2800.00
01388               2.60     2800.00
01389               2.00     2800.00
01390               1.20     2600.00
01391               2.80     2600.00
01392               2.00     2400.00
01393               1.20     2400.00
01394               1.80     2200.00
01395               2.00     2200.00
01396               1.20     2200.00
01397               2.00     2000.00
01398               1.20     2000.00
01399               0.40     2000.00
01400               2.20     1800.00
01401               1.00     1600.00
01402               0.80     1600.00
01403               1.20     1400.00
01404               0.60     1400.00
01405               0.60     1600.00
01406               1.20     1400.00
01407               0.40     1200.00
01408               0.00     1200.00
01409               1.40      800.00
01410               1.20      800.00
01411              -1.00     1000.00
01412               1.00      800.00
01413               1.00      600.00
01414              -1.00      600.00
01415               0.40      400.00
01416               1.00      400.00
01417              -0.40      400.00
01418              -0.20      400.00
01419               0.60      200.00
01420              -0.60        0.00
01421               0.20        0.00
01422              -0.20        0.00
01423              -0.60     -200.00
01424               0.60     -200.00
01425              -0.20     -200.00
01426              -0.60     -400.00
01427              -0.20     -400.00
01428              -0.60     -400.00
01429              -0.60     -400.00
01430               7.40     -800.00
01431              12.00    -1000.00
01432             -25.00    -1000.00
01433             -25.00     -800.00
01434              25.00    -1000.00
01435              24.40    -1200.00
01436             -25.00    -1400.00
01437             -17.20    -1200.00
01438              25.00    -1600.00
01439              -4.60    -1800.00
01440             -25.00    -1600.00
01441              25.00    -1800.00
01442              25.00    -1800.00
01443             -25.00    -2000.00
01444             -25.00    -1600.00
01445              25.00    -2000.00
01446              25.00    -2200.00
01447             -25.00    -2000.00
01448              25.00    -2400.00
01449              25.00    -2400.00
01450             -25.00    -2400.00
01451             -25.00    -2400.00
01452              25.00    -2600.00
01453             -15.00    -2800.00
01454             -25.00    -2600.00
01455              25.00    -3000.00
01456              25.00    -3000.00
01457             -25.00    -2800.00
01458              -9.40    -3200.00
01459              25.00    -3200.00
01460             -17.00    -3200.00
01461             -25.00    -3400.00
01462              25.00    -3400.00
01463              25.00    -3400.00
01464             -25.00    -3600.00
01465             -25.00    -3600.00
01466              25.00    -3600.00
01467             -10.80    -3600.00
01468             -25.00    -4000.00
01469              25.00    -4000.00
01470              19.80    -4000.00
01471             -25.00    -4000.00
01472              14.80    -4200.00
01473              25.00    -4000.00
01474             -25.00    -4200.00
01475              -7.40    -4400.00
01476              25.00    -4200.00
01477             -19.40    -4200.00
01478             -18.20    -4400.00
01479              10.80    -4400.00
01480              -1.80    -4400.00
01481             -19.00    -4400.00
01482              -1.80    -4600.00
01483               6.00    -4600.00
01484             -15.00    -4800.00
01485             -10.20    -4600.00
01486               6.80    -4800.00
01487              -9.20    -4600.00
01488             -15.60    -4800.00
01489               2.80    -4800.00
01490              -1.80    -5000.00
01491             -16.20    -5200.00
01492              -5.00    -5000.00
01493               2.20    -5200.00
01494             -12.40    -5200.00
01495             -11.80    -5400.00
01496               2.60    -5400.00
01497              -7.00    -5200.00
01498             -16.20    -5400.00
01499              -1.40    -5600.00
01500              -2.00    -5600.00
01501             -16.20    -5600.00
01502              -7.80    -5600.00
01503               0.40    -5600.00
01504             -11.40    -5800.00
01505             -12.60    -5600.00
01506              -2.20    -5600.00
01507              -6.80    -5600.00
01508             -14.00    -5600.00
01509              -6.00    -6000.00
01510              -4.80    -5800.00
01511             -12.60    -6000.00
01512              -9.80    -5800.00
01513              -4.60    -6000.00
01514             -10.20    -5800.00
01515             -12.20    -5800.00
01516              -7.00    -6000.00
01517              -7.40    -6000.00
01518             -12.20    -6000.00
01519             -10.00    -5800.00
01520              -7.80    -6000.00
01521             -10.20    -5800.00
01522             -11.40    -6000.00
01523              -9.00    -6000.00
01524              -9.80    -6000.00
01525             -11.00    -6000.00
01526             -10.00    -6000.00
01527              -9.80    -6000.00
01528             -10.80    -6000.00
01529             -10.80    -6000.00
01530              -9.80    -6000.00
01531             -10.80    -6000.00
01532             -10.20    -6000.00
01533             -10.20    -6200.00
01534             -10.80    -6000.00
01535             -10.00    -6000.00
01536              -9.20    -6000.00
01537             -11.00    -6000.00
01538             -10.20    -6000.00
01539              -8.60    -5800.00
01540             -10.20    -5800.00
01541              -9.40    -6000.00
01542              -9.80    -6000.00
01543              -8.60    -5800.00
01544              -9.00    -5800.00
01545              -8.80    -5800.00
01546              -8.40    -5800.00
01547              -8.60    -5800.00
01548              -8.80    -5800.00
01549              -7.60    -5800.00
01550              -7.80    -5600.00
01551              -9.20    -5600.00
01552              -7.00    -5600.00
01553              -7.00    -5600.00
01554              -7.80    -5600.00
01555              -7.60    -5600.00
01556              -7.40    -5600.00
01557              -7.00    -5600.00
01558              -6.60    -5600.00
01559              -7.00    -5400.00
01560              -7.00    -5200.00
01561              -6.20    -5200.00
01562              -6.80    -5200.00
01563              -6.80    -5200.00
01564              -5.20    -5200.00
01565              -6.20    -5200.00
01566              -6.60    -5200.00
01567              -4.60    -4800.00
01568              -5.20    -4800.00
01569              -7.60    -4600.00
01570              -4.60    -4800.00
01571              -4.80    -4600.00
01572              -6.20    -4600.00
01573              -5.00    -4600.00
01574              -4.20    -4600.00
01575              -6.20    -4600.00
01576              -5.20    -4400.00
01577              -3.80    -4400.00
01578              -5.00    -4400.00
01579              -5.20    -4400.00
01580              -4.20    -4400.00
01581              -4.40    -4200.00
01582              -4.40    -4200.00
01583              -4.40    -4200.00
01584              -4.20    -4000.00
01585              -3.80    -4000.00
01586              -4.20    -4000.00
01587              -4.60    -3800.00
01588              -3.80    -3800.00
01589              -3.80    -3600.00
01590              -4.20    -3600.00
01591              -3.60    -3600.00
01592              -3.60    -3600.00
01593              -3.80    -3600.00
01594              -3.40    -3400.00
01595              -2.80    -3200.00
01596              -3.40    -3200.00
01597              -3.60    -3200.00
01598              -2.60    -3200.00
01599              -2.80    -3200.00
01600              -3.20    -2800.00
01601              -2.80    -2800.00
01602              -2.60    -2800.00
01603              -2.80    -2800.00
01604              -2.80    -2600.00
01605              -2.60    -2800.00
01606              -2.60    -2600.00
01607              -2.60    -2600.00
01608              -2.60    -2400.00
01609              -2.00    -2400.00
01610              -2.20    -2000.00
01611              -2.20    -2000.00
01612              -1.80    -2000.00
01613              -1.80    -1800.00
01614              -2.00    -1800.00
01615              -1.40    -1800.00
01616              -2.00    -1800.00
01617              -1.60    -1600.00
01618              -1.20    -1600.00
01619              -1.40    -1600.00
01620              -2.00    -1400.00
01621              -1.20    -1400.00
01622              -1.00    -1200.00
01623              -1.60    -1000.00
01624              -1.00    -1000.00
01625              -0.60    -1000.00
01626              -1.20     -800.00
01627              -0.80     -800.00
01628              -0.40     -800.00
01629              -1.20     -600.00
01630              -0.60     -400.00
01631              -0.20     -400.00
01632              -1.00     -400.00
01633              -0.60     -200.00
01634               0.20     -200.00
01635              -0.60     -200.00
01636              -0.60        0.00
01637               0.40        0.00
01638               0.60        0.00
01639               0.00      400.00
01640               0.20      200.00
01641               0.20      400.00
01642               0.00      400.00
01643               1.20      600.00
01644               6.00      800.00
01645              13.00     1000.00
01646             -16.40      800.00
01647             -25.00      800.00
01648              25.00      800.00
01649              25.00     1200.00
01650             -25.00     1200.00
01651             -25.00     1400.00
01652              25.00     1200.00
01653              25.00     1800.00
01654             -25.00     1400.00
01655              -8.40     1800.00
01656              25.00     1800.00
01657             -21.80     1800.00
01658             -25.00     2000.00
01659              25.00     2000.00
01660              25.00     2000.00
01661             -25.00     2200.00
01662               5.60     2200.00
01663              25.00     2400.00
01664             -25.00     2200.00
01665             -25.00     2800.00
01666              25.00     2400.00
01667              25.00     2600.00
01668             -25.00     2800.00
01669              25.00     2800.00
01670              25.00     3000.00
01671             -25.00     3000.00
01672             -25.00     3000.00
01673              25.00     3200.00
01674              21.00     3200.00
01675             -25.00     3200.00
01676              16.60     3200.00
01677              25.00     3400.00
01678             -25.00     3600.00
01679             -25.00     3600.00
01680              25.00     3600.00
01681               9.80     3800.00
01682             -25.00     3600.00
01683              25.00     3800.00
01684              25.00     4000.00
01685             -25.00     4000.00
01686              -2.20     3800.00
01687              25.00     4000.00
01688             -13.00     4000.00
01689             -18.80     4200.00
01690              25.00     4200.00
01691               8.20     4400.00
01692             -18.80     4400.00
01693              13.20     4400.00
01694              19.40     4600.00
01695             -10.00     4600.00
01696               1.40     4400.00
01697              18.80     4600.00
01698               0.40     4600.00
01699              -4.60     4800.00
01700              14.20     4800.00
01701               9.40     4800.00
01702              -4.80     4800.00
01703               8.00     4800.00
01704              14.20     5000.00
01705               0.20     5000.00
01706               1.40     5200.00
01707              14.00     5200.00
01708               6.00     5200.00
01709              -0.40     5200.00
01710              10.20     5200.00
01711              10.80     5600.00
01712               0.60     5400.00
01713               5.80     5400.00
01714              13.60     5400.00
01715               3.60     5400.00
01716               2.40     5400.00
01717              13.00     5400.00
01718               8.80     5600.00
01719               1.40     5600.00
01720              10.00     5600.00
01721              11.80     5600.00
01722               3.00     5600.00
01723               7.40     5600.00
01724              12.60     5600.00
01725               5.80     5600.00
01726               5.80     5600.00
01727              12.00     5800.00
01728               9.20     6000.00
01729               5.20     5800.00
01730              10.00     6000.00
01731              10.80     6000.00
01732               7.00     6000.00
01733               7.60     5800.00
01734              11.00     6000.00
01735               9.40     6000.00
01736               7.80     6000.00
01737              10.60     6000.00
01738              10.40     6000.00
01739               8.60     6000.00
01740               9.80     6000.00
01741              10.20     6000.00
01742               9.60     6000.00
01743               9.40     5800.00
01744              10.60     6000.00
01745              10.20     6000.00
01746               9.40     6000.00
01747              10.00     5800.00
01748               9.80     6000.00
01749               9.40     5800.00
01750              10.60     6000.00
01751               9.40     5800.00
01752               8.60     6000.00
01753              10.00     6000.00
01754               9.40     5800.00
01755               7.80     6000.00
01756               9.00     5600.00
01757               9.00     5800.00
01758               8.20     5600.00
01759               9.00     5600.00
01760               9.00     5600.00
01761               7.00     5600.00
01762               7.20     5600.00
01763               8.60     5600.00
01764               7.40     5600.00
01765               7.00     5600.00
01766               7.40     5600.00
01767               7.40     5400.00
01768               7.40     5400.00
01769               6.80     5600.00
01770               6.60     5400.00
01771               6.80     5400.00
01772               6.20     5600.00
01773               6.00     5400.00
01774               6.80     5200.00
01775               5.80     5200.00
01776               5.40     5200.00
01777               6.00     5000.00
01778               6.20     5000.00
01779               4.60     4800.00
01780               5.20     5000.00
01781               6.20     4800.00
01782               5.00     4800.00
01783               4.60     4800.00
01784               5.20     4800.00
01785               5.20     4600.00
01786               4.40     4800.00
01787               5.00     4400.00
01788               5.00     4600.00
01789               3.80     4400.00
01790               4.20     4400.00
01791               4.60     4400.00
01792               4.20     4200.00
01793               3.60     4200.00
01794               4.20     4400.00
01795               4.20     4200.00
01796               3.60     4000.00
01797               3.40     4000.00
01798               3.80     4000.00
01799               3.60     3800.00
01800               3.00     3800.00
01801               3.40     3800.00
01802               3.00     3800.00
01803               2.60     3600.00
01804               3.00     3600.00
01805               3.40     3400.00
01806               3.20     3600.00
01807               2.00     3400.00
01808               2.80     3200.00
01809               3.60     3200.00
01810               2.00     3000.00
01811               2.20     3000.00
01812               3.00     3000.00
01813               2.20     2800.00
01814               1.80     2800.00
01815               2.60     2800.00
01816               2.20     2600.00
01817               1.80     2600.00
01818               2.40     2400.00
01819               2.00     2400.00
01820               1.40     2400.00
01821               1.80     2200.00
01822               2.00     2200.00
01823               1.80     2200.00
01824               1.40     2200.00
01825               1.40     2000.00
01826               1.40     2000.00
01827               1.20     1800.00
01828               1.40     1800.00
01829               1.20     1800.00
01830               1.00     1600.00
01831               1.00     1400.00
01832               1.00     1400.00
01833               0.80     1400.00
01834               0.60     1200.00
01835               0.60     1200.00
01836               0.60      800.00
01837               0.60      800.00
01838               0.60      800.00
01839               0.40      800.00
01840               0.40      800.00
01841               0.40      600.00
01842               0.40      800.00
01843               0.20      400.00
01844              -0.20      400.00
01845               0.00      200.00
01846               0.20      200.00
01847              -0.40      200.00
01848               0.20        0.00
01849              -0.20     -200.00
01850              -0.60     -200.00
01851               0.20        0.00
01852               0.20     -400.00
01853              -0.20     -400.00
01854              -1.00     -400.00
01855              -1.00     -600.00
01856              -0.20     -600.00
01857               3.60     -600.00
01858              14.80    -1000.00
01859             -17.40    -1200.00
01860             -25.00     -800.00
01861              25.00    -1000.00
01862              25.00    -1000.00
01863             -25.00    -1600.00
01864             -25.00    -1000.00
01865              25.00    -1400.00
01866              25.00    -1600.00
01867             -25.00    -1600.00
01868               5.80    -1600.00
01869              25.00    -1800.00
01870             -25.00    -2200.00
01871             -25.00    -1600.00
01872              25.00    -2000.00
01873              25.00    -2200.00
01874             -25.00    -2000.00
01875               2.00    -2200.00
01876              25.00    -2400.00
01877             -25.00    -2400.00
01878             -25.00    -2400.00
01879              25.00    -2600.00
01880              25.00    -2800.00
01881             -25.00    -2600.00
01882              25.00    -3000.00
01883              25.00    -2800.00
01884             -25.00    -2800.00
01885             -25.00    -3200.00
01886              25.00    -3200.00
01887              10.40    -3000.00
01888             -25.00    -3400.00
01889               3.60    -3400.00
01890              25.00    -3400.00
01891             -25.00    -3400.00
01892             -25.00    -3600.00
01893              25.00    -3600.00
01894              19.00    -3600.00
01895             -25.00    -3600.00
01896              19.40    -4000.00
01897              25.00    -3800.00
01898             -25.00    -4000.00
01899              -8.40    -4000.00
01900              25.00    -4000.00
01901             -25.00    -4000.00
01902             -23.00    -4400.00
01903              25.00    -4200.00
01904              -8.40    -4400.00
01905             -24.40    -4400.00
01906               7.00    -4400.00
01907               4.60    -4400.00
01908             -18.00    -4600.00
01909              -7.00    -4600.00
01910               7.60    -4800.00
01911             -10.40    -4600.00
01912             -15.00    -4600.00
01913               5.20    -5000.00
01914              -3.60    -5000.00
01915             -17.40    -5000.00
01916              -0.60    -5000.00
01917               1.40    -4800.00
01918             -14.80    -5000.00
01919              -9.00    -5000.00
01920               2.80    -5200.00
01921              -8.60    -5000.00
01922             -15.00    -5200.00
01923               0.40    -5400.00
01924              -3.00    -5200.00
01925             -16.60    -5400.00
01926              -5.20    -5400.00
01927               1.00    -5600.00
01928             -14.00    -5600.00
01929             -11.40    -5600.00
01930               0.40    -5600.00
01931              -8.60    -5800.00
01932             -14.80    -5600.00
01933              -4.40    -5600.00
01934              -4.20    -5800.00
01935             -14.00    -5600.00
01936              -8.40    -5800.00
01937              -3.60    -5800.00
01938             -11.00    -6000.00
01939             -11.80    -5800.00
01940              -4.60    -5800.00
01941              -8.40    -5800.00
01942             -13.20    -5800.00
01943              -8.20    -5800.00
01944              -6.80    -6000.00
01945             -11.80    -5800.00
01946             -10.80    -5800.00
01947              -7.00    -6000.00
01948              -9.80    -5800.00
01949             -10.80    -6000.00
01950              -8.60    -6000.00
01951             -10.20    -6000.00
01952             -11.00    -6000.00
01953              -9.00    -6000.00
01954              -9.80    -6000.00
01955             -11.60    -6000.00
01956              -9.40    -6000.00
01957             -10.00    -6000.00
01958             -12.00    -6000.00
01959              -9.40    -6000.00
01960              -8.80    -6000.00
01961             -12.80    -6000.00
01962             -10.20    -5800.00
01963              -7.00    -6000.00
01964             -11.00    -6000.00
01965             -11.60    -5800.00
01966              -7.80    -5800.00
01967              -8.80    -6000.00
01968             -11.00    -6000.00
01969              -9.40    -5800.00
01970              -7.60    -5800.00
01971              -9.20    -5800.00
01972             -10.00    -5800.00
01973              -7.80    -5600.00
01974              -8.20    -5800.00
01975             -10.20    -5800.00
01976              -8.20    -5600.00
01977              -6.60    -5600.00
01978              -9.20    -5800.00
01979              -8.40    -5600.00
01980              -6.60    -5800.00
01981              -8.20    -5600.00
01982              -8.60    -5600.00
01983              -6.20    -5600.00
01984              -6.80    -5600.00
01985              -8.20    -5600.00
01986              -6.80    -5400.00
01987              -6.00    -5400.00
01988              -7.80    -5200.00
01989              -6.80    -5000.00
01990              -5.80    -5200.00
01991              -7.00    -5000.00
01992              -7.40    -5200.00
01993              -5.20    -5000.00
01994              -5.20    -5000.00
01995              -6.80    -5000.00
01996              -6.60    -4600.00
01997              -4.60    -4600.00
01998              -5.80    -4600.00
01999              -6.00    -4800.00
02000              -5.00    -4600.00
02001              -4.80    -4600.00
02002              -6.20    -4600.00
02003              -4.60    -4600.00
02004              -4.20    -4400.00
02005              -5.40    -4400.00
02006              -5.20    -4400.00
02007              -4.20    -4200.00
02008              -4.80    -4400.00
02009              -4.40    -4200.00
02010              -4.20    -4200.00
02011              -4.40    -4000.00
02012              -3.80    -4000.00
02013              -3.80    -4000.00
02014              -4.20    -3800.00
02015              -4.00    -3800.00
02016              -3.80    -3800.00
02017              -3.40    -3600.00
02018              -3.80    -3600.00
02019              -3.80    -3400.00
02020              -3.00    -3600.00
02021              -3.60    -3600.00
02022              -3.20    -3200.00
02023              -2.80    -3400.00
02024              -3.40    -3200.00
02025              -3.00    -3200.00
02026              -3.00    -3200.00
02027              -2.20    -3200.00
02028              -2.80    -2800.00
02029              -2.60    -2800.00
02030              -2.60    -2600.00
02031              -2.40    -2800.00
02032              -2.60    -2600.00
02033              -2.60    -2600.00
02034              -2.20    -2400.00
02035              -2.80    -2400.00
02036              -1.20    -2400.00
02037              -2.20    -2200.00
02038              -2.80    -2000.00
02039              -1.60    -2000.00
02040              -1.80    -2000.00
02041              -2.00    -1800.00
02042              -2.20    -1800.00
02043              -1.80    -1600.00
02044              -1.40    -1600.00
02045              -2.20    -1600.00
02046              -1.40    -1400.00
02047              -1.20    -1400.00
02048              -1.60    -1200.00
02049              -0.60    -1200.00
02050              -0.40    -1000.00
02051              -0.60    -1000.00
02052              -1.40     -800.00
02053              -1.20     -600.00
02054              -2.00     -800.00
02055              -2.00     -600.00
02056              -2.00     -800.00
02057              -0.20     -600.00
02058               0.40     -400.00
02059               0.20     -400.00
02060               0.20     -200.00
02061               0.60     -200.00
02062              -2.60        0.00
02063              -1.20        0.00
02064              -0.40        0.00
02065              -1.20      400.00
02066               0.80      400.00
02067               2.00      400.00
02068               0.60      600.00
02069               0.60      600.00
02070               1.60      400.00
02071               2.60      600.00
02072              11.80      800.00
02073              -6.60      800.00
02074             -25.00      800.00
02075              20.00     1000.00
02076              25.00     1200.00
02077             -17.20     1200.00
02078             -25.00     1200.00
02079              25.00     1400.00
02080              25.00     1600.00
02081             -25.00     1400.00
02082             -25.00     1800.00
02083              25.00     1800.00
02084              25.00     1800.00
02085             -25.00     1800.00
02086              25.00     2000.00
02087              25.00     2000.00
02088             -25.00     2200.00
02089             -25.00     2400.00
02090              25.00     2400.00
02091               2.20     2200.00
02092             -25.00     2600.00
02093              25.00     2400.00
02094              25.00     2600.00
02095             -25.00     2800.00
02096             -12.40     2800.00
02097              25.00     2800.00
02098             -19.60     3000.00
02099             -25.00     3000.00
02100              25.00     3000.00
02101              25.00     3200.00
02102             -25.00     3200.00
02103              -7.80     3200.00
02104              25.00     3200.00
02105             -10.40     3400.00
02106             -25.00     3600.00
02107              25.00     3600.00
02108              25.00     3600.00
02109             -25.00     3800.00
02110               7.40     3600.00
02111              25.00     3800.00
02112             -25.00     4000.00
02113             -20.60     4000.00
02114              25.00     4000.00
02115               2.60     4000.00
02116             -25.00     4200.00
02117              22.80     4200.00
02118              20.20     4400.00
02119             -19.60     4400.00
02120               3.80     4400.00
02121              23.40     4400.00
02122              -6.00     4600.00
02123              -5.00     4600.00
02124              18.20     4600.00
02125               6.60     4600.00
02126              -7.60     4800.00
02127              10.80     4800.00
02128              13.20     4800.00
02129              -4.40     4800.00
02130               3.00     5200.00
02131              15.40     5000.00
02132               2.80     5000.00
02133              -2.20     5200.00
02134              13.00     5200.00
02135               9.40     5400.00
02136              -1.80     5400.00
02137               8.20     5200.00
02138              13.00     5400.00
02139               1.00     5400.00
02140               3.80     5400.00
02141              13.60     5600.00
02142               5.80     5400.00
02143               1.20     5400.00
02144              11.40     5400.00
02145              11.00     5600.00
02146               2.40     5600.00
02147               7.60     5600.00
02148              12.20     5600.00
02149               5.40     5600.00
02150               5.20     5600.00
02151              11.60     5600.00
02152               8.60     5600.00
02153               5.00     5800.00
02154              10.20     5800.00
02155              11.00     5800.00
02156               6.20     6000.00
02157               7.60     5800.00
02158              11.60     6000.00
02159               9.00     5800.00
02160               6.60     6000.00
02161              10.60     5800.00
02162              10.80     6000.00
02163               8.20     6000.00
02164               9.40     6000.00
02165              11.00     6000.00
02166               9.00     6000.00
02167               9.00     6000.00
02168              11.00     6000.00
02169               9.80     5800.00
02170               9.00     6000.00
02171              10.00     5800.00
02172              10.60     6000.00
02173               9.40     6000.00
02174               9.40     6000.00
02175              10.00     6000.00
02176               9.80     6000.00
02177               9.20     5800.00
02178               9.60     6000.00
02179               9.20     6000.00
02180               9.00     5800.00
02181               9.00     5600.00
02182               9.20     5800.00
02183               8.20     5800.00
02184               7.80     5800.00
02185               9.20     5600.00
02186               8.60     5600.00
02187               7.60     5600.00
02188               7.80     5600.00
02189               8.40     5600.00
02190               6.80     5600.00
02191               7.40     5600.00
02192               8.00     5600.00
02193               6.60     5400.00
02194               6.60     5400.00
02195               8.40     5400.00
02196               6.80     5600.00
02197               5.60     5400.00
02198               7.40     5400.00
02199               7.00     5400.00
02200               5.40     5400.00
02201               6.60     5200.00
02202               6.40     5200.00
02203               5.40     5000.00
02204               5.80     5200.00
02205               6.40     5000.00
02206               5.20     5200.00
02207               5.00     5200.00
02208               6.00     4800.00
02209               5.40     4800.00
02210               4.60     4800.00
02211               5.20     4800.00
02212               5.60     4800.00
02213               4.80     4600.00
02214               4.60     4600.00
02215               5.40     4600.00
02216               4.40     4400.00
02217               4.00     4400.00
02218               5.20     4400.00
02219               4.20     4400.00
02220               4.20     4400.00
02221               4.20     4200.00
02222               4.20     4000.00
02223               3.80     4000.00
02224               3.80     4000.00
02225               3.60     4000.00
02226               3.60     3800.00
02227               3.60     3800.00
02228               3.60     3800.00
02229               3.40     3800.00
02230               3.40     3800.00
02231               3.40     3600.00
02232               3.40     3600.00
02233               3.00     3400.00
02234               2.80     3200.00
02235               2.60     3400.00
02236               2.80     3200.00
02237               2.60     3200.00
02238               2.20     3000.00
02239               2.20     2800.00
02240               2.40     3000.00
02241               2.20     3000.00
02242               2.00     2800.00
02243               2.00     2800.00
02244               2.20     2600.00
02245               2.00     2400.00
02246               2.00     2600.00
02247               1.80     2400.00
02248               2.00     2400.00
02249               1.40     2200.00
02250               2.00     2200.00
02251               1.40     2200.00
02252               1.20     2000.00
02253               1.40     1800.00
02254               1.20     2000.00
02255               1.20     1600.00
02256               1.40     1800.00
02257               0.60     1600.00
02258               1.00     1400.00
02259               1.40     1400.00
02260               0.80     1400.00
02261               0.60     1200.00
02262               0.60     1200.00
02263               0.40     1200.00
02264               0.60     1000.00
02265               0.40      800.00
02266               0.60      800.00
02267               0.40      800.00
02268               0.20      600.00
02269               0.40      600.00
02270              -0.20      400.00
02271               0.00      400.00
02272               0.40      400.00
02273               0.20      200.00
02274              -0.20        0.00
02275               0.60        0.00
02276              -0.40        0.00
02277              -0.60     -200.00
02278               0.80     -200.00
02279               0.00     -400.00
02280              -0.60     -400.00
02281               0.00     -400.00
02282              -0.60     -400.00
02283              -1.00     -800.00
02284               2.00     -600.00
02285              14.60     -800.00
02286              -4.60    -1000.00
02287             -25.00     -800.00
02288              25.00    -1000.00
02289              25.00    -1000.00
02290             -25.00    -1600.00
02291             -25.00    -1000.00
02292              25.00    -1400.00
02293              25.00    -1600.00
02294             -25.00    -1800.00
02295             -25.00    -1600.00
02296              25.00    -1800.00
02297              20.60    -2200.00
02298             -25.00    -1800.00
02299              25.00    -2000.00
02300              25.00    -2000.00
02301             -25.00    -2000.00
02302             -25.00    -2400.00
02303              25.00    -2400.00
02304               7.80    -2600.00
02305             -25.00    -2400.00
02306              25.00    -2800.00
02307              25.00    -2600.00
02308             -25.00    -2600.00
02309              -8.60    -2800.00
02310              25.00    -3000.00
02311             -25.00    -2800.00
02312             -25.00    -3200.00
02313              25.00    -3200.00
02314              25.00    -3000.00
02315             -25.00    -3200.00
02316             -19.00    -3400.00
02317              25.00    -3400.00
02318              -4.60    -3400.00
02319             -25.00    -3600.00
02320              25.00    -3600.00
02321              25.00    -3600.00
02322             -25.00    -3800.00
02323              -7.00    -4000.00
02324              25.00    -4000.00
02325             -25.00    -4000.00
02326             -25.00    -4200.00
02327              25.00    -4200.00
02328             -13.40    -4000.00
02329             -25.00    -4200.00
02330              23.00    -4200.00
02331               3.40    -4400.00
02332             -25.00    -4600.00
02333               1.00    -4600.00
02334               9.20    -4400.00
02335             -15.00    -4600.00
02336             -12.20    -4600.00
02337               7.40    -4800.00
02338              -5.00    -4600.00
02339             -17.80    -4800.00
02340               2.80    -4800.00
02341               0.60    -5000.00
02342             -17.80    -5000.00
02343              -5.00    -4800.00
02344               4.40    -5200.00
02345             -12.20    -5000.00
02346             -12.60    -5000.00
02347               2.80    -5200.00
02348              -5.00    -5200.00
02349             -16.40    -5200.00
02350              -2.60    -5200.00
02351               1.00    -5200.00
02352             -16.00    -5200.00
02353              -9.20    -5600.00
02354               3.20    -5400.00
02355             -11.40    -5600.00
02356             -14.80    -5600.00
02357              -0.40    -5600.00
02358              -5.20    -5800.00
02359             -15.00    -5600.00
02360              -6.20    -5600.00
02361              -2.60    -5800.00
02362             -12.40    -5600.00
02363             -10.60    -5800.00
02364              -3.40    -5800.00
02365              -9.60    -5800.00
02366             -13.00    -5800.00
02367              -5.60    -5800.00
02368              -7.00    -6000.00
02369             -12.60    -6000.00
02370              -9.40    -6000.00
02371              -6.20    -5800.00
02372             -10.60    -6000.00
02373             -11.60    -6000.00
02374              -7.80    -6000.00
02375              -9.20    -6000.00
02376             -11.40    -6000.00
02377             -10.00    -6000.00
02378              -9.20    -6000.00
02379             -10.60    -5800.00
02380             -10.80    -6000.00
02381              -9.40    -6000.00
02382             -10.20    -6000.00
02383             -11.00    -6000.00
02384             -10.60    -6000.00
02385              -9.80    -6000.00
02386             -11.00    -6000.00
02387             -10.80    -6000.00
02388              -9.80    -6000.00
02389             -10.40    -5800.00
02390             -10.60    -6000.00
02391              -9.60    -6000.00
02392              -9.80    -6000.00
02393             -10.60    -6000.00
02394              -9.40    -6000.00
02395              -8.60    -5800.00
02396              -9.80    -6000.00
02397              -9.60    -5800.00
02398              -8.40    -5800.00
02399              -8.60    -5800.00
02400              -9.60    -5800.00
02401              -8.20    -5800.00
02402              -8.20    -5800.00
02403              -8.60    -5800.00
02404              -7.80    -5600.00
02405              -8.20    -5600.00
02406              -8.40    -5600.00
02407              -7.60    -5600.00
02408              -7.00    -5600.00
02409              -7.80    -5600.00
02410              -7.20    -5600.00
02411              -6.80    -5600.00
02412              -7.00    -5400.00
02413              -7.40    -5200.00
02414              -6.40    -5600.00
02415              -6.20    -5400.00
02416              -6.80    -5200.00
02417              -7.00    -5200.00
02418              -5.40    -5200.00
02419              -6.60    -5200.00
02420              -6.20    -5200.00
02421              -5.40    -5000.00
02422              -5.40    -4600.00
02423              -6.60    -5000.00
02424              -5.80    -4600.00
02425              -4.60    -5000.00
02426              -5.80    -4600.00
02427              -5.40    -4800.00
02428              -4.40    -4600.00
02429              -5.40    -4600.00
02430              -5.20    -4600.00
02431              -4.40    -4400.00
02432              -4.80    -4400.00
02433              -5.40    -4400.00
02434              -4.60    -4400.00
02435              -4.60    -4200.00
02436              -4.20    -4200.00
02437              -4.60    -4200.00
02438              -4.60    -4200.00
02439              -3.80    -4000.00
02440              -4.20    -4000.00
02441              -4.40    -4000.00
02442              -3.80    -4000.00
02443              -3.80    -3600.00
02444              -4.00    -3800.00
02445              -3.60    -3600.00
02446              -3.80    -3600.00
02447              -3.80    -3600.00
02448              -3.00    -3400.00
02449              -3.40    -3400.00
02450              -3.40    -3400.00
02451              -3.00    -3400.00
02452              -3.60    -3200.00
02453              -3.00    -3200.00
02454              -2.60    -3200.00
02455              -3.00    -2800.00
02456              -2.80    -2800.00
02457              -2.20    -2800.00
02458              -2.60    -2600.00
02459              -2.60    -2800.00
02460              -2.20    -2600.00
02461              -2.80    -2400.00
02462              -2.60    -2400.00
02463              -2.00    -2400.00
02464              -2.40    -2400.00
02465              -2.20    -2200.00
02466              -2.20    -2000.00
02467              -2.00    -2000.00
02468              -1.40    -2000.00
02469              -2.00    -1800.00
02470              -2.20    -1800.00
02471              -1.20    -1600.00
02472              -1.40    -1600.00
02473              -1.80    -1600.00
02474              -1.40    -1400.00
02475              -1.00    -1200.00
02476              -1.20    -1200.00
02477              -1.20    -1200.00
02478              -0.80    -1000.00
02479              -1.00     -800.00
02480              -1.40     -800.00
02481              -0.60     -800.00
02482              -0.40     -800.00
02483              -1.00     -600.00
02484              -1.00     -400.00
02485              -0.40     -400.00
02486              -0.40     -400.00
02487              -1.00     -200.00
02488              -0.60     -200.00
02489               0.20     -200.00
02490              -0.20        0.00
02491               0.20        0.00
02492               0.40        0.00
02493               0.80      200.00
02494              -0.20      400.00
02495              -0.60      400.00
02496               0.20      400.00
02497               0.60      400.00
02498               2.00      600.00
02499              11.00      800.00
02500               2.60      800.00
02501             -25.00      800.00
02502              -3.60     1000.00
02503              25.00     1000.00
02504               6.60     1200.00
02505             -25.00     1200.00
02506              24.40     1400.00
02507              25.00     1400.00
02508             -25.00     1400.00
02509             -25.00     1800.00
02510              25.00     1800.00
02511              25.00     1800.00
02512             -25.00     1800.00
02513              -3.00     2000.00
02514              25.00     2200.00
02515             -25.00     2000.00
02516             -25.00     2400.00
02517              25.00     2200.00
02518              25.00     2200.00
02519             -25.00     2400.00
02520              25.00     2600.00
02521              25.00     2800.00
02522             -25.00     2600.00
02523             -25.00     2800.00
02524              25.00     2800.00
02525              20.40     2800.00
02526             -25.00     3200.00
02527              25.00     3000.00
02528              25.00     3200.00
02529             -25.00     3200.00
02530             -25.00     3200.00
02531              25.00     3200.00
02532              14.80     3600.00
02533             -25.00     3600.00
02534              22.60     3600.00
02535              25.00     3600.00
02536             -25.00     3600.00
02537             -14.60     3800.00
02538              25.00     3800.00
02539              -7.00     4000.00
02540             -25.00     4000.00
02541              25.00     4000.00
02542              18.60     4000.00
02543             -25.00     4000.00
02544              10.80     4000.00
02545              25.00     4200.00
02546             -14.80     4400.00
02547              -4.80     4400.00
02548              24.40     4400.00
02549               2.00     4600.00
02550              -9.40     4600.00
02551              14.20     4600.00
02552              12.20     4600.00
02553              -7.40     4800.00
02554               5.80     4600.00
02555              15.80     4800.00
02556              -0.40     4800.00
02557              -1.00     4800.00
02558              14.60     4800.00
02559               7.40     5000.00
02560              -3.40     4800.00
02561               9.20     5200.00
02562              12.40     5200.00
02563              -0.40     5200.00
02564               3.80     5200.00
02565              14.00     5400.00
02566               4.20     5200.00
02567               1.20     5400.00
02568              12.40     5400.00
02569               9.00     5400.00
02570               0.60     5400.00
02571               8.40     5400.00
02572              12.20     5400.00
02573               3.80     5600.00
02574               5.00     5600.00
02575              11.60     5600.00
02576               7.60     5600.00
02577               4.60     5600.00
02578               9.80     5600.00
02579              10.20     5600.00
02580               5.20     5600.00
02581               8.40     6000.00
02582              11.60     5600.00
02583               7.00     5800.00
02584               6.60     6000.00
02585              11.00     5800.00
02586               9.80     5800.00
02587               7.00     5800.00
02588               9.20     6000.00
02589              11.00     5800.00
02590               9.00     6000.00
02591               8.40     5800.00
02592              10.60     5800.00
02593               9.80     6000.00
02594               9.00     6000.00
02595              10.60     6000.00
02596              10.60     6000.00
02597               8.60     6000.00
02598              10.00     6000.00
02599              11.00     5800.00
02600               9.40     6000.00
02601               9.80     6000.00
02602              10.20     6000.00
02603              10.00     5800.00
02604               9.20     6000.00
02605              10.00     6000.00
02606               9.60     6000.00
02607               8.60     6000.00
02608               9.40     5800.00
02609               9.80     5800.00
02610               8.40     5600.00
02611               8.40     5600.00
02612               9.00     5800.00
02613               8.60     5800.00
02614               7.40     5600.00
02615               7.60     5600.00
02616               8.20     5600.00
02617               8.40     5600.00
02618               7.40     5600.00
02619               8.20     5600.00
02620               6.80     5600.00
02621               7.00     5400.00
02622               7.40     5600.00
02623               7.40     5400.00
02624               6.20     5400.00
02625               6.20     5400.00
02626               6.80     5400.00
02627               6.60     5200.00
02628               5.80     5200.00
02629               6.20     5200.00
02630               6.00     5000.00
02631               5.00     5000.00
02632               6.40     5000.00
02633               6.00     5200.00
02634               3.80     4800.00
02635               6.00     4800.00
02636               6.00     4800.00
02637               4.20     4800.00
02638               5.20     4800.00
02639               5.20     4600.00
02640               4.20     4800.00
02641               5.20     4600.00
02642               4.20     4600.00
02643               4.40     4400.00
02644               5.40     4400.00
02645               3.40     4400.00
02646               3.80     4400.00
02647               5.80     4200.00
02648               2.20     4200.00
02649               3.00     4400.00
02650               6.00     4000.00
02651               2.20     4000.00
02652               2.20     4000.00
02653               5.80     4000.00
02654               3.00     3800.00
02655               2.20     3600.00
02656               3.60     3600.00
02657               4.00     3600.00
02658               2.60     3600.00
02659               2.60     3400.00
02660               3.60     3400.00
02661               3.60     3400.00
02662               1.40     3200.00
02663               2.60     3200.00
02664               4.40     3200.00
02665               1.40     3200.00
02666               1.20     3000.00
02667               5.20     3000.00
02668               2.00     3000.00
02669               0.20     2800.00
02670               3.60     2800.00
02671               2.60     2800.00
02672               0.20     2800.00
02673               3.00     2600.00
02674               3.00     2600.00
02675               0.40     2400.00
02676               1.60     2400.00
02677               2.60     2200.00
02678               1.00     2200.00
02679               1.00     2000.00
02680               2.40     2000.00
02681               1.60     1800.00
02682               1.00     1800.00
02683               1.40     1600.00
02684               1.00     1800.00
02685               0.80     1600.00
02686               1.40     1400.00
02687               1.20     1400.00
02688               0.60     1400.00
02689               0.60     1200.00
02690               0.60     1000.00
02691               0.40      800.00
02692               0.40      800.00
02693               0.40      800.00
02694               0.20      800.00
02695               0.40      600.00
02696              -0.20      600.00
02697               0.00      400.00
02698               0.20      400.00
02699              -0.60      200.00
02700               0.20      200.00
02701               0.40      200.00
02702              -0.40     -200.00
02703              -0.60        0.00
02704               0.20        0.00
02705              -0.20     -200.00
02706              -0.40     -400.00
02707               0.20     -400.00
02708              -0.40     -400.00
02709              -1.20     -400.00
02710              -0.60     -400.00
02711               0.40     -800.00
02712              11.60     -800.00
02713               4.40    -1000.00
02714             -25.00    -1000.00
02715               5.80     -800.00
02716              25.00    -1000.00
02717              -6.20    -1400.00
02718             -25.00    -1200.00
02719              25.00    -1200.00
02720              25.00    -1400.00
02721             -25.00    -1800.00
02722             -25.00    -1400.00
02723              25.00    -1800.00
02724              25.00    -1800.00
02725             -25.00    -1800.00
02726               4.20    -2000.00
02727              25.00    -2400.00
02728             -25.00    -2200.00
02729             -25.00    -2000.00
02730              25.00    -2400.00
02731              25.00    -2400.00
02732             -25.00    -2200.00
02733              25.00    -2600.00
02734              25.00    -2800.00
02735             -25.00    -2600.00
02736             -25.00    -2800.00
02737              25.00    -3000.00
02738               6.00    -3000.00
02739             -25.00    -2800.00
02740              25.00    -3400.00
02741              25.00    -3200.00
02742             -25.00    -3200.00
02743             -25.00    -3400.00
02744              25.00    -3400.00
02745              20.20    -3400.00
02746             -25.00    -3600.00
02747               3.60    -3600.00
02748              25.00    -3600.00
02749             -25.00    -3600.00
02750             -25.00    -3600.00
02751              25.00    -3800.00
02752             -13.80    -4000.00
02753             -25.00    -4000.00
02754              25.00    -4000.00
02755               8.20    -4000.00
02756             -25.00    -4200.00
02757              10.60    -4200.00
02758              15.60    -4400.00
02759             -25.00    -4200.00
02760              -8.40    -4600.00
02761              11.80    -4400.00
02762              -9.00    -4400.00
02763             -16.60    -4600.00
02764               3.40    -4600.00
02765               1.60    -4600.00
02766             -18.40    -4600.00
02767              -3.80    -4800.00
02768               5.40    -4800.00
02769             -14.80    -5000.00
02770             -10.20    -5000.00
02771               5.20    -5000.00
02772              -7.80    -5000.00
02773             -15.40    -5200.00
02774              -0.20    -5200.00
02775              -1.40    -5600.00
02776             -15.40    -5400.00
02777              -6.80    -5200.00
02778               2.60    -5400.00
02779             -12.80    -5600.00
02780             -13.20    -5400.00
02781               2.00    -5600.00
02782              -7.40    -5600.00
02783             -16.20    -5600.00
02784              -2.80    -5600.00
02785              -2.20    -5600.00
02786             -14.80    -5600.00
02787              -9.20    -5600.00
02788              -1.40    -5600.00
02789             -10.80    -5800.00
02790             -12.40    -5800.00
02791              -3.60    -5800.00
02792              -7.60    -5800.00
02793             -13.20    -5800.00
02794              -7.00    -5800.00
02795              -5.80    -6000.00
02796             -12.00    -5800.00
02797             -10.00    -5800.00
02798              -5.80    -6000.00
02799              -9.80    -5800.00
02800             -11.80    -6000.00
02801              -8.20    -6000.00
02802              -8.80    -6000.00
02803             -11.40    -6000.00
02804              -9.60    -6000.00
02805              -9.20    -6000.00
02806             -10.60    -6000.00
02807             -10.20    -6000.00
02808              -9.40    -6200.00
02809             -10.20    -6000.00
02810             -10.60    -6000.00
02811             -10.00    -6000.00
02812             -10.00    -6000.00
02813             -10.60    -6000.00
02814             -10.20    -6000.00
02815             -10.20    -6000.00
02816             -10.60    -6000.00
02817             -10.20    -6000.00
02818              -9.80    -5800.00
02819             -10.20    -6000.00
02820             -10.20    -5800.00
02821              -9.20    -6000.00
02822              -9.40    -6000.00
02823             -10.00    -5800.00
02824              -9.80    -5800.00
02825              -9.00    -5800.00
02826              -9.20    -6000.00
02827              -9.00    -5800.00
02828              -8.40    -5800.00
02829              -8.20    -5800.00
02830              -8.80    -5800.00
02831              -7.80    -5600.00
02832              -8.40    -5600.00
02833              -8.60    -5600.00
02834              -7.60    -5600.00
02835              -7.40    -5600.00
02836              -7.80    -5600.00
02837              -7.60    -5600.00
02838              -7.00    -5600.00
02839              -7.20    -5600.00
02840              -7.00    -5200.00
02841              -6.80    -5600.00
02842              -6.60    -5400.00
02843              -7.00    -5200.00
02844              -6.40    -5200.00
02845              -5.80    -5200.00
02846              -6.80    -5200.00
02847              -7.00    -5000.00
02848              -5.80    -5000.00
02849              -5.40    -5000.00
02850              -5.80    -5000.00
02851              -6.20    -5000.00
02852              -5.20    -4600.00
02853              -6.00    -4800.00
02854              -6.00    -4600.00
02855              -5.00    -4600.00
02856              -5.20    -4600.00
02857              -5.40    -4600.00
02858              -4.40    -4400.00
02859              -4.60    -4400.00
02860              -5.00    -4400.00
02861              -4.60    -4400.00
02862              -4.60    -4400.00
02863              -4.20    -4200.00
02864              -4.40    -4200.00
02865              -4.60    -4000.00
02866              -3.80    -4200.00
02867              -3.80    -4000.00
02868              -4.20    -4000.00
02869              -4.20    -4000.00
02870              -3.80    -3800.00
02871              -3.80    -3600.00
02872              -3.80    -3600.00
02873              -3.40    -3600.00
02874              -3.40    -3600.00
02875              -3.60    -3400.00
02876              -3.00    -3400.00
02877              -3.00    -3400.00
02878              -3.40    -3200.00
02879              -3.00    -3200.00
02880              -3.00    -3200.00
02881              -2.80    -3000.00
02882              -3.00    -3200.00
02883              -3.00    -2800.00
02884              -2.20    -2800.00
02885              -2.60    -2800.00
02886              -2.60    -2800.00
02887              -2.20    -2600.00
02888              -3.00    -2600.00
02889              -2.20    -2400.00
02890              -2.00    -2400.00
02891              -2.80    -2400.00
02892              -2.20    -2200.00
02893              -1.40    -2200.00
02894              -2.20    -2000.00
02895              -2.20    -2000.00
02896              -1.20    -1800.00
02897              -2.20    -1800.00
02898              -2.20    -1800.00
02899              -1.20    -1600.00
02900              -1.40    -1600.00
02901              -2.20    -1600.00
02902              -1.20    -1400.00
02903              -1.00    -1400.00
02904              -1.80    -1200.00
02905              -1.00    -1000.00
02906              -0.60    -1200.00
02907              -1.80     -800.00
02908              -1.20     -800.00
02909              -0.40     -800.00
02910              -1.20     -800.00
02911              -1.20     -600.00
02912              -0.40     -400.00
02913              -1.00     -400.00
02914              -1.00     -400.00
02915              -0.40     -200.00
02916              -0.20     -200.00
02917               0.00        0.00
02918               0.20        0.00
02919               0.20        0.00
02920               0.40      200.00
02921               0.20      400.00
02922              -0.20      400.00
02923               0.40      600.00
02924               0.40      400.00
02925               1.40      600.00
02926               8.20      800.00
02927               9.20     1000.00
02928             -25.00      800.00
02929             -23.40      800.00
02930              25.00     1200.00
02931              25.00     1400.00
02932             -25.00      800.00
02933             -18.60     1400.00
02934              25.00     1400.00
02935               4.20     1400.00
02936             -25.00     1600.00
02937              25.00     1800.00
02938              25.00     2000.00
02939             -25.00     1800.00
02940             -25.00     2000.00
02941              25.00     2000.00
02942              16.20     2000.00
02943             -25.00     2400.00
02944              25.00     2200.00
02945              25.00     2400.00
02946             -25.00     2400.00
02947             -18.20     2600.00
02948              25.00     2600.00
02949             -22.00     2600.00
02950             -25.00     3000.00
02951              25.00     2800.00
02952              25.00     2800.00
02953             -25.00     3000.00
02954              -4.40     3200.00
02955              25.00     3000.00
02956             -16.80     3200.00
02957             -25.00     3200.00
02958              25.00     3200.00
02959              25.00     3400.00
02960             -25.00     3600.00
02961              -0.20     3600.00
02962              25.00     3800.00
02963             -19.00     3600.00
02964             -25.00     3800.00
02965              25.00     3800.00
02966              13.40     4000.00
02967             -25.00     4000.00
02968              20.60     3800.00
02969              25.00     4000.00
02970             -25.00     4200.00
02971              -3.40     4000.00
02972              25.00     4200.00
02973              -5.80     4400.00
02974             -13.40     4400.00
02975              21.00     4400.00
02976              10.20     4600.00
02977             -12.00     4600.00
02978               9.20     4600.00
02979              17.20     4600.00
02980              -5.80     4600.00
02981               0.40     4800.00
02982              16.80     4600.00
02983               3.60     4800.00
02984              -4.20     5000.00
02985              12.20     4800.00
02986              11.20     5000.00
02987              -2.80     5200.00
02988               5.00     5200.00
02989              14.60     5200.00
02990               2.60     5400.00
02991               0.20     5400.00
02992              13.80     5400.00
02993               7.80     5400.00
02994              -0.80     5400.00
02995              10.20     5400.00
02996              12.40     5400.00
02997               0.60     5600.00
02998               5.40     5600.00
02999              13.80     5600.00
03000               5.80     5600.00
03001               3.00     5600.00
03002              11.60     5600.00
03003               9.80     5800.00
03004               3.00     5800.00
03005               9.40     5600.00
03006              11.00     5600.00
03007               5.80     5600.00
03008               7.40     5600.00
03009              11.00     5800.00
03010               9.40     5800.00
03011               5.00     6000.00
03012              10.20     5800.00
03013              11.80     6000.00
03014               6.60     6000.00
03015               8.40     6000.00
03016              11.60     6000.00
03017               9.20     6000.00
03018               7.80     5800.00
03019              10.00     6000.00
03020              10.60     6000.00
03021               8.20     5800.00
03022               9.80     5800.00
03023              11.00     6000.00
03024               9.00     6000.00
03025               9.00     6000.00
03026              10.60     5800.00
03027              10.00     5800.00
03028               9.00     6000.00
03029              10.40     6000.00
03030              10.60     5800.00
03031               9.00     6000.00
03032               9.20     5800.00
03033               9.80     5800.00
03034               8.60     5600.00
03035               8.80     5800.00
03036               9.40     5800.00
03037               8.60     5600.00
03038               7.80     5800.00
03039               7.60     5800.00
03040               9.00     5600.00
03041               7.60     5600.00
03042               7.80     5600.00
03043               8.60     5600.00
03044               8.20     5600.00
03045               7.00     5600.00
03046               7.60     5600.00
03047               7.00     5400.00
03048               6.60     5400.00
03049               7.00     5400.00
03050               7.40     5400.00
03051               6.00     5400.00
03052               6.80     5400.00
03053               6.60     5400.00
03054               6.40     5400.00
03055               6.20     5400.00
03056               6.20     5200.00
03057               5.80     5200.00
03058               5.80     5200.00
03059               6.60     5200.00
03060               5.80     5200.00
03061               5.00     5000.00
03062               6.00     5000.00
03063               5.80     4800.00
03064               4.40     4800.00
03065               5.40     4800.00
03066               5.20     4800.00
03067               4.40     4600.00
03068               5.20     4600.00
03069               5.20     4600.00
03070               4.00     4600.00
03071               4.40     4600.00
03072               5.00     4400.00
03073               4.20     4400.00
03074               4.40     4400.00
03075               4.20     4200.00
03076               4.20     4200.00
03077               3.80     4000.00
03078               3.80     4000.00
03079               3.40     4000.00
03080               3.60     3800.00
03081               3.40     4000.00
03082               3.00     3800.00
03083               3.80     3600.00
03084               3.20     3600.00
03085               2.60     3600.00
03086               4.20     3600.00
03087               2.80     3600.00
03088               1.20     3400.00
03089               3.40     3200.00
03090               3.80     3200.00
03091               1.20     3200.00
03092               2.80     3000.00
03093               3.40     3000.00
03094               0.40     3000.00
03095               2.60     2800.00
03096               3.40     2800.00
03097               1.20     2800.00
03098               1.60     2600.00
03099               3.00     2600.00
03100               1.40     2400.00
03101               1.20     2400.00
03102               2.00     2400.00
03103               2.20     2200.00
03104               1.00     2200.00
03105               1.80     2200.00
03106               2.20     2200.00
03107               1.20     2000.00
03108               0.60     2000.00
03109               1.80     1800.00
03110               1.80     1600.00
03111               0.40     1800.00
03112               0.40     1600.00
03113               1.00     1400.00
03114               2.20     1200.00
03115              -0.40     1400.00
03116               0.60     1400.00
03117               2.00     1200.00
03118              -0.20     1200.00
03119               0.60      800.00
03120               1.60      800.00
03121              -0.60      600.00
03122               0.40      600.00
03123               1.40      600.00
03124              -1.00      600.00
03125               0.20      400.00
03126               1.80      400.00
03127              -0.60      400.00
03128              -0.60      200.00
03129               1.40        0.00
03130              -0.60        0.00
03131              -1.00     -200.00
03132               0.80     -200.00
03133               0.40     -200.00
03134              -0.60     -400.00
03135               0.40     -400.00
03136              -0.40     -400.00
03137              -1.00     -600.00
03138               0.20     -800.00
03139               7.60     -800.00
03140              11.00    -1000.00
03141             -25.00    -1000.00
03142             -23.60     -800.00
03143              25.00    -1000.00
03144              19.60    -1400.00
03145             -25.00    -1400.00
03146              -5.20    -1200.00
03147              25.00    -1400.00
03148             -18.20    -2000.00
03149             -25.00    -1400.00
03150              25.00    -1800.00
03151              25.00    -1800.00
03152             -25.00    -2000.00
03153             -25.00    -1800.00
03154              25.00    -2000.00
03155              18.80    -2400.00
03156             -25.00    -2000.00
03157              25.00    -2400.00
03158              25.00    -2400.00
03159             -25.00    -2400.00
03160             -25.00    -2600.00
03161              25.00    -2600.00
03162             -25.00    -2800.00
03163             -25.00    -2600.00
03164              25.00    -3000.00
03165              25.00    -3000.00
03166             -25.00    -2800.00
03167              -2.00    -3200.00
03168              25.00    -3200.00
03169             -24.20    -3200.00
03170             -25.00    -3200.00
03171              25.00    -3600.00
03172              25.00    -3200.00
03173             -25.00    -3600.00
03174             -22.20    -3600.00
03175              25.00    -3600.00
03176             -17.80    -3600.00
03177             -25.00    -3800.00
03178              25.00    -4000.00
03179              13.80    -3800.00
03180             -25.00    -4000.00
03181              19.80    -4000.00
03182              25.00    -4200.00
03183             -25.00    -4200.00
03184              -3.40    -4200.00
03185              24.60    -4400.00
03186             -21.20    -4200.00
03187             -16.00    -4400.00
03188              11.60    -4400.00
03189              -2.80    -4400.00
03190             -18.60    -4400.00
03191              -0.60    -4600.00
03192               5.60    -4600.00
03193             -16.20    -4800.00
03194              -9.40    -4600.00
03195               7.40    -4800.00
03196             -10.00    -4600.00
03197             -15.00    -5000.00
03198               4.40    -5000.00
03199              -3.00    -5000.00
03200             -16.60    -5200.00
03201              -3.40    -5200.00
03202               1.80    -5200.00
03203             -13.40    -5200.00
03204             -11.00    -5200.00
03205               3.00    -5400.00
03206              -8.60    -5200.00
03207             -15.80    -5600.00
03208              -0.20    -5400.00
03209              -2.80    -5600.00
03210             -16.40    -5600.00
03211              -6.80    -5600.00
03212               0.20    -5600.00
03213             -12.40    -5600.00
03214             -12.40    -5800.00
03215              -2.00    -5600.00
03216              -7.60    -5800.00
03217             -14.00    -5800.00
03218              -5.40    -5800.00
03219              -5.40    -5800.00
03220             -13.20    -5800.00
03221              -9.20    -5800.00
03222              -5.00    -6000.00
03223             -10.60    -5800.00
03224             -12.20    -5800.00
03225              -6.60    -6000.00
03226              -7.80    -6000.00
03227             -12.40    -6000.00
03228              -9.80    -6000.00
03229              -7.40    -6000.00
03230             -11.00    -6000.00
03231             -11.00    -6000.00
03232              -8.60    -6000.00
03233             -10.20    -6000.00
03234             -11.60    -6000.00
03235              -9.40    -6000.00
03236              -9.80    -6000.00
03237             -11.40    -6000.00
03238             -10.20    -6000.00
03239             -10.00    -6000.00
03240             -10.20    -6000.00
03241             -10.60    -6000.00
03242             -11.40    -6000.00
03243             -10.00    -6000.00
03244              -8.60    -6000.00
03245             -10.20    -6000.00
03246             -12.20    -5800.00
03247              -8.60    -6000.00
03248              -7.80    -5800.00
03249             -11.20    -5800.00
03250             -10.60    -6000.00
03251              -7.00    -5800.00
03252              -9.00    -6000.00
03253             -10.20    -5800.00
03254              -8.20    -5800.00
03255              -7.80    -5800.00
03256              -8.80    -5800.00
03257              -8.40    -5800.00
03258              -8.40    -5800.00
03259              -7.60    -5800.00
03260              -7.60    -5800.00
03261              -8.40    -5600.00
03262              -7.40    -5600.00
03263              -6.80    -5600.00
03264              -8.20    -5600.00
03265              -7.40    -5400.00
03266              -6.20    -5400.00
03267              -7.60    -5400.00
03268              -7.00    -5400.00
03269              -5.80    -5400.00
03270              -6.80    -5200.00
03271              -6.80    -5200.00
03272              -5.40    -5200.00
03273              -6.20    -5000.00
03274              -7.00    -5200.00
03275              -5.40    -5200.00
03276              -4.60    -5000.00
03277              -5.80    -5000.00
03278              -6.80    -5000.00
03279              -5.00    -4600.00
03280              -5.80    -4600.00
03281              -5.60    -4800.00
03282              -5.00    -4600.00
03283              -5.20    -4600.00
03284              -5.60    -4600.00
03285              -4.40    -4400.00
03286              -5.20    -4600.00
03287              -5.20    -4400.00
03288              -4.40    -4400.00
03289              -5.00    -4400.00
03290              -4.60    -4200.00
03291              -4.20    -4200.00
03292              -4.60    -4200.00
03293              -4.40    -4200.00
03294              -3.80    -4000.00
03295              -3.60    -4000.00
03296              -4.80    -4000.00
03297              -4.20    -3800.00
03298              -3.00    -3600.00
03299              -4.40    -3600.00
03300              -3.60    -3600.00
03301              -3.40    -3600.00
03302              -3.40    -3400.00
03303              -3.60    -3600.00
03304              -3.00    -3400.00
03305              -3.40    -3200.00
03306              -3.80    -3200.00
03307              -2.80    -3200.00
03308              -2.20    -2800.00
03309              -2.80    -3200.00
03310              -3.40    -2800.00
03311              -2.20    -2800.00
03312              -2.60    -2800.00
03313              -3.00    -2600.00
03314              -2.20    -2600.00
03315              -2.20    -2400.00
03316              -2.80    -2400.00
03317              -2.20    -2400.00
03318              -1.40    -2400.00
03319              -2.20    -2200.00
03320              -2.60    -2000.00
03321              -1.20    -2000.00
03322              -1.40    -1800.00
03323              -2.20    -1800.00
03324              -1.80    -1800.00
03325              -1.20    -1800.00
03326              -1.80    -1600.00
03327              -2.00    -1400.00
03328              -1.20    -1200.00
03329              -1.00    -1400.00
03330              -2.00    -1200.00
03331              -1.00    -1000.00
03332              -0.40    -1000.00
03333              -1.40    -1000.00
03334              -1.20    -1000.00
03335              -0.20     -800.00
03336              -1.00     -800.00
03337              -1.20     -800.00
03338              -0.60     -600.00
03339              -0.60     -400.00
03340              -0.60     -400.00
03341              -0.60     -400.00
03342              -0.60     -200.00
03343              -0.40     -200.00
03344              -0.20     -200.00
03345              -0.20        0.00
03346              -0.40        0.00
03347               0.60      200.00
03348               0.40      200.00
03349              -0.60      400.00
03350               0.20      400.00
03351               0.60      400.00
03352               0.60      600.00
03353               5.40      800.00
03354              13.20      800.00
03355             -18.60      800.00
03356             -25.00      800.00
03357              25.00     1200.00
03358              25.00     1200.00
03359             -25.00     1000.00
03360             -25.00     1400.00
03361              25.00     1400.00
03362              25.00     1800.00
03363             -25.00     1400.00
03364               5.20     1800.00
03365              25.00     2000.00
03366             -25.00     1800.00
03367             -25.00     2000.00
03368              25.00     2000.00
03369              25.00     2000.00
03370             -25.00     2200.00
03371              18.20     2200.00
03372              25.00     2400.00
03373             -25.00     2200.00
03374             -25.00     2600.00
03375              25.00     2400.00
03376              25.00     2400.00
03377             -25.00     2800.00
03378              25.00     2800.00
03379              25.00     2800.00
03380             -25.00     3000.00
03381             -25.00     3200.00
03382              25.00     3000.00
03383              12.80     3200.00
03384             -25.00     3200.00
03385              22.80     3200.00
03386              25.00     3400.00
03387             -25.00     3600.00
03388             -23.00     3400.00
03389              25.00     3600.00
03390               3.60     3600.00
03391             -25.00     3800.00
03392              25.00     3600.00
03393              25.00     3800.00
03394             -25.00     4000.00
03395               2.80     4000.00
03396              25.00     4000.00
03397             -16.40     4000.00
03398             -15.80     4200.00
03399              25.00     4200.00
03400               5.40     4200.00
03401             -18.20     4400.00
03402              14.80     4400.00
03403              18.00     4400.00
03404             -11.40     4400.00
03405               2.80     4600.00
03406              19.40     4800.00
03407              -1.00     4600.00
03408              -3.80     4800.00
03409              14.60     4600.00
03410               7.60     4800.00
03411              -5.00     4800.00
03412               9.00     4800.00
03413              13.40     5000.00
03414              -1.00     5000.00
03415               1.40     5200.00
03416              14.20     5200.00
03417               5.00     5200.00
03418              -1.00     5200.00
03419              11.40     5400.00
03420               9.80     5200.00
03421              -0.40     5400.00
03422               7.00     5400.00
03423              14.00     5400.00
03424               2.00     5400.00
03425               3.00     5400.00
03426              14.00     5600.00
03427               7.00     5600.00
03428               1.60     5600.00
03429              10.60     5600.00
03430              11.20     5600.00
03431               3.00     5600.00
03432               8.20     5600.00
03433              12.60     5600.00
03434               5.20     5600.00
03435               6.20     5600.00
03436              11.80     5800.00
03437               9.00     5800.00
03438               5.00     5800.00
03439              10.20     5600.00
03440              11.80     5800.00
03441               6.80     5600.00
03442               7.80     6000.00
03443              11.80     6000.00
03444               9.00     5800.00
03445               8.40     5800.00
03446              11.00     6000.00
03447               9.80     5800.00
03448               8.60     6000.00
03449              10.00     6000.00
03450              10.20     6000.00
03451               9.60     6000.00
03452               9.80     6000.00
03453              10.60     6000.00
03454              10.00     6000.00
03455               9.60     6000.00
03456              10.60     6000.00
03457               9.40     5800.00
03458               9.40     6000.00
03459              10.60     6000.00
03460               9.20     5800.00
03461               8.40     6000.00
03462              10.00     5800.00
03463               9.40     6000.00
03464               8.40     5600.00
03465               9.20     5800.00
03466               8.40     5600.00
03467               8.40     5600.00
03468               8.40     5600.00
03469               8.60     5600.00
03470               7.60     5600.00
03471               7.60     5600.00
03472               7.60     5600.00
03473               7.60     5600.00
03474               6.80     5600.00
03475               6.80     5400.00
03476               7.40     5400.00
03477               7.00     5400.00
03478               6.20     5400.00
03479               6.80     5400.00
03480               7.00     5400.00
03481               6.00     5400.00
03482               6.40     5400.00
03483               6.60     5400.00
03484               5.20     5200.00
03485               5.60     5200.00
03486               6.40     5000.00
03487               5.40     5000.00
03488               5.20     5000.00
03489               5.80     4800.00
03490               5.60     5000.00
03491               4.60     4800.00
03492               5.40     4600.00
03493               5.00     4800.00
03494               4.40     4600.00
03495               5.00     4600.00
03496               4.80     4600.00
03497               4.60     4400.00
03498               4.20     4600.00
03499               4.40     4400.00
03500               4.60     4400.00
03501               4.20     4400.00
03502               3.60     4200.00
03503               4.20     4200.00
03504               4.00     4200.00
03505               3.60     4000.00
03506               3.80     4000.00
03507               3.60     4000.00
03508               3.40     4000.00
03509               3.60     4000.00
03510               3.40     3600.00
03511               3.00     3800.00
03512               3.00     3600.00
03513               3.40     3600.00
03514               3.40     3400.00
03515               2.80     3400.00
03516               2.60     3400.00
03517               3.00     3200.00
03518               2.80     3200.00
03519               2.20     3000.00
03520               2.80     3000.00
03521               2.60     3000.00
03522               2.60     3000.00
03523               2.00     2800.00
03524               2.00     2800.00
03525               2.60     2600.00
03526               1.80     2400.00
03527               1.60     2600.00
03528               2.80     2400.00
03529               1.80     2400.00
03530               1.00     2200.00
03531               2.80     2200.00
03532               2.20     2200.00
03533              -0.20     2200.00
03534               1.80     2000.00
03535               2.60     2000.00
03536               0.40     1800.00
03537               1.00     1600.00
03538               2.00     1600.00
03539               0.80     1800.00
03540               0.20     1600.00
03541               1.00     1200.00
03542               1.20     1400.00
03543               0.40     1200.00
03544               0.20     1200.00
03545               1.00     1000.00
03546               0.60      800.00
03547              -0.20      800.00
03548               0.40      800.00
03549               0.60      600.00
03550               0.20      400.00
03551               0.20      400.00
03552               0.20      600.00
03553              -0.20      400.00
03554              -0.20      200.00
03555               0.20      400.00
03556              -0.40        0.00
03557              -0.20        0.00
03558               0.00     -200.00
03559              -0.60     -200.00
03560              -0.40     -400.00
03561               0.20     -400.00
03562              -0.40     -400.00
03563              -1.20     -400.00
03564              -0.60     -600.00
03565               0.20     -800.00
03566               4.20     -800.00
03567              14.60     -800.00
03568             -21.40    -1000.00
03569             -25.00     -800.00
03570              25.00    -1000.00
03571              25.00    -1200.00
03572             -25.00    -1600.00
03573             -25.00    -1000.00
03574              25.00    -1600.00
03575              25.00    -1800.00
03576             -25.00    -1600.00
03577              20.60    -1600.00
03578              25.00    -1800.00
03579             -25.00    -2000.00
03580             -25.00    -1800.00
03581              25.00    -2000.00
03582              25.00    -2400.00
03583             -25.00    -2000.00
03584              20.20    -2400.00
03585              25.00    -2400.00
03586             -25.00    -2600.00
03587             -25.00    -2400.00
03588              25.00    -2600.00
03589              25.00    -2600.00
03590             -25.00    -2600.00
03591              25.00    -3000.00
03592              25.00    -3000.00
03593             -25.00    -2800.00
03594             -25.00    -3200.00
03595              25.00    -3200.00
03596               3.40    -3200.00
03597             -25.00    -3400.00
03598              10.00    -3400.00
03599              25.00    -3400.00
03600             -25.00    -3400.00
03601             -25.00    -3600.00
03602              25.00    -3600.00
03603              11.60    -3600.00
03604             -25.00    -3600.00
03605              25.00    -4000.00
03606              25.00    -4000.00
03607             -25.00    -4000.00
03608              -2.20    -4200.00
03609              25.00    -4200.00
03610             -25.00    -4000.00
03611             -19.00    -4400.00
03612              25.00    -4400.00
03613             -11.20    -4400.00
03614             -23.00    -4400.00
03615               8.20    -4400.00
03616               2.80    -4400.00
03617             -18.20    -4600.00
03618              -6.00    -4600.00
03619               7.40    -4400.00
03620             -11.60    -4600.00
03621             -14.20    -4800.00
03622               5.80    -5000.00
03623              -4.40    -4800.00
03624             -17.80    -5000.00
03625               0.40    -5000.00
03626               1.80    -5000.00
03627             -16.20    -5000.00
03628              -8.20    -5000.00
03629               4.20    -5200.00
03630             -10.40    -5200.00
03631             -14.40    -5200.00
03632               2.00    -5200.00
03633              -4.20    -5200.00
03634             -17.00    -5400.00
03635              -3.60    -5400.00
03636              -0.20    -5600.00
03637             -14.60    -5600.00
03638             -10.60    -5600.00
03639               0.20    -5600.00
03640              -8.40    -5600.00
03641             -14.20    -5600.00
03642              -4.60    -5800.00
03643              -3.60    -5800.00
03644             -13.80    -5800.00
03645              -9.00    -5800.00
03646              -3.00    -5800.00
03647             -10.80    -5600.00
03648             -12.20    -5800.00
03649              -4.40    -5800.00
03650              -8.20    -5800.00
03651             -13.40    -5800.00
03652              -7.60    -6000.00
03653              -5.40    -5800.00
03654             -12.40    -6000.00
03655             -11.00    -6000.00
03656              -6.80    -5800.00
03657             -10.20    -6000.00
03658             -11.40    -5800.00
03659              -8.40    -6000.00
03660              -9.40    -5800.00
03661             -11.00    -6000.00
03662              -9.80    -6000.00
03663              -9.80    -6000.00
03664             -11.00    -6000.00
03665             -10.20    -6000.00
03666             -10.00    -6000.00
03667             -10.60    -5800.00
03668             -10.20    -6000.00
03669             -10.60    -6000.00
03670             -10.80    -6000.00
03671             -10.20    -6000.00
03672              -9.80    -6000.00
03673             -10.20    -6000.00
03674             -10.60    -5800.00
03675              -9.80    -6000.00
03676              -9.20    -6000.00
03677             -10.00    -5800.00
03678              -9.80    -5800.00
03679              -9.00    -5800.00
03680              -9.00    -5800.00
03681              -9.20    -5800.00
03682              -8.60    -5800.00
03683              -8.40    -5800.00
03684              -9.00    -5800.00
03685              -8.20    -5600.00
03686              -7.60    -5800.00
03687              -8.80    -5600.00
03688              -8.40    -5600.00
03689              -7.00    -5600.00
03690              -7.60    -5600.00
03691              -8.40    -5600.00
03692              -7.00    -5600.00
03693              -6.60    -5400.00
03694              -7.60    -5400.00
03695              -7.40    -5400.00
03696              -6.20    -5200.00
03697              -6.80    -5200.00
03698              -6.80    -5400.00
03699              -6.20    -5200.00
03700              -6.20    -5200.00
03701              -6.80    -5200.00
03702              -6.00    -5000.00
03703              -5.20    -5000.00
03704              -5.20    -5000.00
03705              -7.00    -4800.00
03706              -5.20    -4600.00
03707              -5.00    -4600.00
03708              -6.00    -4600.00
03709              -5.40    -4800.00
03710              -4.40    -4600.00
03711              -5.40    -4600.00
03712              -5.00    -4400.00
03713              -4.40    -4400.00
03714              -4.60    -4400.00
03715              -5.00    -4400.00
03716              -5.00    -4400.00
03717              -3.80    -4200.00
03718              -4.20    -4200.00
03719              -5.00    -4200.00
03720              -3.80    -4000.00
03721              -3.40    -4000.00
03722              -4.40    -4000.00
03723              -4.20    -4000.00
03724              -3.40    -4000.00
03725              -4.20    -3800.00
03726              -4.00    -3600.00
03727              -3.00    -3600.00
03728              -3.40    -3600.00
03729              -3.80    -3400.00
03730              -3.40    -3400.00
03731              -3.20    -3200.00
03732              -3.00    -3200.00
03733              -3.40    -3200.00
03734              -3.00    -3200.00
03735              -2.80    -3200.00
03736              -2.80    -2800.00
03737              -3.20    -2800.00
03738              -2.80    -2800.00
03739              -2.60    -2800.00
03740              -2.80    -2600.00
03741              -2.60    -2600.00
03742              -2.80    -2400.00
03743              -2.60    -2400.00
03744              -2.80    -2400.00
03745              -2.20    -2400.00
03746              -1.80    -2400.00
03747              -2.20    -2000.00
03748              -2.00    -2000.00
03749              -1.80    -2000.00
03750              -2.20    -1800.00
03751              -2.40    -1800.00
03752              -1.40    -1800.00
03753              -1.80    -1800.00
03754              -2.00    -1600.00
03755              -1.20    -1600.00
03756              -1.40    -1400.00
03757              -1.60    -1400.00
03758              -1.20    -1200.00
03759              -1.20    -1000.00
03760              -1.00    -1000.00
03761              -1.20    -1000.00
03762              -1.40     -800.00
03763              -0.60     -800.00
03764              -0.60     -800.00
03765              -0.60     -400.00
03766              -0.60     -400.00
03767              -1.00     -600.00
03768              -0.40     -200.00
03769              -0.60     -400.00
03770              -0.20     -200.00
03771               0.20     -200.00
03772              -0.60        0.00
03773              -0.40      200.00
03774               0.40      200.00
03775               0.80      400.00
03776              -0.40      400.00
03777              -0.20      400.00
03778               1.00      600.00
03779               0.60      400.00
03780               3.60      800.00
03781              14.00     1000.00
03782              -8.40      800.00
03783             -25.00      800.00
03784              25.00     1200.00
03785              25.00     1200.00
03786             -25.00     1400.00
03787             -25.00     1200.00
03788              25.00     1400.00
03789              25.00     1800.00
03790             -25.00     1400.00
03791             -25.00     1800.00
03792              25.00     1800.00
03793              20.20     1600.00
03794             -25.00     2000.00
03795              25.00     2000.00
03796              25.00     2000.00
03797             -25.00     2200.00
03798             -25.00     2400.00
03799              25.00     2400.00
03800             -11.60     2200.00
03801             -25.00     2600.00
03802              25.00     2400.00
03803              25.00     2400.00
03804             -25.00     2800.00
03805              -3.40     2800.00
03806              25.00     2800.00
03807             -25.00     3000.00
03808             -25.00     3000.00
03809              25.00     3000.00
03810              25.00     3200.00
03811             -25.00     3200.00
03812              -1.40     3200.00
03813              25.00     3200.00
03814             -16.60     3400.00
03815             -25.00     3600.00
03816              25.00     3600.00
03817              25.00     3600.00
03818             -25.00     3800.00
03819              13.00     3800.00
03820              25.00     3800.00
03821             -25.00     4000.00
03822             -16.20     4000.00
03823              25.00     4000.00
03824              -2.20     4200.00
03825             -25.00     4200.00
03826              25.00     4200.00
03827              17.00     4400.00
03828             -19.40     4400.00
03829               6.80     4400.00
03830              22.60     4400.00
03831              -6.80     4400.00
03832              -2.80     4600.00
03833              18.00     4800.00
03834               4.40     4600.00
03835              -6.60     4800.00
03836              12.20     4800.00
03837              11.60     4800.00
03838              -4.60     4800.00
03839               6.00     4800.00
03840              15.00     4800.00
03841               0.60     5000.00
03842              -0.20     5200.00
03843              14.00     5200.00
03844               7.00     5200.00
03845              -1.20     5200.00
03846              10.80     5400.00
03847              11.20     5400.00
03848              -0.40     5400.00
03849               7.00     5400.00
03850              14.20     5400.00
03851               2.00     5600.00
03852               2.60     5400.00
03853              13.80     5600.00
03854               8.40     5600.00
03855               1.80     5600.00
03856              10.00     5600.00
03857              11.60     5600.00
03858               3.60     5600.00
03859               6.80     5800.00
03860              12.40     5600.00
03861               7.00     5600.00
03862               5.00     5800.00
03863              11.00     5600.00
03864              10.00     6000.00
03865               5.20     6000.00
03866               8.40     5800.00
03867              12.20     6000.00
03868               8.00     6000.00
03869               6.80     5800.00
03870              10.80     5800.00
03871               9.80     6000.00
03872               7.60     6000.00
03873              10.20     5800.00
03874              10.20     6000.00
03875               8.20     6000.00
03876              10.00     6000.00
03877              10.80     6000.00
03878               8.60     6000.00
03879               9.20     6000.00
03880              10.80     6000.00
03881               9.40     5800.00
03882               9.20     6000.00
03883              10.60     6000.00
03884               9.80     6000.00
03885               8.40     6000.00
03886              10.00     6000.00
03887              10.00     6000.00
03888               8.40     6000.00
03889               9.40     6000.00
03890               9.80     6000.00
03891               8.60     5800.00
03892               8.40     5600.00
03893               9.20     6000.00
03894               8.40     5600.00
03895               8.20     5800.00
03896               8.40     5600.00
03897               7.00     5600.00
03898               7.00     5600.00
03899               8.40     5600.00
03900               7.80     5600.00
03901               7.40     5600.00
03902               7.00     5600.00
03903               7.40     5600.00
03904               7.20     5600.00
03905               6.80     5400.00
03906               7.00     5400.00
03907               6.80     5400.00
03908               6.00     5400.00
03909               6.60     5200.00
03910               6.60     5400.00
03911               5.60     5200.00
03912               6.20     5000.00
03913               6.20     5200.00
03914               5.80     5200.00
03915               5.60     5000.00
03916               5.20     5200.00
03917               5.80     4800.00
03918               5.40     4800.00
03919               5.00     4800.00
03920               5.20     4800.00
03921               5.20     4800.00
03922               4.80     4600.00
03923               5.20     4600.00
03924               4.40     4600.00
03925               4.20     4400.00
03926               4.40     4400.00
03927               4.40     4400.00
03928               4.20     4400.00
03929               3.80     4400.00
03930               4.20     4400.00
03931               4.00     4000.00
03932               3.60     4000.00
03933               3.40     4000.00
03934               3.40     4000.00
03935               3.40     4000.00
03936               3.60     3800.00
03937               3.40     3800.00
03938               2.80     3600.00
03939               3.40     3600.00
03940               3.00     3600.00
03941               2.80     3600.00
03942               3.20     3400.00
03943               2.80     3400.00
03944               2.00     3200.00
03945               2.80     3200.00
03946               2.80     3200.00
03947               1.80     3000.00
03948               2.40     3000.00
03949               2.60     3000.00
03950               2.00     3000.00
03951               2.20     2800.00
03952               2.20     2800.00
03953               2.20     2400.00
03954               1.80     2600.00
03955               1.80     2400.00
03956               1.80     2400.00
03957               1.60     2400.00
03958               1.80     2200.00
03959               2.00     2000.00
03960               1.80     2000.00
03961               1.20     2000.00
03962               1.40     1800.00
03963               1.40     1800.00
03964               1.20     1800.00
03965               1.00     1800.00
03966               1.00     1600.00
03967               1.40     1800.00
03968               1.20     1400.00
03969               1.00     1400.00
03970               1.20     1200.00
03971               0.80     1200.00
03972               0.40     1000.00
03973               1.00      800.00
03974               0.60      800.00
03975               0.20      800.00
03976               0.40      800.00
03977               0.40      600.00
03978               0.40      600.00
03979               0.20      400.00
03980               0.20      400.00
03981               0.20      400.00
03982               0.20      200.00
03983              -0.20        0.00
03984               0.20        0.00
03985               0.20        0.00
03986               0.00        0.00
03987               0.40     -200.00
03988               0.20     -200.00
03989               0.20     -400.00
03990              -1.00     -400.00
03991              -1.20     -600.00
03992               0.20     -600.00
03993               2.20     -800.00
03994              14.20     -800.00
03995              -7.60    -1200.00
03996             -25.00     -800.00
03997              25.00    -1000.00
03998              25.00    -1200.00
03999             -25.00    -1600.00
04000             -25.00    -1000.00
04001              25.00    -1400.00
04002              25.00    -1800.00
04003             -25.00    -1800.00
04004             -25.00    -1600.00
04005              25.00    -1800.00
04006               5.20    -2200.00
04007             -25.00    -1600.00
04008              25.00    -2000.00
04009              25.00    -2400.00
04010             -25.00    -2400.00
04011             -25.00    -2200.00
04012              25.00    -2400.00
04013              -8.60    -2600.00
04014             -25.00    -2200.00
04015              25.00    -2800.00
04016              25.00    -2800.00
04017             -25.00    -2600.00
04018               2.60    -2800.00
04019              25.00    -3000.00
04020             -25.00    -2800.00
04021             -25.00    -3000.00
04022              25.00    -3200.00
04023              25.00    -3200.00
04024             -25.00    -3200.00
04025             -13.60    -3400.00
04026              25.00    -3400.00
04027             -11.80    -3400.00
04028             -25.00    -3600.00
04029              25.00    -3600.00
04030              25.00    -3600.00
04031             -25.00    -3800.00
04032              -0.20    -3800.00
04033              25.00    -4000.00
04034             -25.00    -4000.00
04035             -25.00    -4200.00
04036              25.00    -4000.00
04037             -18.20    -4200.00
04038             -25.00    -4200.00
04039              23.80    -4200.00
04040               0.60    -4200.00
04041             -25.00    -4400.00
04042               2.00    -4600.00
04043               8.60    -4400.00
04044             -15.60    -4600.00
04045             -11.00    -4600.00
04046               7.20    -4600.00
04047              -5.80    -4600.00
04048             -17.20    -4800.00
04049               2.60    -4800.00
04050               0.60    -4800.00
04051             -17.40    -5000.00
04052              -4.40    -5000.00
04053               4.20    -5000.00
04054             -12.60    -5000.00
04055             -12.40    -5000.00
04056               3.20    -5000.00
04057              -6.00    -5200.00
04058             -16.20    -5400.00
04059              -1.80    -5400.00
04060              -0.20    -5200.00
04061             -16.40    -5600.00
04062              -8.40    -5400.00
04063               2.40    -5600.00
04064             -12.20    -5600.00
04065             -13.80    -5600.00
04066              -0.20    -5600.00
04067              -5.80    -5600.00
04068             -15.00    -5800.00
04069              -6.40    -5600.00
04070              -2.80    -5800.00
04071             -13.00    -5600.00
04072             -10.60    -5800.00
04073              -3.40    -5800.00
04074              -9.80    -5800.00
04075             -12.80    -5800.00
04076              -5.80    -5800.00
04077              -7.40    -6000.00
04078             -13.00    -5800.00
04079              -9.40    -5800.00
04080              -6.20    -6000.00
04081             -10.60    -6000.00
04082             -12.20    -6000.00
04083              -7.80    -5800.00
04084              -8.80    -6000.00
04085             -11.80    -6000.00
04086              -9.20    -6000.00
04087              -9.00    -6000.00
04088             -11.40    -6000.00
04089             -10.20    -6000.00
04090              -9.00    -6000.00
04091             -11.20    -6000.00
04092             -10.60    -6000.00
04093              -9.40    -6000.00
04094             -10.80    -6000.00
04095             -10.60    -6000.00
04096              -9.80    -6000.00
04097             -10.60    -6000.00
04098             -10.60    -6000.00
04099              -9.80    -5800.00
04100             -10.00    -5800.00
04101             -10.60    -6000.00
04102             -10.00    -6000.00
04103              -9.00    -5800.00
04104              -9.80    -6000.00
04105              -9.80    -6000.00
04106              -8.80    -5800.00
04107              -8.60    -5800.00
04108              -9.20    -5800.00
04109              -8.60    -5800.00
04110              -8.60    -5600.00
04111              -8.60    -5600.00
04112              -8.40    -5800.00
04113              -7.60    -5600.00
04114              -8.20    -5800.00
04115              -8.40    -5600.00
04116              -7.20    -5400.00
04117              -7.00    -5600.00
04118              -8.20    -5600.00
04119              -7.40    -5400.00
04120              -6.60    -5600.00
04121              -7.00    -5600.00
04122              -7.40    -5400.00
04123              -6.20    -5400.00
04124              -6.80    -5400.00
04125              -7.00    -5200.00
04126              -6.20    -5200.00
04127              -6.00    -5200.00
04128              -6.80    -5200.00
04129              -6.20    -5000.00
04130              -6.00    -5000.00
04131              -6.00    -5000.00
04132              -6.20    -5000.00
04133              -6.00    -4600.00
04134              -5.40    -4600.00
04135              -5.80    -4800.00
04136              -5.80    -4600.00
04137              -4.60    -4600.00
04138              -5.40    -4800.00
04139              -5.00    -4400.00
04140              -4.40    -4600.00
04141              -4.80    -4400.00
04142              -5.20    -4400.00
04143              -4.60    -4200.00
04144              -4.60    -4200.00
04145              -4.40    -4400.00
04146              -4.40    -4000.00
04147              -4.40    -4200.00
04148              -3.80    -4000.00
04149              -3.80    -4200.00
04150              -4.20    -4000.00
04151              -3.80    -4000.00
04152              -3.60    -3600.00
04153              -3.80    -3800.00
04154              -3.40    -3600.00
04155              -3.40    -3600.00
04156              -3.80    -3400.00
04157              -3.60    -3400.00
04158              -2.80    -3400.00
04159              -3.00    -3400.00
04160              -3.60    -3200.00
04161              -3.00    -3200.00
04162              -2.60    -3200.00
04163              -2.80    -3000.00
04164              -2.80    -2800.00
04165              -2.80    -2800.00
04166              -2.40    -2600.00
04167              -2.00    -2800.00
04168              -2.60    -2600.00
04169              -2.80    -2600.00
04170              -2.20    -2400.00
04171              -2.20    -2400.00
04172              -2.20    -2400.00
04173              -1.80    -2400.00
04174              -1.80    -2200.00
04175              -1.80    -2000.00
04176              -1.80    -2000.00
04177              -2.00    -1800.00
04178              -2.00    -1800.00
04179              -1.60    -1800.00
04180              -1.80    -1600.00
04181              -1.20    -1600.00
04182              -1.20    -1600.00
04183              -1.40    -1400.00
04184              -1.20    -1200.00
04185              -1.60    -1400.00
04186              -1.20    -1000.00
04187              -0.60    -1000.00
04188              -1.20    -1000.00
04189              -1.20     -800.00
04190              -0.60     -800.00
04191              -0.60     -800.00
04192              -1.20     -800.00
04193              -1.00     -600.00
04194              -0.40     -400.00
04195              -0.60     -200.00
04196              -1.20     -400.00
04197               0.20     -200.00
04198              -0.20     -200.00
04199              -0.60        0.00
04200              -0.20        0.00
04201               0.40        0.00
04202               0.20      400.00
04203               0.20      200.00
04204              -0.20      400.00
04205               0.40      400.00
04206               0.40      600.00
04207               2.60      600.00
04208              11.60      800.00
04209               0.20      800.00
04210             -25.00      800.00
04211               2.20     1000.00
04212              25.00     1000.00
04213               1.40     1400.00
04214             -25.00     1200.00
04215              25.00     1400.00
04216              25.00     1800.00
04217             -25.00     1400.00
04218             -25.00     1800.00
04219              25.00     1800.00
04220              25.00     1800.00
04221             -25.00     2000.00
04222               8.60     2000.00
04223              25.00     2200.00
04224             -25.00     2000.00
04225             -25.00     2200.00
04226              25.00     2000.00
04227              25.00     2200.00
04228             -25.00     2800.00
04229              25.00     2400.00
04230              25.00     2800.00
04231             -25.00     2800.00
04232             -25.00     3000.00
04233              25.00     2800.00
04234              11.60     2800.00
04235             -25.00     3200.00
04236              25.00     2800.00
04237              25.00     3200.00
04238             -25.00     3200.00
04239             -25.00     3200.00
04240              25.00     3200.00
04241               9.00     3600.00
04242             -25.00     3600.00
04243              25.00     3400.00
04244              25.00     3600.00
04245             -25.00     3800.00
04246             -10.20     3800.00
04247              25.00     3800.00
04248             -10.80     4000.00
04249             -25.00     3800.00
04250              25.00     4000.00
04251              15.60     4000.00
04252             -25.00     4000.00
04253              12.80     4000.00
04254              25.00     4400.00
04255             -15.60     4400.00
04256              -3.40     4400.00
04257              23.60     4400.00
04258               0.40     4400.00
04259              -8.60     4400.00
04260              14.60     4600.00
04261              11.40     4800.00
04262              -7.00     4800.00
04263               6.00     4800.00
04264              15.40     4800.00
04265              -0.60     4800.00
04266              -1.00     5000.00
04267              14.60     4800.00
04268               6.80     5000.00
04269              -3.60     5000.00
04270               9.40     5200.00
04271              12.20     5000.00
04272              -0.40     5200.00
04273               4.60     5400.00
04274              13.80     5400.00
04275               3.40     5400.00
04276               1.20     5400.00
04277              12.80     5400.00
04278               8.40     5400.00
04279               0.60     5400.00
04280               9.20     5400.00
04281              12.40     5600.00
04282               3.20     5600.00
04283               5.40     5600.00
04284              12.20     5600.00
04285               7.20     5600.00
04286               4.20     5600.00
04287              10.40     5600.00
04288              10.00     5800.00
04289               4.80     5600.00
04290               8.60     5600.00
04291              11.60     5800.00
04292               7.40     5800.00
04293               6.60     5800.00
04294              11.60     6000.00
04295              10.00     6000.00
04296               6.60     6000.00
04297               9.80     6000.00
04298              11.00     6000.00
04299               8.40     5800.00
04300               8.80     6000.00
04301              11.00     6000.00
04302               9.20     5800.00
04303               9.00     6000.00
04304              10.80     5800.00
04305              10.20     5800.00
04306               9.00     5800.00
04307              10.60     6000.00
04308              10.60     5800.00
04309               9.40     6000.00
04310               9.80     6000.00
04311              10.00     6000.00
04312              10.00     6000.00
04313               9.80     5800.00
04314               9.40     6000.00
04315               9.20     5800.00
04316               9.20     5800.00
04317               9.40     5800.00
04318               9.40     6000.00
04319               8.40     5600.00
04320               8.60     5600.00
04321               8.40     5800.00
04322               8.40     5600.00
04323               7.40     5600.00
04324               7.60     5600.00
04325               8.00     5600.00
04326               8.40     5600.00
04327               7.00     5400.00
04328               7.80     5600.00
04329               7.00     5600.00
04330               6.80     5400.00
04331               7.40     5400.00
04332               6.80     5400.00
04333               6.00     5400.00
04334               6.60     5400.00
04335               6.60     5200.00
04336               6.00     5400.00
04337               6.60     5200.00
04338               6.20     5200.00
04339               5.80     5200.00
04340               5.80     5200.00
04341               6.20     5000.00
04342               5.40     4800.00
04343               5.00     5000.00
04344               5.80     4800.00
04345               5.40     4800.00
04346               4.60     4800.00
04347               5.20     4800.00
04348               5.60     4800.00
04349               4.40     4600.00
04350               5.00     4800.00
04351               4.80     4600.00
04352               4.20     4400.00
04353               4.40     4400.00
04354               5.00     4200.00
04355               4.20     4400.00
04356               4.20     4400.00
04357               4.20     4400.00
04358               3.80     4200.00
04359               4.20     4000.00
04360               3.80     4000.00
04361               3.40     4200.00
04362               3.60     4000.00
04363               4.20     3800.00
04364               3.20     3800.00
04365               3.00     3600.00
04366               3.80     3600.00
04367               3.40     3600.00
04368               2.60     3600.00
04369               3.00     3400.00
04370               3.00     3400.00
04371               2.60     3200.00
04372               3.40     3200.00
04373               3.00     3200.00
04374               2.20     3200.00
04375               2.60     3000.00
04376               2.60     2800.00
04377               2.20     2800.00
04378               2.20     2800.00
04379               2.60     2800.00
04380               2.00     2800.00
04381               2.00     2400.00
04382               2.20     2400.00
04383               1.80     2400.00
04384               1.40     2400.00
04385               1.80     2200.00
04386               1.80     2200.00
04387               1.40     2200.00
04388               1.40     2000.00
04389               1.20     2000.00
04390               1.40     2000.00
04391               1.00     1800.00
04392               1.00     1800.00
04393               1.00     1600.00
04394               0.40     1400.00
04395               1.20     1400.00
04396               1.20     1400.00
04397               0.20     1200.00
04398               0.80     1200.00
04399               1.00     1200.00
04400               0.20     1000.00
04401               0.60      800.00
04402               0.40      800.00
04403               0.40      600.00
04404               0.20      600.00
04405               0.20      600.00
04406               0.40      400.00
04407              -0.40      400.00
04408               0.00      200.00
04409               0.60      200.00
04410              -0.80        0.00
04411              -0.60        0.00
04412               0.60        0.00
04413              -0.60     -200.00
04414               0.20     -200.00
04415              -0.40     -400.00
04416              -0.60     -400.00
04417               0.20     -400.00
04418               0.00     -600.00
04419              -1.00     -600.00
04420               0.60     -800.00
04421              12.40     -800.00
04422               2.80    -1200.00
04423             -25.00     -800.00
04424              12.20     -800.00
04425              25.00    -1200.00
04426             -11.80    -1400.00
04427             -25.00    -1200.00
04428              25.00    -1600.00
04429              25.00    -1400.00
04430             -25.00    -2000.00
04431             -25.00    -1600.00
04432              25.00    -1800.00
04433              25.00    -1800.00
04434             -25.00    -1800.00
04435              18.00    -2000.00
04436              25.00    -2400.00
04437             -25.00    -2400.00
04438             -25.00    -2000.00
04439              25.00    -2400.00
04440              25.00    -2600.00
04441             -25.00    -2200.00
04442              25.00    -2600.00
04443              25.00    -2600.00
04444             -25.00    -2600.00
04445             -25.00    -2800.00
04446              25.00    -2800.00
04447              -3.00    -2800.00
04448             -25.00    -3000.00
04449              25.00    -3400.00
04450              25.00    -3200.00
04451             -25.00    -3200.00
04452             -25.00    -3400.00
04453              25.00    -3400.00
04454              15.40    -3400.00
04455             -25.00    -3600.00
04456               9.20    -3600.00
04457              25.00    -3600.00
04458             -25.00    -4000.00
04459             -25.00    -3800.00
04460              25.00    -4000.00
04461             -19.80    -4000.00
04462             -25.00    -4200.00
04463              25.00    -4000.00
04464               3.40    -4200.00
04465             -25.00    -4200.00
04466              13.80    -4400.00
04467              13.40    -4200.00
04468             -25.00    -4400.00
04469              -6.00    -4600.00
04470              11.60    -4400.00
04471             -11.00    -4400.00
04472             -15.80    -4600.00
04473               4.60    -4800.00
04474              -0.60    -4800.00
04475             -18.40    -4600.00
04476              -1.80    -4800.00
04477               4.40    -4800.00
04478             -16.00    -5000.00
04479              -8.60    -5000.00
04480               5.20    -5000.00
04481              -9.20    -5200.00
04482             -14.80    -5000.00
04483               1.00    -5200.00
04484              -2.20    -5400.00
04485             -15.60    -5200.00
04486              -6.00    -5400.00
04487               2.60    -5400.00
04488             -13.00    -5200.00
04489             -12.20    -5600.00
04490               2.20    -5400.00
04491              -7.60    -5600.00
04492             -15.60    -5600.00
04493              -2.60    -5600.00
04494              -2.80    -5600.00
04495             -14.60    -5600.00
04496              -8.60    -5800.00
04497              -1.80    -5600.00
04498             -10.80    -5800.00
04499             -12.20    -5600.00
04500              -3.60    -5800.00
04501              -7.60    -5800.00
04502             -13.60    -5800.00
04503              -6.80    -5800.00
04504              -5.40    -6000.00
04505             -12.60    -5800.00
04506             -10.60    -6000.00
04507              -5.40    -5800.00
04508              -9.40    -6000.00
04509             -12.20    -6000.00
04510              -8.20    -6000.00
04511              -8.20    -6000.00
04512             -11.60    -6000.00
04513             -10.40    -6000.00
04514              -8.60    -6000.00
04515             -10.80    -6000.00
04516             -11.40    -6000.00
04517              -9.20    -6000.00
04518             -10.00    -5800.00
04519             -11.60    -6000.00
04520             -10.00    -6000.00
04521              -9.60    -6000.00
04522             -11.00    -6000.00
04523             -10.20    -6000.00
04524             -10.20    -6000.00
04525             -10.20    -6000.00
04526             -10.20    -6000.00
04527             -10.20    -6000.00
04528              -9.80    -6000.00
04529             -10.00    -6000.00
04530             -10.20    -6000.00
04531              -8.60    -6000.00
04532              -9.40    -6000.00
04533             -10.60    -5800.00
04534              -8.20    -6000.00
04535              -8.60    -5800.00
04536             -10.00    -5800.00
04537              -8.20    -5800.00
04538              -8.60    -5800.00
04539              -8.60    -5600.00
04540              -6.80    -5600.00
04541              -8.80    -5600.00
04542              -8.20    -5600.00
04543              -6.80    -5600.00
04544              -8.60    -5800.00
04545              -7.40    -5600.00
04546              -6.80    -5600.00
04547              -8.40    -5600.00
04548              -7.00    -5400.00
04549              -5.80    -5400.00
04550              -8.20    -5400.00
04551              -6.60    -5200.00
04552              -4.80    -5200.00
04553              -7.40    -5200.00
04554              -6.20    -5200.00
04555              -6.20    -5000.00
04556              -6.00    -5000.00
04557              -5.20    -5200.00
04558              -5.80    -5000.00
04559              -6.20    -4600.00
04560              -4.60    -5000.00
04561              -6.80    -4600.00
04562              -5.80    -4600.00
04563              -3.80    -4600.00
04564              -6.00    -4600.00
04565              -6.20    -4400.00
04566              -2.80    -4400.00
04567              -5.00    -4400.00
04568              -6.20    -4400.00
04569              -3.60    -4400.00
04570              -4.60    -4400.00
04571              -5.60    -4200.00
04572              -3.00    -4200.00
04573              -3.60    -4000.00
04574              -6.00    -4000.00
04575              -3.60    -4000.00
04576              -3.00    -4000.00
04577              -5.40    -3800.00
04578              -4.00    -4000.00
04579              -2.60    -3800.00
04580              -4.60    -3600.00
04581              -3.80    -3600.00
04582              -3.00    -3600.00
04583              -4.40    -3400.00
04584              -3.80    -3600.00
04585              -2.40    -3400.00
04586              -3.00    -3200.00
04587              -3.80    -3200.00
04588              -3.00    -3200.00
04589              -2.80    -3200.00
04590              -3.00    -3200.00
04591              -3.00    -3000.00
04592              -2.80    -2800.00
04593              -2.20    -2800.00
04594              -2.60    -2800.00
04595              -3.40    -2600.00
04596              -2.60    -2600.00
04597              -2.00    -2400.00
04598              -3.20    -2600.00
04599              -2.40    -2400.00
04600              -1.00    -2400.00
04601              -2.80    -2200.00
04602              -3.00    -2000.00
04603              -1.00    -2000.00
04604              -1.80    -2000.00
04605              -3.00    -1800.00
04606              -1.40    -1800.00
04607              -1.00    -1600.00
04608              -2.20    -1600.00
04609              -1.80    -1600.00
04610              -1.00    -1600.00
04611              -1.80    -1400.00
04612              -1.80    -1200.00
04613              -0.60    -1200.00
04614              -0.40    -1000.00
04615              -1.80     -800.00
04616              -1.40     -800.00
04617              -0.20     -800.00
04618              -1.00     -800.00
04619              -1.20     -600.00
04620              -0.40     -400.00
04621              -0.40     -400.00
04622              -0.60     -400.00
04623              -0.40     -200.00
04624              -0.60     -200.00
04625              -0.40     -200.00
04626              -0.20        0.00
04627              -0.20        0.00
04628               0.20      200.00
04629               0.60      200.00
04630               0.20      400.00
04631              -0.60      400.00
04632               0.60      400.00
04633               0.80      600.00
04634               1.40      600.00
04635               8.60      800.00
04636               8.20      800.00
04637             -25.00      800.00
04638             -19.80      800.00
04639              25.00     1200.00
04640              22.20     1400.00
04641             -25.00     1000.00
04642              -9.40     1400.00
04643              25.00     1400.00
04644              -6.00     1400.00
04645             -25.00     1600.00
04646              25.00     1800.00
04647              25.00     2000.00
04648             -25.00     1800.00
04649             -25.00     2000.00
04650              25.00     2000.00
04651               4.60     2000.00
04652             -25.00     2400.00
04653              25.00     2200.00
04654              25.00     2400.00
04655             -25.00     2400.00
04656              -7.80     2400.00
04657              25.00     2400.00
04658             -25.00     2600.00
04659             -25.00     2800.00
04660              25.00     2800.00
04661              25.00     2800.00
04662             -25.00     3000.00
04663               3.00     2800.00
04664              25.00     3200.00
04665             -23.60     3200.00
04666             -25.00     3200.00
04667              25.00     3200.00
04668              25.00     3600.00
04669             -25.00     3600.00
04670               5.60     3600.00
04671              25.00     3600.00
04672             -23.80     3800.00
04673             -25.00     3800.00
04674              25.00     3800.00
04675               8.80     3800.00
04676             -25.00     4000.00
04677              24.40     4000.00
04678              25.00     4000.00
04679             -25.00     4000.00
04680               0.20     4000.00
04681              25.00     4000.00
04682              -8.40     4400.00
04683             -11.00     4400.00
04684              22.00     4400.00
04685               8.40     4600.00
04686             -11.60     4400.00
04687              10.60     4600.00
04688              15.60     4600.00
04689              -5.80     4600.00
04690               2.20     4800.00
04691              16.20     4800.00
04692               2.80     4800.00
04693              -3.40     5000.00
04694              12.60     5000.00
04695              10.00     5000.00
04696              -2.80     5200.00
04697               6.40     5000.00
04698              13.60     5200.00
04699               2.00     5200.00
04700               1.80     5200.00
04701              13.40     5400.00
04702               6.60     5400.00
04703               0.20     5400.00
04704              11.00     5400.00
04705              10.80     5400.00
04706               1.00     5600.00
04707               6.80     5400.00
04708              13.20     5600.00
04709               5.00     5600.00
04710               3.80     5600.00
04711              11.60     5600.00
04712               9.00     5600.00
04713               3.60     5600.00
04714               9.40     5800.00
04715              11.00     5600.00
04716               5.00     5600.00
04717               7.60     5600.00
04718              12.20     5800.00
04719               7.60     5600.00
04720               5.40     6000.00
04721              11.00     5800.00
04722              11.00     6000.00
04723               6.20     6000.00
04724               9.00     6000.00
04725              11.80     6000.00
04726               8.40     5800.00
04727               7.80     6000.00
04728              11.60     5800.00
04729               9.60     5800.00
04730               8.20     6000.00
04731              10.60     6000.00
04732              10.60     6000.00
04733               8.40     6000.00
04734               9.60     6000.00
04735              10.80     6000.00
04736               9.80     6000.00
04737               9.40     5800.00
04738              10.00     6000.00
04739              10.20     6000.00
04740               9.00     5600.00
04741               9.20     6000.00
04742              10.00     5600.00
04743               9.00     6000.00
04744               9.00     5600.00
04745              10.00     5800.00
04746               8.60     5800.00
04747               7.80     5600.00
04748               8.40     5800.00
04749               8.60     5800.00
04750               7.60     5600.00
04751               8.20     5800.00
04752               8.60     5600.00
04753               8.40     5600.00
04754               7.20     5800.00
04755               8.20     5600.00
04756               7.00     5600.00
04757               6.80     5600.00
04758               7.60     5400.00
04759               7.00     5200.00
04760               6.20     5400.00
04761               6.80     5200.00
04762               6.60     5400.00
04763               6.20     5400.00
04764               6.60     5200.00
04765               6.60     5400.00
04766               5.80     5200.00
04767               6.00     5200.00
04768               6.20     5200.00
04769               5.80     5200.00
04770               5.20     5000.00
04771               5.40     4800.00
04772               5.60     4800.00
04773               5.00     4800.00
04774               5.00     4800.00
04775               5.20     4800.00
04776               4.60     4600.00
04777               4.40     4600.00
04778               4.60     4400.00
04779               4.60     4600.00
04780               3.80     4400.00
04781               4.40     4400.00
04782               4.40     4200.00
04783               3.80     4200.00
04784               3.80     4000.00
04785               4.20     4000.00
04786               3.60     4000.00
04787               3.60     4000.00
04788               3.40     3800.00
04789               3.40     3800.00
04790               3.80     3800.00
04791               3.40     3600.00
04792               3.20     3800.00
04793               3.00     3600.00
04794               3.60     3600.00
04795               2.60     3600.00
04796               2.20     3400.00
04797               3.20     3600.00
04798               2.80     3400.00
04799               2.60     3200.00
04800               3.00     3200.00
04801               2.40     3200.00
04802               2.60     3000.00
04803               2.60     3000.00
04804               2.40     2800.00
04805               2.20     2800.00
04806               2.00     2800.00
04807               2.00     2600.00
04808               1.80     2600.00
04809               1.80     2400.00
04810               2.00     2400.00
04811               1.80     2200.00
04812               1.80     2400.00
04813               2.00     2200.00
04814               1.40     2000.00
04815               1.20     2200.00
04816               2.80     2000.00
04817               0.20     2000.00
04818               0.60     1800.00
04819               3.00     1800.00
04820              -0.20     1600.00
04821               0.60     1600.00
04822               2.60     1400.00
04823               0.20     1400.00
04824               0.40     1200.00
04825               1.60     1200.00
04826               0.60     1200.00
04827               0.20     1200.00
04828               0.60      800.00
04829               1.00      800.00
04830              -0.20      800.00
04831               0.40      800.00
04832               1.00      600.00
04833               0.60      600.00
04834              -0.60      400.00
04835               0.00      400.00
04836               0.60      200.00
04837              -0.60        0.00
04838              -0.40        0.00
04839               0.60        0.00
04840              -0.20     -200.00
04841              -0.60        0.00
04842              -0.20     -400.00
04843               0.40     -200.00
04844              -1.00     -400.00
04845              -1.40     -400.00
04846              -0.20     -800.00
04847               0.80     -600.00
04848               8.40     -800.00
04849               9.40    -1000.00
04850             -25.00    -1000.00
04851             -18.20     -800.00
04852              25.00    -1000.00
04853              14.60    -1400.00
04854             -25.00    -1400.00
04855               4.60    -1200.00
04856              25.00    -1600.00
04857             -25.00    -2000.00
04858             -25.00    -1600.00
04859              25.00    -1800.00
04860              25.00    -2000.00
04861             -25.00    -2000.00
04862             -25.00    -1800.00
04863              25.00    -2200.00
04864               6.20    -2400.00
04865             -25.00    -2000.00
04866              25.00    -2400.00
04867              25.00    -2600.00
04868             -25.00    -2400.00
04869             -14.60    -2600.00
04870              25.00    -2600.00
04871             -25.00    -2800.00
04872             -25.00    -2800.00
04873              25.00    -3200.00
04874              25.00    -3000.00
04875             -25.00    -2800.00
04876               4.60    -3200.00
04877              25.00    -3200.00
04878             -25.00    -3000.00
04879             -25.00    -3400.00
04880              25.00    -3600.00
04881              25.00    -3400.00
04882             -25.00    -3600.00
04883             -17.20    -3600.00
04884              25.00    -3600.00
04885             -23.60    -3800.00
04886             -25.00    -3600.00
04887              25.00    -4000.00
04888               9.00    -4000.00
04889             -25.00    -4000.00
04890              23.60    -4200.00
04891              24.20    -4200.00
04892             -25.00    -4000.00
04893              -0.60    -4400.00
04894              22.80    -4200.00
04895             -22.00    -4200.00
04896             -14.80    -4600.00
04897              11.60    -4400.00
04898              -4.00    -4600.00
04899             -18.00    -4600.00
04900               0.20    -4600.00
04901               4.80    -4600.00
04902             -16.40    -4800.00
04903              -8.20    -5000.00
04904               6.20    -4800.00
04905             -11.20    -4800.00
04906             -13.40    -5000.00
04907               4.00    -5000.00
04908              -4.40    -5000.00
04909             -16.00    -5200.00
04910              -3.00    -5200.00
04911               1.00    -5200.00
04912             -13.40    -5200.00
04913             -10.20    -5400.00
04914               3.00    -5200.00
04915              -9.20    -5400.00
04916             -15.60    -5600.00
04917               0.20    -5600.00
04918              -3.80    -5600.00
04919             -17.00    -5600.00
04920              -6.00    -5400.00
04921               0.20    -5600.00
04922             -13.40    -5600.00
04923             -11.60    -5600.00
04924              -1.80    -5600.00
04925              -8.40    -5800.00
04926             -13.80    -5800.00
04927              -5.40    -5800.00
04928              -5.60    -5800.00
04929             -13.20    -5800.00
04930              -9.40    -5800.00
04931              -5.00    -5800.00
04932             -10.20    -5800.00
04933             -12.60    -6000.00
04934              -6.40    -6000.00
04935              -7.60    -6000.00
04936             -12.60    -6000.00
04937              -9.80    -6000.00
04938              -7.00    -6000.00
04939             -11.40    -6000.00
04940             -10.80    -6000.00
04941              -8.40    -6000.00
04942             -10.80    -6000.00
04943             -10.80    -6000.00
04944              -8.80    -6000.00
04945             -10.20    -6000.00
04946             -11.00    -6000.00
04947              -9.40    -6000.00
04948             -10.00    -6200.00
04949             -11.40    -6000.00
04950             -10.20    -6000.00
04951              -9.40    -6000.00
04952             -10.80    -6000.00
04953             -10.20    -6000.00
04954              -9.40    -6000.00
04955              -9.80    -6000.00
04956             -10.60    -6000.00
04957             -10.00    -6000.00
04958              -8.00    -6000.00
04959              -9.60    -5800.00
04960             -10.20    -5800.00
04961              -8.20    -5800.00
04962              -8.20    -5800.00
04963             -10.00    -5800.00
04964              -9.00    -5600.00
04965              -7.80    -5800.00
04966              -9.20    -5800.00
04967              -8.00    -5600.00
04968              -7.00    -5600.00
04969              -8.60    -5800.00
04970              -8.20    -5600.00
04971              -6.60    -5600.00
04972              -7.60    -5600.00
04973              -8.40    -5600.00
04974              -7.00    -5600.00
04975              -6.60    -5600.00
04976              -7.40    -5600.00
04977              -7.40    -5600.00
04978              -6.20    -5200.00
04979              -7.40    -5200.00
04980              -7.00    -5200.00
04981              -5.20    -5200.00
04982              -6.60    -5200.00
04983              -7.60    -5000.00
04984              -5.40    -5000.00
04985              -5.00    -5000.00
04986              -6.40    -4800.00
04987              -6.20    -4600.00
04988              -4.60    -5000.00
04989              -6.20    -4600.00
04990              -5.80    -4800.00
04991              -4.80    -4600.00
04992              -5.60    -4600.00
04993              -5.40    -4600.00
04994              -4.20    -4400.00
04995              -4.60    -4600.00
04996              -5.20    -4400.00
04997              -4.40    -4400.00
04998              -5.00    -4200.00
04999              -4.60    -4200.00
05000              -4.20    -4200.00
