Unit:(mV)
                     CH1         CH2
Frequency              ? 234.003 kHz
00001              -9.20     7600.00
00002               0.60     7600.00
00003               9.00     7800.00
00004              -5.20     7800.00
00005              -2.80     8000.00
00006               7.60     7800.00
00007              -0.80     8000.00
00008              -3.80     8200.00
00009               5.20     8000.00
00010               2.60     8000.00
00011              -3.60     8200.00
00012               0.60     8200.00
00013               3.80     8200.00
00014               0.20     8200.00
00015              -1.40     8200.00
00016               2.60     8400.00
00017               2.00     8400.00
00018              -2.00     8400.00
00019               0.60     8400.00
00020               3.00     8400.00
00021              -1.20     8600.00
00022              -0.60     8400.00
00023               3.20     8600.00
00024               1.00     8600.00
00025              -2.00     8600.00
00026               1.40     8600.00
00027               2.20     8600.00
00028              -0.60     8600.00
00029               0.40     8800.00
00030               1.80     8600.00
00031               0.20     8800.00
00032               0.40     8600.00
00033               1.40     8600.00
00034               0.60     8600.00
00035              -0.40     8600.00
00036               1.40     8600.00
00037               1.00     8800.00
00038              -0.20     8600.00
00039               0.60     8800.00
00040               1.20     8600.00
00041               1.00     8600.00
00042               0.80     8800.00
00043               0.40     8800.00
00044               1.00     8600.00
00045               0.60     8600.00
00046               1.00     8400.00
00047               1.00     8600.00
00048               0.60     8600.00
00049               0.40     8600.00
00050               1.00     8400.00
00051               0.40     8400.00
00052               1.00     8400.00
00053               1.80     8400.00
00054               0.60     8400.00
00055               0.60     8400.00
00056               0.60     8400.00
00057               0.60     8400.00
00058               0.00     8400.00
00059               1.80     8200.00
00060               1.00     8200.00
00061               0.40     8200.00
00062               1.40     8000.00
00063               1.40     8200.00
00064               0.60     8000.00
00065               0.00     8000.00
00066               1.00     7800.00
00067               1.00     8000.00
00068               0.40     7800.00
00069               1.00     7800.00
00070               1.40     7600.00
00071               0.40     7600.00
00072               0.40     7600.00
00073               1.40     7600.00
00074               0.60     7600.00
00075              -0.40     7400.00
00076               1.20     7200.00
00077               1.20     7200.00
00078               0.20     7000.00
00079               1.00     7000.00
00080               0.40     7000.00
00081              -0.40     6800.00
00082               0.60     6800.00
00083               0.60     6800.00
00084               0.20     6800.00
00085               0.20     6600.00
00086               0.40     6600.00
00087               0.60     6400.00
00088               0.40     6200.00
00089              -0.20     6200.00
00090               0.40     6200.00
00091               1.00     6000.00
00092               0.40     6000.00
00093              -0.40     6000.00
00094               0.40     5800.00
00095               0.20     5600.00
00096              -0.40     5600.00
00097               0.60     5600.00
00098               0.40     5400.00
00099              -0.20     5400.00
00100               0.60     5000.00
00101               0.40     5000.00
00102              -0.60     4800.00
00103               0.20     4800.00
00104               0.60     4800.00
00105               0.00     4600.00
00106              -0.20     4400.00
00107               0.60     4400.00
00108               0.40     4400.00
00109               0.00     4200.00
00110               0.20     4000.00
00111               0.40     4000.00
00112              -0.60     3800.00
00113              -0.20     3600.00
00114               0.40     3800.00
00115              -0.40     3600.00
00116              -0.20     3400.00
00117               1.00     3200.00
00118              -0.20     3200.00
00119              -0.20     3000.00
00120               0.80     2800.00
00121               0.20     2800.00
00122              -0.60     2800.00
00123               0.40     2600.00
00124               0.40     2600.00
00125              -1.20     2200.00
00126               0.00     2000.00
00127               0.60     2200.00
00128              -1.00     2000.00
00129              -0.20     2000.00
00130               1.20     1600.00
00131              -1.20     1600.00
00132              -0.60     1600.00
00133               1.80     1400.00
00134              -0.60     1200.00
00135              -1.40     1000.00
00136               1.00     1000.00
00137              -0.20      800.00
00138              -1.20      800.00
00139               0.40      600.00
00140              -0.20      400.00
00141              -0.60      400.00
00142              -0.20      200.00
00143              -0.20        0.00
00144              -0.60        0.00
00145               0.00     -200.00
00146               0.20     -400.00
00147               0.40     -400.00
00148              -0.60     -600.00
00149              -1.00     -600.00
00150               0.40     -800.00
00151              -0.60     -800.00
00152              -0.40    -1000.00
00153              10.60    -1200.00
00154              17.00    -1600.00
00155             -25.00    -1600.00
00156             -25.00    -1600.00
00157              25.00    -1600.00
00158              25.00    -1800.00
00159             -25.00    -2200.00
00160             -25.00    -1600.00
00161              25.00    -2200.00
00162              25.00    -2600.00
00163             -25.00    -2600.00
00164             -11.40    -2600.00
00165              25.00    -2800.00
00166             -13.40    -2800.00
00167             -25.00    -2400.00
00168              25.00    -3400.00
00169              25.00    -3200.00
00170             -25.00    -2800.00
00171              25.00    -3600.00
00172              25.00    -3600.00
00173             -25.00    -3600.00
00174              14.20    -4000.00
00175              25.00    -4000.00
00176              11.80    -4000.00
00177             -25.00    -4000.00
00178             -21.40    -4200.00
00179              25.00    -4400.00
00180             -25.00    -4400.00
00181             -25.00    -4600.00
00182              25.00    -4600.00
00183              23.60    -4600.00
00184             -25.00    -5000.00
00185              25.00    -5000.00
00186              25.00    -5000.00
00187             -25.00    -5000.00
00188               5.20    -5400.00
00189              25.00    -5400.00
00190             -25.00    -5400.00
00191             -25.00    -5600.00
00192              25.00    -5800.00
00193               3.60    -5800.00
00194             -25.00    -5800.00
00195              25.00    -6000.00
00196              17.40    -6000.00
00197             -25.00    -6000.00
00198               6.60    -6400.00
00199              14.00    -6400.00
00200             -11.00    -6400.00
00201              -9.20    -6600.00
00202               8.80    -6600.00
00203               3.00    -6800.00
00204             -14.60    -6800.00
00205               4.20    -7000.00
00206               9.00    -6800.00
00207             -11.60    -6800.00
00208              -4.60    -7200.00
00209              11.00    -7200.00
00210              -3.40    -7400.00
00211             -14.60    -7400.00
00212              10.20    -7400.00
00213               5.00    -7400.00
00214             -17.80    -7400.00
00215               5.40    -7600.00
00216              10.00    -7600.00
00217             -14.00    -7600.00
00218              -3.80    -8000.00
00219              10.00    -7800.00
00220              -5.60    -8000.00
00221              -9.20    -8000.00
00222               6.80    -8000.00
00223               1.40    -8200.00
00224             -10.00    -8200.00
00225               0.20    -8200.00
00226               4.20    -8200.00
00227              -4.40    -8200.00
00228              -4.00    -8200.00
00229               2.60    -8400.00
00230              -0.60    -8400.00
00231              -5.20    -8400.00
00232              -0.40    -8400.00
00233               1.20    -8400.00
00234              -4.20    -8400.00
00235              -2.40    -8400.00
00236               1.80    -8600.00
00237              -2.00    -8400.00
00238              -3.60    -8400.00
00239              -0.40    -8600.00
00240              -0.40    -8600.00
00241              -2.20    -8600.00
00242              -2.00    -8800.00
00243              -0.60    -8600.00
00244              -1.20    -8800.00
00245              -1.40    -8800.00
00246              -1.40    -8800.00
00247              -1.20    -8800.00
00248              -1.20    -8800.00
00249              -1.80    -8800.00
00250              -1.40    -8600.00
00251              -1.00    -8800.00
00252              -1.40    -8800.00
00253              -1.40    -8800.00
00254              -0.60    -8800.00
00255              -1.00    -8800.00
00256              -2.00    -8600.00
00257              -1.80    -8800.00
00258              -0.20    -8800.00
00259              -1.20    -8600.00
00260              -2.20    -8600.00
00261              -0.60    -8600.00
00262              -1.00    -8400.00
00263              -1.80    -8400.00
00264              -1.40    -8400.00
00265              -0.80    -8400.00
00266              -1.20    -8400.00
00267              -1.80    -8400.00
00268              -0.60    -8400.00
00269              -0.60    -8400.00
00270              -2.00    -8400.00
00271              -1.80    -8400.00
00272              -0.20    -8200.00
00273              -1.20    -8200.00
00274              -2.20    -8200.00
00275              -0.60    -8200.00
00276              -0.40    -8200.00
00277              -1.80    -8200.00
00278              -1.20    -8000.00
00279              -1.00    -8000.00
00280              -1.60    -8000.00
00281              -2.00    -8000.00
00282              -0.60    -8000.00
00283              -1.00    -7600.00
00284              -2.20    -7600.00
00285              -1.20    -7600.00
00286               0.20    -7400.00
00287              -2.20    -7400.00
00288              -2.00    -7400.00
00289              -0.40    -7200.00
00290              -1.20    -7200.00
00291              -2.20    -7200.00
00292              -0.20    -7200.00
00293              -1.20    -7200.00
00294              -2.20    -7200.00
00295              -0.60    -6800.00
00296              -1.00    -6800.00
00297              -2.00    -6800.00
00298              -1.20    -6800.00
00299              -0.80    -6600.00
00300              -0.60    -6400.00
00301              -1.40    -6400.00
00302              -1.20    -6400.00
00303              -0.60    -6200.00
00304              -1.20    -6200.00
00305              -1.40    -6000.00
00306              -0.80    -5800.00
00307              -1.20    -5800.00
00308              -1.00    -5800.00
00309              -1.00    -5600.00
00310              -1.00    -5600.00
00311              -1.40    -5400.00
00312              -1.00    -5200.00
00313              -0.60    -5200.00
00314              -1.20    -5000.00
00315              -1.00    -5000.00
00316              -0.80    -5000.00
00317              -1.00    -4800.00
00318              -0.60    -4600.00
00319              -0.60    -4400.00
00320              -1.20    -4400.00
00321              -0.60    -4400.00
00322              -0.20    -4200.00
00323              -1.00    -4200.00
00324              -1.00    -4000.00
00325              -0.60    -4000.00
00326              -1.00    -3800.00
00327              -0.60    -3800.00
00328              -0.60    -3600.00
00329              -0.80    -3600.00
00330              -1.00    -3400.00
00331              -0.60    -3200.00
00332              -0.20    -3200.00
00333              -0.60    -3200.00
00334              -1.00    -2800.00
00335              -0.40    -2800.00
00336              -0.40    -2800.00
00337              -0.60    -2600.00
00338              -0.80    -2600.00
00339              -0.60    -2400.00
00340              -0.80    -2400.00
00341              -0.60    -2000.00
00342              -0.20    -2000.00
00343              -1.00    -2000.00
00344              -0.60    -1800.00
00345              -0.40    -1600.00
00346              -0.60    -1400.00
00347              -0.40    -1200.00
00348              -0.60    -1200.00
00349              -0.40    -1000.00
00350              -0.20    -1000.00
00351              -0.60     -800.00
00352              -0.40     -800.00
00353              -0.60     -600.00
00354              -0.60     -400.00
00355              -0.20     -400.00
00356              -0.60     -200.00
00357              -1.00     -200.00
00358               0.20        0.00
00359               0.20      200.00
00360              -0.40      400.00
00361               0.60      400.00
00362              -0.40      600.00
00363              -0.60      400.00
00364               0.20      600.00
00365              -0.20      800.00
00366               0.40      800.00
00367               6.80     1400.00
00368              15.20     1400.00
00369             -13.80     1800.00
00370             -25.00     1600.00
00371              -4.20     1600.00
00372              25.00     1800.00
00373               7.80     2000.00
00374             -25.00     2000.00
00375              25.00     2400.00
00376              25.00     2400.00
00377             -25.00     2200.00
00378             -25.00     2800.00
00379              25.00     2400.00
00380              25.00     2400.00
00381             -25.00     3000.00
00382              25.00     3000.00
00383              25.00     3200.00
00384             -25.00     3200.00
00385              21.00     3600.00
00386              25.00     3200.00
00387             -25.00     3400.00
00388             -25.00     4000.00
00389              25.00     3600.00
00390              25.00     4000.00
00391             -25.00     4200.00
00392             -25.00     4000.00
00393              25.00     4400.00
00394              14.80     4600.00
00395             -25.00     4400.00
00396              25.00     4600.00
00397              25.00     4800.00
00398             -25.00     4800.00
00399             -11.40     4800.00
00400              25.00     5000.00
00401             -25.00     5400.00
00402             -25.00     5200.00
00403              25.00     5400.00
00404               8.40     5600.00
00405             -25.00     5600.00
00406              25.00     5800.00
00407              25.00     5800.00
00408             -25.00     6000.00
00409               1.00     6000.00
00410              25.00     6000.00
00411             -17.20     6200.00
00412             -10.40     6400.00
00413              18.00     6400.00
00414               0.40     6400.00
00415             -11.60     6600.00
00416               6.00     6600.00
00417               7.20     6600.00
00418              -6.60     6800.00
00419              -3.00     6800.00
00420               9.00     7000.00
00421               1.20     7000.00
00422              -9.20     7200.00
00423               5.80     7000.00
00424               8.20     7200.00
00425             -10.00     7200.00
00426              -0.40     7200.00
00427              11.60     7600.00
00428              -5.40     7600.00
00429              -5.20     7600.00
00430               9.40     7600.00
00431              -0.40     7800.00
00432              -6.20     7800.00
00433               5.80     8000.00
00434               3.40     7800.00
00435              -5.20     8000.00
00436               1.80     8200.00
00437               5.20     8200.00
00438              -2.20     8000.00
00439              -1.80     8200.00
00440               3.40     8000.00
00441               2.60     8200.00
00442              -1.60     8200.00
00443               0.20     8400.00
00444               2.80     8400.00
00445               0.20     8400.00
00446              -0.60     8400.00
00447               2.60     8400.00
00448               1.20     8600.00
00449              -1.20     8400.00
00450               2.00     8400.00
00451               1.80     8600.00
00452              -0.60     8600.00
00453               0.60     8600.00
00454               2.20     8600.00
00455               0.40     8600.00
00456               0.20     8600.00
00457               1.00     8600.00
00458               1.40     8600.00
00459               1.20     8600.00
00460               1.00     8600.00
00461               1.00     8800.00
00462               0.80     8600.00
00463               0.20     8600.00
00464               1.80     8600.00
00465               0.60     8600.00
00466               0.60     8600.00
00467               1.20     8600.00
00468               0.40     8600.00
00469               1.60     8800.00
00470               0.40     8600.00
00471               0.20     8600.00
00472               1.80     8600.00
00473               0.20     8600.00
00474              -0.20     8600.00
00475               1.80     8600.00
00476               0.60     8600.00
00477              -0.40     8400.00
00478               2.00     8600.00
00479               0.60     8600.00
00480              -0.60     8400.00
00481               1.00     8600.00
00482               0.40     8400.00
00483               0.40     8400.00
00484               1.60     8400.00
00485              -0.40     8400.00
00486               1.20     8200.00
00487               1.20     8000.00
00488               0.40     8000.00
00489              -0.20     8200.00
00490               1.00     8200.00
00491               1.00     8000.00
00492               0.20     8000.00
00493               0.40     7800.00
00494               1.20     8000.00
00495               0.20     7800.00
00496               0.60     7800.00
00497               0.40     7800.00
00498               0.20     7600.00
00499               0.60     7600.00
00500               1.00     7600.00
00501               0.40     7400.00
00502               0.40     7200.00
00503               1.00     7200.00
00504               0.40     7200.00
00505               0.20     7200.00
00506               1.20     7000.00
00507               0.20     7000.00
00508               0.00     7000.00
00509               1.40     6800.00
00510               0.40     6800.00
00511               0.20     6600.00
00512               1.00     6400.00
00513               0.40     6400.00
00514               0.40     6400.00
00515               1.00     6400.00
00516               1.00     6200.00
00517              -0.20     6200.00
00518               0.40     6000.00
00519               1.40     6000.00
00520               0.20     5800.00
00521               0.20     6000.00
00522               1.00     5600.00
00523               0.40     5600.00
00524               0.40     5600.00
00525               0.40     5400.00
00526               0.20     5200.00
00527               0.40     5200.00
00528               0.40     5000.00
00529               0.20     5000.00
00530               0.20     4800.00
00531               0.40     4800.00
00532               0.40     4800.00
00533               0.40     4600.00
00534               0.20     4600.00
00535               0.40     4400.00
00536               0.40     4400.00
00537              -0.40     4000.00
00538               0.20     4000.00
00539               0.20     4000.00
00540              -0.40     3800.00
00541               0.20     3600.00
00542               0.40     3600.00
00543              -0.60     3400.00
00544               0.20     3200.00
00545               0.40     3200.00
00546              -0.60     3000.00
00547              -0.20     3000.00
00548               0.40     2800.00
00549              -0.40     2600.00
00550              -0.20     2800.00
00551               0.20     2600.00
00552              -0.20     2200.00
00553              -0.40     2200.00
00554              -0.40     2200.00
00555               0.20     2000.00
00556              -0.20     1800.00
00557              -0.40     1800.00
00558              -0.20     1600.00
00559              -0.20     1400.00
00560              -0.40     1400.00
00561              -0.40     1400.00
00562              -0.60     1000.00
00563              -0.60      800.00
00564              -0.20      800.00
00565              -0.40      800.00
00566              -0.40      600.00
00567               0.20      600.00
00568              -0.60      400.00
00569              -0.20      400.00
00570               0.20        0.00
00571              -1.00        0.00
00572              -0.40     -200.00
00573               0.40     -200.00
00574               0.60     -400.00
00575               0.00     -600.00
00576              -1.00     -400.00
00577              -0.20     -600.00
00578               0.20     -800.00
00579              -0.60    -1000.00
00580               4.40    -1000.00
00581              22.00    -1400.00
00582             -15.20    -1600.00
00583             -25.00    -1800.00
00584              -2.00    -1200.00
00585              25.00    -1800.00
00586               4.60    -2200.00
00587             -25.00    -1800.00
00588              25.00    -2000.00
00589              25.00    -2400.00
00590             -25.00    -2600.00
00591             -25.00    -2000.00
00592              25.00    -2800.00
00593              25.00    -3000.00
00594             -25.00    -2400.00
00595              25.00    -3200.00
00596              25.00    -3200.00
00597             -25.00    -3000.00
00598              -3.60    -3400.00
00599              25.00    -3600.00
00600             -25.00    -3400.00
00601             -22.20    -3600.00
00602              25.00    -4000.00
00603              23.80    -3800.00
00604             -25.00    -4000.00
00605             -25.00    -4200.00
00606              25.00    -4400.00
00607              25.00    -4400.00
00608             -25.00    -4400.00
00609              25.00    -4800.00
00610              25.00    -4600.00
00611             -25.00    -4800.00
00612               5.00    -5000.00
00613              25.00    -5000.00
00614             -25.00    -5000.00
00615             -25.00    -5200.00
00616              25.00    -5200.00
00617               4.60    -5600.00
00618             -25.00    -5600.00
00619              21.80    -5600.00
00620              25.00    -5800.00
00621             -25.00    -5800.00
00622              -0.40    -6000.00
00623              25.00    -6000.00
00624             -25.00    -6000.00
00625              -9.80    -6400.00
00626              19.60    -6400.00
00627              -3.80    -6400.00
00628             -13.80    -6400.00
00629               4.40    -6600.00
00630               9.20    -6600.00
00631             -11.80    -6800.00
00632              -3.60    -6800.00
00633              11.40    -6800.00
00634              -6.00    -6800.00
00635             -10.20    -7200.00
00636               7.80    -7200.00
00637               3.40    -7200.00
00638             -14.60    -7200.00
00639               2.20    -7200.00
00640              11.80    -7400.00
00641             -13.40    -7400.00
00642              -4.40    -7600.00
00643              11.80    -7600.00
00644              -6.80    -7600.00
00645              -8.60    -7600.00
00646               7.80    -7800.00
00647               1.40    -8000.00
00648             -10.80    -8000.00
00649               2.00    -8000.00
00650               5.60    -8000.00
00651              -7.60    -8000.00
00652              -3.40    -8200.00
00653               4.80    -8200.00
00654              -2.20    -8200.00
00655              -5.20    -8200.00
00656               1.00    -8400.00
00657               1.20    -8400.00
00658              -4.20    -8400.00
00659              -1.80    -8400.00
00660               1.80    -8400.00
00661              -2.00    -8400.00
00662              -3.80    -8600.00
00663               0.60    -8400.00
00664              -0.60    -8400.00
00665              -3.60    -8600.00
00666              -1.00    -8600.00
00667              -0.20    -8800.00
00668              -1.20    -8800.00
00669              -2.00    -8800.00
00670              -1.60    -8600.00
00671              -1.20    -8600.00
00672              -1.20    -8800.00
00673              -2.00    -8800.00
00674              -1.80    -8800.00
00675              -0.40    -8800.00
00676              -1.40    -8800.00
00677              -2.20    -8800.00
00678              -0.60    -8800.00
00679              -1.80    -8800.00
00680              -2.60    -8800.00
00681              -1.00    -8800.00
00682              -0.60    -8800.00
00683              -2.80    -8600.00
00684              -2.20    -8800.00
00685              -0.60    -8800.00
00686              -1.40    -8800.00
00687              -2.00    -8800.00
00688              -1.20    -8400.00
00689              -1.20    -8800.00
00690              -1.20    -8600.00
00691              -1.20    -8600.00
00692              -1.20    -8400.00
00693              -1.60    -8400.00
00694              -2.00    -8400.00
00695              -1.20    -8400.00
00696              -1.00    -8400.00
00697              -2.20    -8400.00
00698              -1.20    -8200.00
00699              -1.20    -8400.00
00700              -0.80    -8200.00
00701              -1.00    -8200.00
00702              -2.20    -8200.00
00703              -1.20    -8200.00
00704               0.00    -8000.00
00705              -2.00    -8000.00
00706              -1.80    -8000.00
00707               0.00    -8000.00
00708              -1.20    -8000.00
00709              -2.20    -7800.00
00710              -0.20    -7600.00
00711              -1.40    -7600.00
00712              -2.20    -7600.00
00713              -0.40    -7400.00
00714              -0.40    -7400.00
00715              -2.60    -7400.00
00716              -1.20    -7400.00
00717              -0.40    -7200.00
00718              -1.40    -7200.00
00719              -1.20    -7200.00
00720               0.20    -7200.00
00721              -2.20    -6800.00
00722              -1.00    -6800.00
00723              -0.60    -6800.00
00724              -1.20    -6800.00
00725              -1.40    -6600.00
00726              -1.20    -6600.00
00727              -0.60    -6600.00
00728              -0.60    -6400.00
00729              -1.80    -6400.00
00730              -1.20    -6200.00
00731              -0.60    -6400.00
00732              -1.20    -6000.00
00733              -1.40    -6000.00
00734              -0.60    -6000.00
00735              -0.80    -5800.00
00736              -1.00    -5800.00
00737              -1.00    -5600.00
00738              -0.60    -5600.00
00739              -1.80    -5400.00
00740              -1.80    -5400.00
00741               0.20    -5200.00
00742              -1.20    -5000.00
00743              -2.00    -4800.00
00744              -0.40    -4800.00
00745              -0.60    -4600.00
00746              -1.20    -4600.00
00747              -1.80    -4400.00
00748              -1.00    -4400.00
00749               0.00    -4400.00
00750              -1.20    -4200.00
00751              -1.80    -4200.00
00752               0.20    -4000.00
00753              -0.60    -4000.00
00754              -1.80    -3800.00
00755              -0.40    -3600.00
00756              -0.40    -3600.00
00757              -1.20    -3400.00
00758              -1.20    -3400.00
00759              -0.40    -3200.00
00760              -0.20    -3200.00
00761              -1.20    -3200.00
00762              -0.60    -2800.00
00763               0.40    -2800.00
00764              -0.60    -2800.00
00765              -2.00    -2600.00
00766               0.00    -2400.00
00767               0.40    -2400.00
00768              -2.00    -2000.00
00769              -1.20    -2000.00
00770               1.00    -1800.00
00771               0.20    -1800.00
00772              -0.80    -1600.00
00773              -0.40    -1600.00
00774              -0.40    -1200.00
00775              -1.00    -1400.00
00776              -1.00    -1000.00
00777              -0.20    -1000.00
00778               0.20     -800.00
00779              -0.40     -800.00
00780              -1.00     -600.00
00781              -0.40     -400.00
00782               0.20     -400.00
00783               0.20     -200.00
00784              -1.00        0.00
00785               0.20        0.00
00786               0.80        0.00
00787              -0.60        0.00
00788               0.20      400.00
00789               0.40      400.00
00790               0.20      600.00
00791               0.40      600.00
00792               0.40      800.00
00793               0.20      800.00
00794               2.80     1200.00
00795              15.00     1400.00
00796              -0.60     1400.00
00797             -25.00     1800.00
00798             -25.00     1600.00
00799              25.00     1800.00
00800              25.00     2000.00
00801             -25.00     1600.00
00802             -25.00     2200.00
00803              25.00     2200.00
00804              12.20     2200.00
00805             -25.00     2400.00
00806              25.00     2800.00
00807              25.00     2800.00
00808             -25.00     2800.00
00809               3.60     3200.00
00810              25.00     3000.00
00811             -25.00     3200.00
00812             -25.00     3600.00
00813              25.00     3200.00
00814              -1.80     3400.00
00815             -25.00     4000.00
00816              24.40     3600.00
00817              25.00     3800.00
00818             -19.80     4000.00
00819             -25.00     4200.00
00820              25.00     4000.00
00821              25.00     4400.00
00822             -25.00     4600.00
00823             -16.40     4400.00
00824              25.00     4800.00
00825             -25.00     4800.00
00826             -25.00     4800.00
00827              25.00     4800.00
00828              14.00     5200.00
00829             -25.00     5200.00
00830              25.00     5400.00
00831              25.00     5600.00
00832             -25.00     5600.00
00833              -4.40     5600.00
00834              25.00     5800.00
00835             -23.60     6000.00
00836             -22.20     6000.00
00837              25.00     6000.00
00838              -0.20     6200.00
00839             -21.80     6200.00
00840              13.20     6400.00
00841              10.00     6400.00
00842             -12.80     6400.00
00843              -0.40     6800.00
00844              10.00     6600.00
00845              -1.80     6800.00
00846              -7.00     6800.00
00847               6.60     7000.00
00848               5.80     7000.00
00849              -8.40     7000.00
00850              -0.20     7000.00
00851              10.20     7200.00
00852              -4.40     7200.00
00853              -6.40     7400.00
00854              11.00     7200.00
00855               1.00     7600.00
00856              -8.60     7600.00
00857               6.60     7600.00
00858               5.20     7800.00
00859              -7.00     7800.00
00860               2.20     7800.00
00861               6.80     7800.00
00862              -4.20     7800.00
00863              -1.80     7800.00
00864               5.80     8200.00
00865               0.00     8000.00
00866              -3.80     8200.00
00867               2.60     8200.00
00868               3.00     8200.00
00869              -1.80     8200.00
00870              -0.60     8200.00
00871               3.20     8400.00
00872               0.00     8400.00
00873              -1.40     8400.00
00874               2.80     8400.00
00875               1.40     8400.00
00876              -1.60     8400.00
00877               1.00     8600.00
00878               2.80     8400.00
00879              -1.00     8600.00
00880              -0.60     8600.00
00881               2.20     8600.00
00882               1.00     8600.00
00883              -0.20     8600.00
00884               0.40     8600.00
00885               1.40     8600.00
00886               0.40     8600.00
00887               0.40     8600.00
00888               0.80     8800.00
00889               0.40     8600.00
00890               0.40     8600.00
00891               1.20     8600.00
00892               1.00     8800.00
00893               0.40     8600.00
00894               1.00     8600.00
00895               1.00     8600.00
00896               0.60     8600.00
00897               0.40     8800.00
00898               0.20     8600.00
00899               0.60     8600.00
00900               1.20     8600.00
00901               1.00     8600.00
00902               0.40     8600.00
00903               1.00     8600.00
00904               1.40     8600.00
00905               0.40     8400.00
00906              -0.20     8400.00
00907               1.20     8400.00
00908               1.40     8400.00
00909               0.60     8400.00
00910               1.20     8400.00
00911               1.80     8200.00
00912              -0.20     8200.00
00913              -0.20     8200.00
00914               1.20     8000.00
00915               1.00     8200.00
00916               0.20     8200.00
00917               0.40     8000.00
00918               1.80     8000.00
00919               0.60     8000.00
00920              -0.40     8000.00
00921               1.20     7800.00
00922               1.80     7800.00
00923               0.20     7800.00
00924               0.60     8000.00
00925               1.00     7600.00
00926              -0.60     7600.00
00927               0.60     7600.00
00928               2.00     7400.00
00929               0.20     7400.00
00930              -1.00     7200.00
00931               0.40     7200.00
00932               1.40     7000.00
00933               0.40     7200.00
00934               0.20     6800.00
00935               1.00     7000.00
00936               0.60     6800.00
00937              -0.20     6800.00
00938               0.60     6600.00
00939              -0.40     6600.00
00940               0.40     6400.00
00941               1.80     6400.00
00942              -0.80     6400.00
00943               0.40     6200.00
00944               1.20     6200.00
00945              -0.40     6000.00
00946               0.40     6000.00
00947               0.40     6000.00
00948              -0.20     5800.00
00949               0.60     5800.00
00950               0.60     5600.00
00951               0.20     5400.00
00952               0.20     5400.00
00953               0.40     5400.00
00954              -0.40     5200.00
00955               0.40     5000.00
00956               0.60     5200.00
00957               0.20     4800.00
00958               0.60     4800.00
00959               0.20     4600.00
00960               0.20     4600.00
00961               0.40     4600.00
00962              -0.60     4400.00
00963               0.20     4400.00
00964               0.80     4000.00
00965               0.40     4000.00
00966               0.40     3800.00
00967               0.40     3800.00
00968              -0.40     3600.00
00969               0.40     3600.00
00970               1.00     3600.00
00971              -0.60     3200.00
00972               0.20     3200.00
00973               1.00     3200.00
00974               0.20     3000.00
00975              -0.60     3000.00
00976              -0.40     2800.00
00977               0.60     2600.00
00978               0.20     2400.00
00979              -0.60     2400.00
00980               0.40     2200.00
00981               0.20     2000.00
00982              -0.60     2000.00
00983               1.00     1800.00
00984               0.20     1800.00
00985              -0.40     1600.00
00986               0.20     1600.00
00987              -0.40     1400.00
00988              -0.40     1200.00
00989               0.20     1200.00
00990              -0.80     1000.00
00991               0.20      800.00
00992               0.20      800.00
00993              -0.80      600.00
00994              -0.60      400.00
00995               0.00      400.00
00996              -1.00      200.00
00997              -0.20      200.00
00998               0.20        0.00
00999              -0.20        0.00
01000              -0.60     -200.00
01001               0.20     -200.00
01002               0.00     -400.00
01003              -1.20     -400.00
01004              -0.20     -800.00
01005               0.20     -800.00
01006              -1.00    -1000.00
01007               1.20    -1000.00
01008              17.20    -1200.00
01009               3.80    -1600.00
01010             -25.00    -1800.00
01011             -25.00    -1400.00
01012              25.00    -1600.00
01013              25.00    -2000.00
01014             -25.00    -2200.00
01015             -25.00    -1800.00
01016              25.00    -2400.00
01017              15.40    -2600.00
01018             -25.00    -2000.00
01019              25.00    -2800.00
01020              25.00    -2800.00
01021             -25.00    -2800.00
01022             -25.00    -2800.00
01023              25.00    -3200.00
01024             -21.20    -3200.00
01025             -25.00    -3200.00
01026              25.00    -3600.00
01027             -11.80    -3400.00
01028             -25.00    -3600.00
01029              25.00    -3800.00
01030              25.00    -3800.00
01031              -2.80    -4000.00
01032             -25.00    -4200.00
01033              23.80    -4200.00
01034              25.00    -4400.00
01035             -25.00    -4400.00
01036             -25.00    -4600.00
01037              25.00    -4600.00
01038             -25.00    -4600.00
01039             -25.00    -5000.00
01040              25.00    -5000.00
01041              -3.00    -5000.00
01042             -25.00    -5200.00
01043              25.00    -5400.00
01044              25.00    -5600.00
01045             -25.00    -5600.00
01046              -9.40    -5600.00
01047              25.00    -5800.00
01048             -25.00    -5800.00
01049             -25.00    -6000.00
01050              25.00    -6000.00
01051              -6.60    -6000.00
01052             -25.00    -6200.00
01053              17.40    -6400.00
01054               6.20    -6400.00
01055             -15.00    -6400.00
01056              -2.60    -6600.00
01057              11.40    -6600.00
01058              -5.00    -6600.00
01059             -11.80    -6800.00
01060              10.60    -6800.00
01061               1.80    -6800.00
01062             -13.40    -7000.00
01063               2.00    -7200.00
01064               9.00    -7200.00
01065             -10.20    -7200.00
01066              -7.60    -7400.00
01067              14.00    -7400.00
01068              -5.20    -7400.00
01069             -13.20    -7600.00
01070              10.60    -7600.00
01071               0.60    -7600.00
01072             -13.00    -7800.00
01073               3.00    -8000.00
01074               7.00    -8000.00
01075              -9.00    -8000.00
01076              -4.80    -8000.00
01077               8.20    -8000.00
01078              -3.00    -8000.00
01079              -9.00    -8200.00
01080               3.40    -8200.00
01081               2.40    -8200.00
01082              -7.00    -8200.00
01083              -2.00    -8400.00
01084               3.20    -8400.00
01085              -3.00    -8400.00
01086              -4.20    -8400.00
01087               2.00    -8400.00
01088              -0.40    -8400.00
01089              -5.00    -8400.00
01090              -0.20    -8400.00
01091               1.80    -8600.00
01092              -3.80    -8400.00
01093              -2.80    -8400.00
01094               1.00    -8800.00
01095              -1.20    -8600.00
01096              -2.60    -8800.00
01097              -1.00    -8800.00
01098              -0.60    -8600.00
01099              -1.60    -8600.00
01100              -1.00    -8400.00
01101              -1.80    -8800.00
01102              -1.20    -8600.00
01103              -0.60    -8800.00
01104              -2.00    -8800.00
01105              -1.20    -8800.00
01106              -0.60    -8800.00
01107              -1.40    -8600.00
01108              -1.60    -8800.00
01109              -0.60    -8800.00
01110              -1.00    -8800.00
01111              -2.00    -8800.00
01112              -1.80    -8800.00
01113              -0.20    -8600.00
01114              -1.00    -8800.00
01115              -2.20    -8600.00
01116              -1.00    -8600.00
01117              -0.60    -8600.00
01118              -1.60    -8600.00
01119              -1.80    -8600.00
01120              -0.40    -8400.00
01121              -1.40    -8600.00
01122              -2.20    -8400.00
01123              -0.40    -8400.00
01124              -0.80    -8400.00
01125              -2.60    -8400.00
01126              -1.80    -8400.00
01127              -0.20    -8200.00
01128              -1.20    -8200.00
01129              -2.80    -8200.00
01130              -1.00    -8000.00
01131              -0.60    -8000.00
01132              -2.20    -8200.00
01133              -1.60    -8000.00
01134              -0.40    -8000.00
01135              -1.40    -8000.00
01136              -2.00    -8000.00
01137              -0.40    -7800.00
01138              -1.40    -7800.00
01139              -2.80    -7600.00
01140              -0.60    -7400.00
01141               0.00    -7600.00
01142              -2.80    -7400.00
01143              -2.00    -7400.00
01144               0.20    -7400.00
01145              -1.40    -7200.00
01146              -2.40    -7200.00
01147               0.20    -7200.00
01148              -2.00    -7200.00
01149              -2.00    -7000.00
01150              -0.40    -6800.00
01151              -1.00    -6800.00
01152              -1.80    -6800.00
01153              -0.40    -6600.00
01154              -1.20    -6600.00
01155              -0.60    -6400.00
01156              -1.20    -6600.00
01157              -1.40    -6400.00
01158              -0.60    -6200.00
01159              -1.20    -6200.00
01160              -1.60    -6000.00
01161              -0.60    -6000.00
01162              -0.60    -5800.00
01163              -1.40    -5600.00
01164              -0.40    -5800.00
01165              -0.40    -5600.00
01166              -1.20    -5200.00
01167              -1.00    -5200.00
01168              -0.40    -5200.00
01169              -1.00    -5000.00
01170              -1.20    -5000.00
01171              -1.00    -5000.00
01172              -0.40    -4800.00
01173              -1.00    -4600.00
01174              -1.00    -4600.00
01175              -0.60    -4400.00
01176              -1.00    -4400.00
01177              -1.00    -4200.00
01178              -0.60    -4200.00
01179              -1.00    -4200.00
01180              -0.60    -4000.00
01181              -0.60    -3800.00
01182              -0.60    -3600.00
01183              -0.60    -3600.00
01184              -1.00    -3600.00
01185              -0.60    -3400.00
01186              -0.60    -3200.00
01187              -0.60    -3200.00
01188              -0.60    -3200.00
01189              -0.60    -2800.00
01190              -0.60    -2800.00
01191              -0.60    -2800.00
01192              -0.60    -2600.00
01193              -0.80    -2400.00
01194              -0.60    -2200.00
01195              -0.60    -2200.00
01196              -0.60    -2000.00
01197              -0.40    -2000.00
01198              -0.60    -2000.00
01199              -0.60    -1600.00
01200              -0.20    -1600.00
01201              -0.40    -1600.00
01202              -0.60    -1600.00
01203              -0.60    -1200.00
01204              -0.60    -1000.00
01205              -0.40     -800.00
01206              -0.60    -1000.00
01207              -0.60     -800.00
01208              -0.20     -600.00
01209              -0.60     -400.00
01210              -0.40     -400.00
01211              -0.40     -400.00
01212              -0.60     -200.00
01213               0.00        0.00
01214               0.20      200.00
01215               0.40      400.00
01216               0.20      400.00
01217              -0.60      400.00
01218              -0.20      600.00
01219               0.60      800.00
01220              -0.60      800.00
01221               1.20     1200.00
01222              11.40     1400.00
01223               9.40     1400.00
01224             -25.00     1400.00
01225             -25.00     1600.00
01226              25.00     1800.00
01227              25.00     2000.00
01228             -25.00     1800.00
01229             -25.00     2000.00
01230              25.00     2200.00
01231              25.00     2200.00
01232             -25.00     2400.00
01233              -5.20     2800.00
01234              25.00     2600.00
01235             -25.00     2600.00
01236             -25.00     3200.00
01237              25.00     2800.00
01238              11.00     3000.00
01239             -25.00     3600.00
01240              25.00     3200.00
01241              25.00     3400.00
01242             -25.00     3800.00
01243              -7.40     3800.00
01244              25.00     3600.00
01245               9.80     4000.00
01246             -25.00     4200.00
01247              -2.20     4200.00
01248              25.00     4400.00
01249             -25.00     4400.00
01250             -25.00     4600.00
01251              25.00     4600.00
01252              23.80     4800.00
01253             -25.00     4800.00
01254              25.00     4800.00
01255              25.00     5200.00
01256             -25.00     5200.00
01257             -10.20     5200.00
01258              25.00     5400.00
01259             -23.40     5600.00
01260             -25.00     5600.00
01261              25.00     5600.00
01262               5.20     6000.00
01263             -25.00     6000.00
01264              19.40     6000.00
01265              18.80     6200.00
01266             -24.20     6200.00
01267               1.80     6200.00
01268              15.60     6400.00
01269              -7.40     6400.00
01270              -7.00     6600.00
01271               7.80     6600.00
01272               4.60     6800.00
01273              -8.40     6800.00
01274               0.20     6800.00
01275              10.20     7000.00
01276              -3.40     7000.00
01277              -7.80     7000.00
01278               9.60     7200.00
01279               3.40     7200.00
01280             -10.00     7200.00
01281               5.40     7400.00
01282               7.80     7400.00
01283              -7.80     7600.00
01284              -0.20     7600.00
01285               8.20     7600.00
01286              -4.20     7600.00
01287              -3.40     7800.00
01288               6.80     7800.00
01289               0.60     7800.00
01290              -4.20     7800.00
01291               3.80     8200.00
01292               3.40     8000.00
01293              -3.40     8000.00
01294               0.20     8200.00
01295               3.60     8200.00
01296               0.40     8400.00
01297              -1.60     8200.00
01298               2.00     8400.00
01299               2.20     8400.00
01300              -1.00     8400.00
01301               0.60     8400.00
01302               3.00     8400.00
01303               0.20     8400.00
01304              -1.00     8600.00
01305               3.00     8600.00
01306               1.00     8600.00
01307              -1.40     8400.00
01308               1.40     8600.00
01309               2.40     8600.00
01310               0.40     8600.00
01311               0.40     8600.00
01312               1.40     8600.00
01313               1.00     8600.00
01314               0.40     8600.00
01315               1.20     8600.00
01316               1.20     8600.00
01317               0.60     8600.00
01318               0.60     8800.00
01319               1.20     8600.00
01320               0.20     8600.00
01321               0.20     8800.00
01322               1.40     8600.00
01323               1.20     8600.00
01324               1.00     8600.00
01325               0.80     8600.00
01326               0.40     8600.00
01327               0.80     8600.00
01328               1.00     8600.00
01329              -0.20     8600.00
01330               0.40     8400.00
01331               1.00     8600.00
01332               1.00     8400.00
01333               0.60     8400.00
01334               1.20     8400.00
01335               1.00     8400.00
01336               0.60     8400.00
01337               0.40     8200.00
01338               0.80     8400.00
01339               0.00     8400.00
01340               0.00     8400.00
01341               1.80     8200.00
01342               0.80     8200.00
01343              -0.60     8000.00
01344               1.00     8000.00
01345               1.00     8000.00
01346               0.40     8000.00
01347               0.40     7800.00
01348               1.00     7800.00
01349               1.00     7800.00
01350               0.20     7800.00
01351               0.40     7600.00
01352               1.40     7800.00
01353               0.20     7400.00
01354               0.20     7600.00
01355               1.40     7600.00
01356               0.60     7200.00
01357               0.00     7200.00
01358               0.60     7200.00
01359               0.60     7200.00
01360               0.20     7000.00
01361               0.40     7000.00
01362               1.00     6800.00
01363               0.40     6800.00
01364               0.60     6800.00
01365               1.00     6800.00
01366               0.60     6600.00
01367               0.20     6600.00
01368               0.60     6400.00
01369               1.00     6400.00
01370               0.40     6400.00
01371               0.20     6200.00
01372               0.40     6000.00
01373               0.60     6000.00
01374               0.40     6000.00
01375               0.00     6000.00
01376               0.40     5600.00
01377               0.60     5600.00
01378               0.40     5600.00
01379               0.40     5400.00
01380               0.40     5400.00
01381               0.20     5200.00
01382               0.20     5200.00
01383               0.60     5000.00
01384               0.20     5000.00
01385              -0.20     4800.00
01386               0.40     4600.00
01387               0.20     4600.00
01388              -0.20     4600.00
01389               0.20     4400.00
01390               0.40     4400.00
01391              -0.20     4000.00
01392              -0.20     4000.00
01393               0.40     4000.00
01394              -0.20     3800.00
01395              -0.60     3800.00
01396               0.40     3600.00
01397               0.40     3400.00
01398              -0.60     3400.00
01399               0.00     3200.00
01400               0.40     3200.00
01401              -0.20     3000.00
01402              -0.60     3000.00
01403               0.20     2800.00
01404              -0.20     2600.00
01405               0.20     2600.00
01406              -0.60     2400.00
01407              -0.20     2400.00
01408              -0.40     2200.00
01409              -0.60     2000.00
01410               0.20     2000.00
01411               0.40     2000.00
01412              -0.20     1600.00
01413              -0.20     1800.00
01414              -0.20     1600.00
01415              -0.60     1200.00
01416              -0.60     1200.00
01417              -0.20     1000.00
01418              -0.40      800.00
01419               0.60      800.00
01420              -0.40      600.00
01421              -0.40      600.00
01422              -0.20      400.00
01423              -1.20      200.00
01424               0.20      400.00
01425              -0.80        0.00
01426              -0.60        0.00
01427               1.80        0.00
01428               0.20     -400.00
01429               0.00     -400.00
01430               1.00     -400.00
01431              -1.40     -800.00
01432              -1.40     -800.00
01433               0.80    -1000.00
01434               0.40    -1000.00
01435               9.20    -1200.00
01436              19.00    -1400.00
01437             -25.00    -1800.00
01438             -25.00    -1600.00
01439              25.00    -1400.00
01440              25.00    -1800.00
01441             -25.00    -2200.00
01442             -25.00    -1600.00
01443              25.00    -2200.00
01444              25.00    -2400.00
01445             -25.00    -2400.00
01446             -21.60    -2400.00
01447              25.00    -2800.00
01448              -3.20    -2800.00
01449             -25.00    -2400.00
01450              25.00    -3400.00
01451              25.00    -3200.00
01452             -25.00    -3200.00
01453              25.00    -3600.00
01454              25.00    -3400.00
01455             -25.00    -3600.00
01456              14.00    -3800.00
01457              25.00    -4000.00
01458              13.80    -4000.00
01459             -25.00    -4000.00
01460             -25.00    -4400.00
01461              25.00    -4400.00
01462             -21.60    -4400.00
01463             -25.00    -4400.00
01464              25.00    -4800.00
01465              25.00    -4600.00
01466             -25.00    -4800.00
01467              25.00    -4800.00
01468              25.00    -5000.00
01469             -25.00    -5200.00
01470               1.80    -5200.00
01471              25.00    -5200.00
01472             -25.00    -5600.00
01473             -25.00    -5800.00
01474              25.00    -5800.00
01475               7.00    -5600.00
01476             -25.00    -5800.00
01477              25.00    -6200.00
01478              19.20    -6000.00
01479             -25.00    -6000.00
01480               6.00    -6400.00
01481              15.40    -6400.00
01482             -11.40    -6400.00
01483              -9.40    -6400.00
01484               9.20    -6600.00
01485               3.80    -6800.00
01486             -14.80    -6800.00
01487               3.80    -6800.00
01488               9.40    -6800.00
01489             -11.80    -7000.00
01490              -5.00    -7200.00
01491              11.40    -7200.00
01492              -2.80    -7200.00
01493             -14.00    -7400.00
01494              10.00    -7400.00
01495               5.80    -7400.00
01496             -17.00    -7400.00
01497               3.60    -7600.00
01498               9.20    -7800.00
01499             -11.80    -7600.00
01500              -3.60    -8000.00
01501               9.00    -8000.00
01502              -3.80    -8000.00
01503              -9.00    -8000.00
01504               5.20    -8000.00
01505               2.60    -8000.00
01506              -8.80    -8200.00
01507               0.00    -8200.00
01508               4.60    -8200.00
01509              -4.40    -8400.00
01510              -4.20    -8200.00
01511               2.60    -8200.00
01512              -0.60    -8400.00
01513              -5.00    -8400.00
01514              -0.40    -8400.00
01515               1.40    -8400.00
01516              -3.40    -8400.00
01517              -3.00    -8400.00
01518               1.40    -8600.00
01519              -1.40    -8400.00
01520              -3.80    -8600.00
01521              -0.60    -8600.00
01522               0.20    -8800.00
01523              -2.20    -8800.00
01524              -2.40    -8800.00
01525              -0.60    -8800.00
01526              -1.20    -8600.00
01527              -2.00    -8800.00
01528              -1.80    -8800.00
01529              -1.60    -8800.00
01530              -0.60    -8800.00
01531              -1.60    -8800.00
01532              -2.00    -8800.00
01533              -0.40    -8800.00
01534              -1.80    -8800.00
01535              -2.20    -8800.00
01536              -0.60    -8800.00
01537              -1.00    -8800.00
01538              -2.20    -8800.00
01539              -1.80    -8800.00
01540              -0.40    -8400.00
01541              -1.20    -8600.00
01542              -2.20    -8600.00
01543              -1.20    -8400.00
01544              -0.40    -8600.00
01545              -1.60    -8600.00
01546              -2.20    -8600.00
01547              -0.60    -8400.00
01548              -1.20    -8600.00
01549              -2.40    -8400.00
01550              -0.40    -8400.00
01551              -0.60    -8400.00
01552              -2.20    -8400.00
01553              -1.40    -8400.00
01554              -0.60    -8400.00
01555              -1.00    -8200.00
01556              -2.20    -8200.00
01557              -1.20    -8200.00
01558              -0.40    -8200.00
01559              -1.80    -8000.00
01560              -1.60    -8000.00
01561              -0.40    -8000.00
01562              -1.20    -8000.00
01563              -2.20    -7800.00
01564              -0.60    -8000.00
01565              -0.60    -7600.00
01566              -2.00    -7600.00
01567              -1.20    -7600.00
01568               0.20    -7400.00
01569              -2.00    -7400.00
01570              -1.80    -7200.00
01571              -0.60    -7200.00
01572              -0.60    -7400.00
01573              -2.00    -7200.00
01574              -0.40    -7200.00
01575              -1.00    -7200.00
01576              -1.80    -7000.00
01577              -0.60    -6800.00
01578              -0.60    -6800.00
01579              -1.40    -6600.00
01580              -1.20    -6600.00
01581              -1.00    -6600.00
01582              -0.60    -6400.00
01583              -1.20    -6400.00
01584              -1.80    -6400.00
01585              -0.80    -6400.00
01586              -1.20    -6200.00
01587              -1.80    -6000.00
01588              -0.60    -6000.00
01589              -1.80    -6000.00
01590              -1.20    -5800.00
01591              -0.40    -5600.00
01592              -1.20    -5600.00
01593              -1.80    -5600.00
01594              -1.20    -5400.00
01595              -0.40    -5200.00
01596              -1.20    -5200.00
01597              -2.00    -5000.00
01598              -0.60    -5000.00
01599              -0.60    -4600.00
01600              -1.80    -4600.00
01601              -0.40    -4600.00
01602              -0.60    -4600.00
01603              -1.40    -4400.00
01604              -1.00    -4400.00
01605               0.80    -4200.00
01606              -2.00    -4000.00
01607              -2.20    -4200.00
01608               0.60    -4000.00
01609              -0.60    -3600.00
01610              -2.00    -3600.00
01611              -0.80    -3600.00
01612              -0.40    -3400.00
01613               0.20    -3200.00
01614              -1.20    -3200.00
01615              -0.40    -3000.00
01616               0.20    -3000.00
01617              -2.20    -2800.00
01618              -1.00    -2600.00
01619               0.80    -2600.00
01620              -1.00    -2400.00
01621              -1.40    -2400.00
01622               0.60    -2200.00
01623               0.00    -2000.00
01624              -1.60    -2000.00
01625              -0.60    -1800.00
01626              -0.40    -1600.00
01627              -0.40    -1600.00
01628               0.80    -1600.00
01629              -0.60    -1200.00
01630              -1.20    -1200.00
01631              -0.60    -1000.00
01632              -0.60    -1000.00
01633              -0.40     -800.00
01634               0.20     -600.00
01635              -0.40     -400.00
01636              -0.20     -400.00
01637               0.20     -200.00
01638              -0.40     -200.00
01639              -1.20        0.00
01640               0.20        0.00
01641               0.60      200.00
01642              -0.20      200.00
01643               0.40      400.00
01644              -0.20      400.00
01645              -0.40      600.00
01646               0.40      800.00
01647               0.40      800.00
01648               0.20      800.00
01649               6.20     1200.00
01650              15.40     1400.00
01651             -13.00     1600.00
01652             -25.00     1800.00
01653              -7.00     1400.00
01654              25.00     1800.00
01655              11.60     2000.00
01656             -25.00     2000.00
01657              25.00     2200.00
01658              25.00     2200.00
01659             -25.00     2200.00
01660             -25.00     2600.00
01661              25.00     2800.00
01662              25.00     2400.00
01663             -25.00     3000.00
01664              25.00     3000.00
01665              25.00     3200.00
01666             -25.00     3200.00
01667              13.80     3400.00
01668              25.00     3200.00
01669             -25.00     3600.00
01670             -25.00     4000.00
01671              25.00     3600.00
01672              25.00     4000.00
01673             -25.00     4200.00
01674             -25.00     4000.00
01675              25.00     4200.00
01676              19.60     4400.00
01677             -25.00     4400.00
01678              25.00     4600.00
01679              25.00     4800.00
01680             -25.00     4800.00
01681             -17.00     4800.00
01682              25.00     5200.00
01683             -23.60     5200.00
01684             -25.00     5400.00
01685              25.00     5600.00
01686              13.00     5600.00
01687             -25.00     5600.00
01688              22.80     5600.00
01689              25.00     6000.00
01690             -25.00     5800.00
01691              -2.00     6000.00
01692              25.00     6200.00
01693             -15.40     6200.00
01694             -11.60     6400.00
01695              17.80     6400.00
01696               1.00     6400.00
01697             -12.40     6400.00
01698               5.00     6600.00
01699               8.40     6800.00
01700              -6.00     6800.00
01701              -3.40     6800.00
01702               9.40     7000.00
01703               1.40     7000.00
01704              -9.40     7000.00
01705               5.40     7200.00
01706               8.20     7200.00
01707              -9.00     7200.00
01708              -0.60     7400.00
01709              11.40     7400.00
01710              -5.20     7600.00
01711              -5.80     7400.00
01712               8.40     7600.00
01713               0.40     7600.00
01714              -5.80     7800.00
01715               4.20     7800.00
01716               4.00     7800.00
01717              -4.60     8200.00
01718               0.20     7800.00
01719               5.00     8200.00
01720              -1.40     8200.00
01721              -2.40     8200.00
01722               3.20     8400.00
01723               2.20     8200.00
01724              -1.80     8400.00
01725               0.20     8400.00
01726               2.20     8400.00
01727              -0.40     8400.00
01728              -0.40     8400.00
01729               2.60     8400.00
01730               0.60     8400.00
01731              -1.20     8400.00
01732               2.00     8600.00
01733               1.40     8600.00
01734              -1.20     8600.00
01735               1.00     8600.00
01736               2.00     8600.00
01737              -0.20     8600.00
01738               0.40     8600.00
01739               1.20     8600.00
01740               1.00     8800.00
01741               1.00     8600.00
01742               1.00     8600.00
01743               0.20     8800.00
01744               0.60     8600.00
01745               1.20     8600.00
01746               0.40     8600.00
01747               1.00     8800.00
01748               1.20     8600.00
01749               0.60     8600.00
01750               0.60     8600.00
01751               1.20     8800.00
01752               1.20     8600.00
01753               0.20     8600.00
01754               0.60     8600.00
01755               1.20     8600.00
01756               0.40     8600.00
01757               0.60     8400.00
01758               0.80     8600.00
01759               1.20     8600.00
01760               1.20     8400.00
01761              -0.40     8400.00
01762               0.40     8400.00
01763               1.40     8400.00
01764               0.40     8400.00
01765               1.00     8400.00
01766               2.00     8400.00
01767              -0.20     8200.00
01768               1.20     8400.00
01769               1.60     8200.00
01770               0.40     8200.00
01771              -0.20     8000.00
01772               1.00     8200.00
01773               1.00     8000.00
01774               0.40     8000.00
01775               0.20     8200.00
01776               1.20     7800.00
01777               0.40     7800.00
01778               0.20     7800.00
01779               0.40     7600.00
01780               1.20     7600.00
01781               0.20     7600.00
01782               0.40     7600.00
01783               1.80     7400.00
01784              -0.20     7200.00
01785              -0.40     7200.00
01786               1.20     7200.00
01787               0.60     7200.00
01788              -0.20     7000.00
01789               0.40     7000.00
01790               1.00     7000.00
01791               0.20     6800.00
01792               0.60     6800.00
01793               0.40     6800.00
01794               0.20     6600.00
01795               0.20     6400.00
01796               0.60     6400.00
01797               1.00     6400.00
01798               0.20     6200.00
01799               0.20     6200.00
01800               0.40     6200.00
01801               0.60     6000.00
01802              -0.20     6000.00
01803               0.40     6000.00
01804               0.60     5600.00
01805               0.20     5600.00
01806               0.40     5400.00
01807               0.40     5400.00
01808              -0.20     5400.00
01809               0.20     5200.00
01810               1.00     5000.00
01811               0.40     5000.00
01812               0.20     4800.00
01813               0.60     4800.00
01814               0.40     4600.00
01815               0.40     4600.00
01816               0.40     4600.00
01817               0.40     4400.00
01818               0.20     4200.00
01819               0.40     4000.00
01820               0.20     4000.00
01821               0.20     4000.00
01822               0.20     3600.00
01823               0.20     3600.00
01824               0.20     3600.00
01825               0.40     3600.00
01826               0.00     3400.00
01827               0.40     3200.00
01828               0.40     3000.00
01829               0.20     3000.00
01830               0.20     2800.00
01831              -0.20     2800.00
01832               0.20     2800.00
01833               0.40     2600.00
01834              -0.20     2400.00
01835              -0.20     2400.00
01836               0.20     2200.00
01837               0.00     2000.00
01838              -0.40     1800.00
01839               0.40     1600.00
01840              -0.20     1600.00
01841              -1.00     1600.00
01842               0.40     1200.00
01843               0.20     1200.00
01844              -1.20     1200.00
01845               0.00     1000.00
01846               0.20      800.00
01847              -1.00      600.00
01848              -0.40      600.00
01849               0.20      400.00
01850              -1.00      400.00
01851              -0.40      200.00
01852               0.20        0.00
01853              -1.00        0.00
01854              -0.60     -200.00
01855               0.60     -200.00
01856               0.20     -400.00
01857              -0.20     -400.00
01858              -0.60     -600.00
01859              -0.40     -800.00
01860              -0.20     -800.00
01861              -0.40     -800.00
01862               3.60    -1000.00
01863              21.80    -1400.00
01864             -13.00    -1600.00
01865             -25.00    -1800.00
01866              -7.00    -1400.00
01867              25.00    -1800.00
01868              10.60    -2000.00
01869             -25.00    -1800.00
01870              25.00    -2000.00
01871              25.00    -2400.00
01872             -25.00    -2600.00
01873             -25.00    -2000.00
01874              25.00    -2800.00
01875              25.00    -3000.00
01876             -25.00    -2400.00
01877              25.00    -3200.00
01878              25.00    -3200.00
01879             -25.00    -3200.00
01880             -15.00    -3400.00
01881              25.00    -3600.00
01882             -25.00    -3600.00
01883             -25.00    -3600.00
01884              25.00    -4000.00
01885              25.00    -3800.00
01886             -23.60    -4200.00
01887             -25.00    -4200.00
01888              25.00    -4400.00
01889              25.00    -4400.00
01890             -25.00    -4400.00
01891              25.00    -4600.00
01892              25.00    -4800.00
01893             -25.00    -4600.00
01894              -1.80    -5000.00
01895              25.00    -5200.00
01896             -25.00    -5000.00
01897             -25.00    -5200.00
01898              25.00    -5200.00
01899               7.60    -5600.00
01900             -25.00    -5600.00
01901              19.00    -5600.00
01902              25.00    -5800.00
01903             -25.00    -5800.00
01904              -2.80    -5800.00
01905              25.00    -6200.00
01906             -25.00    -6200.00
01907             -11.20    -6200.00
01908              19.80    -6400.00
01909              -3.60    -6400.00
01910             -14.00    -6600.00
01911               3.60    -6600.00
01912               9.40    -6800.00
01913             -12.20    -6800.00
01914              -4.60    -6800.00
01915              11.80    -6800.00
01916              -5.40    -7000.00
01917             -10.60    -7200.00
01918               7.40    -7200.00
01919               4.60    -7200.00
01920             -14.20    -7200.00
01921               0.40    -7400.00
01922              12.40    -7400.00
01923             -12.60    -7400.00
01924              -6.00    -7600.00
01925              12.40    -7600.00
01926              -6.20    -7800.00
01927              -9.80    -7800.00
01928               7.60    -7800.00
01929               1.80    -8000.00
01930             -10.80    -8000.00
01931               1.20    -8000.00
01932               6.20    -8200.00
01933              -7.60    -8200.00
01934              -4.20    -8200.00
01935               5.20    -8200.00
01936              -1.40    -8400.00
01937              -6.00    -8200.00
01938               1.00    -8400.00
01939               1.40    -8400.00
01940              -4.20    -8400.00
01941              -2.20    -8400.00
01942               2.20    -8400.00
01943              -2.80    -8400.00
01944              -4.40    -8600.00
01945               1.80    -8600.00
01946               0.20    -8400.00
01947              -4.40    -8400.00
01948              -1.20    -8600.00
01949               1.00    -8600.00
01950              -2.20    -8800.00
01951              -2.00    -8600.00
01952              -0.20    -8800.00
01953              -1.80    -8800.00
01954              -1.20    -8600.00
01955              -0.60    -8800.00
01956              -2.00    -8800.00
01957              -1.60    -8600.00
01958               0.20    -8800.00
01959              -2.00    -8600.00
01960              -1.40    -8800.00
01961              -0.20    -8800.00
01962              -2.00    -8800.00
01963              -2.60    -8800.00
01964               0.20    -8800.00
01965              -1.00    -8800.00
01966              -2.60    -8800.00
01967              -0.60    -8600.00
01968               0.20    -8600.00
01969              -2.20    -8600.00
01970              -2.60    -8600.00
01971              -0.20    -8800.00
01972              -1.00    -8800.00
01973              -2.20    -8600.00
01974              -0.40    -8400.00
01975              -1.00    -8600.00
01976              -2.80    -8400.00
01977              -1.20    -8600.00
01978              -0.60    -8400.00
01979              -2.20    -8400.00
01980              -1.40    -8200.00
01981              -0.60    -8200.00
01982              -0.60    -8400.00
01983              -1.40    -8200.00
01984              -2.20    -8200.00
01985              -1.00    -8200.00
01986              -1.20    -8200.00
01987              -2.20    -8000.00
01988              -1.20    -8000.00
01989              -0.40    -8000.00
01990              -1.80    -8000.00
01991              -1.20    -8000.00
01992              -0.20    -7600.00
01993              -2.20    -7800.00
01994              -2.60    -7600.00
01995              -0.40    -7400.00
01996              -0.60    -7400.00
01997              -2.40    -7400.00
01998              -0.60    -7400.00
01999              -0.40    -7200.00
02000              -2.00    -7200.00
02001              -1.20    -7200.00
02002               0.60    -7000.00
02003              -2.60    -7000.00
02004              -1.40    -7000.00
02005              -0.20    -6800.00
02006              -1.40    -6800.00
02007              -1.80    -6600.00
02008              -0.40    -6600.00
02009              -1.00    -6600.00
02010              -0.60    -6400.00
02011              -1.00    -6400.00
02012              -1.20    -6200.00
02013              -1.00    -6000.00
02014              -1.20    -6000.00
02015              -1.40    -6000.00
02016              -1.00    -5800.00
02017              -0.60    -5800.00
02018              -0.60    -5600.00
02019              -0.60    -5600.00
02020              -0.60    -5600.00
02021              -1.60    -5600.00
02022              -0.60    -5400.00
02023              -0.40    -5200.00
02024              -1.20    -5000.00
02025              -1.20    -5000.00
02026              -0.20    -4600.00
02027              -0.20    -4600.00
02028              -1.20    -4800.00
02029              -0.60    -4600.00
02030              -0.40    -4400.00
02031              -1.20    -4400.00
02032              -1.00    -4400.00
02033              -0.60    -4200.00
02034              -1.00    -4000.00
02035              -1.20    -4000.00
02036              -0.60    -3600.00
02037              -0.60    -3800.00
02038              -1.00    -3600.00
02039              -1.00    -3600.00
02040              -0.60    -3200.00
02041              -1.00    -3200.00
02042              -1.00    -3200.00
02043              -0.40    -3000.00
02044              -0.80    -2800.00
02045              -1.00    -2800.00
02046              -0.40    -2600.00
02047              -0.40    -2400.00
02048              -0.60    -2400.00
02049              -0.60    -2400.00
02050              -0.60    -2200.00
02051              -0.80    -2000.00
02052              -1.00    -2000.00
02053              -0.60    -1800.00
02054              -0.80    -1800.00
02055              -0.40    -1600.00
02056              -0.40    -1400.00
02057              -0.60    -1200.00
02058              -0.60    -1200.00
02059              -0.40    -1000.00
02060              -0.40     -800.00
02061              -0.60     -800.00
02062              -0.60     -600.00
02063               0.00     -400.00
02064              -0.20     -400.00
02065              -0.40     -200.00
02066              -0.60     -200.00
02067              -0.20        0.00
02068              -0.20        0.00
02069               0.40        0.00
02070               1.00      400.00
02071              -0.20      400.00
02072              -0.60      400.00
02073               0.40      800.00
02074               0.40      800.00
02075              -0.20      800.00
02076               3.40     1200.00
02077              15.40     1400.00
02078               0.60     1400.00
02079             -25.00     1600.00
02080             -25.00     1600.00
02081              25.00     1800.00
02082              25.00     2000.00
02083             -25.00     1800.00
02084             -25.00     2200.00
02085              25.00     2000.00
02086              22.80     2400.00
02087             -25.00     2600.00
02088              25.00     2600.00
02089              25.00     2600.00
02090             -25.00     2800.00
02091              -7.80     3200.00
02092              25.00     3000.00
02093             -25.00     3000.00
02094             -25.00     3800.00
02095              25.00     3200.00
02096               5.20     3600.00
02097             -25.00     4000.00
02098              21.00     3600.00
02099              25.00     3800.00
02100             -16.40     4200.00
02101             -25.00     4000.00
02102              25.00     4000.00
02103              25.00     4400.00
02104             -25.00     4600.00
02105             -22.00     4600.00
02106              25.00     4800.00
02107             -20.40     4800.00
02108             -25.00     5000.00
02109              25.00     4800.00
02110              18.80     5200.00
02111             -25.00     5200.00
02112              23.60     5400.00
02113              25.00     5600.00
02114             -25.00     5600.00
02115              -9.00     5600.00
02116              25.00     5600.00
02117             -20.60     6000.00
02118             -25.00     6000.00
02119              25.00     6000.00
02120               2.60     6200.00
02121             -22.80     6400.00
02122              11.80     6200.00
02123              11.00     6400.00
02124             -12.60     6600.00
02125              -1.20     6600.00
02126               9.80     6400.00
02127              -1.20     6800.00
02128              -7.40     6800.00
02129               5.80     6800.00
02130               6.60     6800.00
02131              -7.60     7000.00
02132              -1.00     7200.00
02133              10.40     7200.00
02134              -3.60     7200.00
02135              -7.00     7400.00
02136              10.60     7600.00
02137               1.80     7600.00
02138              -8.60     7600.00
02139               5.40     7800.00
02140               5.80     7600.00
02141              -6.60     7600.00
02142               1.00     7800.00
02143               7.00     7800.00
02144              -3.20     8000.00
02145              -2.20     8000.00
02146               5.40     8200.00
02147               0.60     8200.00
02148              -3.60     8200.00
02149               2.20     8000.00
02150               3.60     8200.00
02151              -1.20     8200.00
02152              -0.60     8200.00
02153               3.00     8400.00
02154               1.00     8400.00
02155              -1.20     8400.00
02156               2.20     8400.00
02157               2.00     8400.00
02158              -1.40     8600.00
02159               0.80     8600.00
02160               3.20     8600.00
02161              -0.40     8600.00
02162              -0.60     8600.00
02163               2.20     8600.00
02164               1.00     8600.00
02165              -0.20     8400.00
02166               1.00     8600.00
02167               1.20     8600.00
02168               0.40     8600.00
02169               1.00     8600.00
02170               0.80     8600.00
02171               0.60     8600.00
02172               0.40     8600.00
02173               1.00     8600.00
02174               0.80     8600.00
02175               0.60     8600.00
02176               0.40     8600.00
02177               0.60     8600.00
02178               1.20     8600.00
02179               0.60     8800.00
02180               0.20     8600.00
02181               0.80     8600.00
02182               1.20     8600.00
02183               0.80     8400.00
02184               0.60     8600.00
02185               0.60     8600.00
02186               1.20     8600.00
02187               0.60     8400.00
02188               0.20     8400.00
02189               0.60     8400.00
02190               1.20     8400.00
02191               0.60     8400.00
02192               0.60     8400.00
02193               1.00     8400.00
02194               0.20     8200.00
02195              -0.20     8200.00
02196               1.40     8000.00
02197               1.00     8200.00
02198              -0.40     8200.00
02199               1.00     8000.00
02200               1.40     8000.00
02201               0.40     8200.00
02202               0.40     8000.00
02203               1.00     7800.00
02204               0.40     7800.00
02205               0.40     7600.00
02206               0.60     7600.00
02207               1.20     7600.00
02208               0.40     7600.00
02209               0.40     7600.00
02210               1.80     7600.00
02211               0.60     7200.00
02212              -0.40     7400.00
02213               1.00     7200.00
02214               1.20     7200.00
02215               0.20     7000.00
02216               0.60     7000.00
02217               0.40     7000.00
02218               0.60     7000.00
02219               1.00     6800.00
02220               0.20     6600.00
02221               0.40     6600.00
02222               1.00     6400.00
02223               0.40     6400.00
02224               0.40     6400.00
02225               1.20     6200.00
02226               0.00     6200.00
02227               0.40     6200.00
02228               1.00     6000.00
02229               0.20     5800.00
02230              -0.20     5800.00
02231               1.00     5600.00
02232               0.40     5600.00
02233              -0.40     5600.00
02234               0.60     5400.00
02235               0.40     5400.00
02236              -0.40     5200.00
02237               0.20     5000.00
02238               0.60     5000.00
02239               0.00     4800.00
02240               0.20     4800.00
02241               0.60     4600.00
02242               0.40     4600.00
02243              -0.20     4400.00
02244               0.20     4200.00
02245               0.20     4200.00
02246               0.00     4000.00
02247               0.20     4000.00
02248               0.20     4000.00
02249              -0.20     3800.00
02250              -0.20     3800.00
02251               0.40     3600.00
02252              -0.20     3200.00
02253              -0.40     3400.00
02254              -0.20     3200.00
02255              -0.20     3000.00
02256              -0.20     2800.00
02257               0.00     2800.00
02258              -0.20     2800.00
02259              -0.20     2800.00
02260               0.40     2400.00
02261               0.20     2400.00
02262              -0.40     2200.00
02263               0.20     2200.00
02264              -0.20     2000.00
02265              -0.20     1800.00
02266              -0.20     1800.00
02267              -0.20     1600.00
02268              -0.20     1800.00
02269              -0.20     1400.00
02270              -0.40     1400.00
02271               0.20     1200.00
02272              -0.40     1000.00
02273              -0.40      800.00
02274               0.20      800.00
02275              -0.20      600.00
02276              -0.60      600.00
02277              -0.20      400.00
02278               0.20      400.00
02279              -0.60        0.00
02280              -0.60        0.00
02281               0.20        0.00
02282              -0.20     -200.00
02283              -0.20     -400.00
02284               1.00     -400.00
02285              -0.60     -400.00
02286              -1.00     -800.00
02287               0.20     -800.00
02288               0.20    -1000.00
02289               0.60    -1000.00
02290              16.40    -1200.00
02291               6.80    -1600.00
02292             -25.00    -1600.00
02293             -25.00    -1400.00
02294              25.00    -1600.00
02295              25.00    -2000.00
02296             -25.00    -2000.00
02297             -25.00    -1600.00
02298              25.00    -2400.00
02299              24.20    -2600.00
02300             -25.00    -2200.00
02301              25.00    -2600.00
02302              25.00    -3000.00
02303             -25.00    -2600.00
02304             -25.00    -2800.00
02305              25.00    -3400.00
02306             -11.00    -3200.00
02307             -25.00    -3200.00
02308              25.00    -3600.00
02309              -2.20    -3400.00
02310             -25.00    -3400.00
02311              25.00    -4000.00
02312              25.00    -4000.00
02313              -0.60    -4000.00
02314             -25.00    -4200.00
02315              17.20    -4400.00
02316              25.00    -4400.00
02317             -25.00    -4400.00
02318             -25.00    -4600.00
02319              25.00    -4800.00
02320             -25.00    -4600.00
02321             -25.00    -4800.00
02322              25.00    -5000.00
02323               3.80    -5000.00
02324             -25.00    -5200.00
02325              25.00    -5200.00
02326              25.00    -5400.00
02327             -25.00    -5600.00
02328             -13.40    -5800.00
02329              25.00    -5800.00
02330             -22.00    -5800.00
02331             -25.00    -6000.00
02332              25.00    -6000.00
02333              -2.80    -6000.00
02334             -25.00    -6200.00
02335              16.20    -6400.00
02336               8.00    -6400.00
02337             -15.20    -6600.00
02338              -3.80    -6600.00
02339              12.40    -6800.00
02340              -5.20    -6600.00
02341             -12.20    -6800.00
02342              11.40    -6800.00
02343               1.40    -7000.00
02344             -12.60    -7000.00
02345               2.60    -7200.00
02346               8.80    -7400.00
02347              -9.40    -7200.00
02348              -7.80    -7400.00
02349              13.80    -7400.00
02350              -4.00    -7400.00
02351             -13.20    -7600.00
02352              10.60    -7600.00
02353               1.80    -7600.00
02354             -13.00    -7800.00
02355               3.20    -7800.00
02356               6.80    -8000.00
02357              -9.20    -8000.00
02358              -4.20    -8000.00
02359               7.60    -8000.00
02360              -3.40    -8000.00
02361              -8.20    -8200.00
02362               3.40    -8200.00
02363               1.80    -8200.00
02364              -6.00    -8200.00
02365              -1.60    -8200.00
02366               2.60    -8400.00
02367              -3.00    -8400.00
02368              -4.40    -8400.00
02369               1.80    -8400.00
02370              -0.20    -8600.00
02371              -4.80    -8400.00
02372              -0.40    -8400.00
02373               1.40    -8600.00
02374              -3.40    -8600.00
02375              -2.60    -8800.00
02376               0.20    -8400.00
02377              -1.20    -8600.00
02378              -2.80    -8800.00
02379              -1.40    -8800.00
02380              -0.60    -8800.00
02381              -1.60    -8800.00
02382              -1.40    -8600.00
02383              -1.40    -8800.00
02384              -1.40    -8800.00
02385              -1.00    -8800.00
02386              -2.00    -8800.00
02387              -2.00    -8800.00
02388              -0.60    -8800.00
02389              -1.80    -8800.00
02390              -2.00    -8800.00
02391              -0.40    -8800.00
02392              -1.20    -8800.00
02393              -2.20    -8800.00
02394              -1.40    -8800.00
02395              -0.40    -8800.00
02396              -1.40    -8600.00
02397              -2.20    -8800.00
02398              -1.00    -8600.00
02399              -1.00    -8600.00
02400              -1.20    -8800.00
02401              -1.40    -8600.00
02402              -0.60    -8600.00
02403              -1.40    -8400.00
02404              -1.80    -8400.00
02405              -1.20    -8400.00
02406              -1.00    -8400.00
02407              -1.40    -8400.00
02408              -1.80    -8400.00
02409              -0.60    -8200.00
02410               0.00    -8200.00
02411              -3.00    -8200.00
02412              -1.40    -8200.00
02413               0.60    -8200.00
02414              -2.20    -8000.00
02415              -2.00    -8000.00
02416               0.40    -8000.00
02417              -1.60    -8000.00
02418              -2.60    -7800.00
02419              -0.20    -7800.00
02420              -0.40    -7800.00
02421              -3.40    -7400.00
02422              -0.60    -7600.00
02423               0.60    -7600.00
02424              -3.20    -7400.00
02425              -1.40    -7400.00
02426              -0.40    -7200.00
02427              -1.60    -7200.00
02428              -1.40    -7200.00
02429              -0.80    -7200.00
02430              -1.80    -7200.00
02431              -1.40    -7200.00
02432              -1.20    -6800.00
02433              -0.60    -6800.00
02434              -1.20    -6600.00
02435              -1.40    -6600.00
02436              -1.00    -6600.00
02437              -1.00    -6600.00
02438              -1.80    -6400.00
02439              -1.80    -6400.00
02440              -1.20    -6400.00
02441              -0.40    -6000.00
02442              -2.00    -6000.00
02443              -1.00    -6000.00
02444              -0.40    -6000.00
02445              -2.00    -5800.00
02446              -0.20    -5800.00
02447              -0.40    -5600.00
02448              -2.20    -5400.00
02449              -0.40    -5200.00
02450              -0.60    -5400.00
02451              -2.60    -5000.00
02452              -0.60    -5000.00
02453               0.20    -4600.00
02454              -2.60    -4600.00
02455              -0.60    -4600.00
02456               0.40    -4600.00
02457              -2.20    -4400.00
02458              -1.20    -4400.00
02459               0.20    -4200.00
02460              -1.20    -4200.00
02461              -1.20    -4000.00
02462              -0.60    -4000.00
02463              -0.60    -3800.00
02464              -0.60    -3800.00
02465              -0.40    -3600.00
02466              -1.20    -3600.00
02467              -1.00    -3200.00
02468               0.20    -3400.00
02469              -1.20    -3200.00
02470              -0.80    -3000.00
02471              -0.20    -2800.00
02472              -0.80    -2800.00
02473              -0.60    -2600.00
02474              -0.40    -2400.00
02475              -1.20    -2400.00
02476              -0.20    -2400.00
02477              -0.20    -2200.00
02478              -0.80    -2000.00
02479              -0.60    -2000.00
02480              -0.20    -1800.00
02481              -0.60    -1800.00
02482              -0.60    -1600.00
02483               0.00    -1400.00
02484              -0.40    -1400.00
02485              -1.20    -1200.00
02486              -0.20    -1000.00
02487              -0.20     -800.00
02488              -0.60     -800.00
02489              -0.60     -800.00
02490              -0.40     -800.00
02491               0.20     -400.00
02492              -0.40     -200.00
02493              -0.40     -200.00
02494              -0.20        0.00
02495               0.20        0.00
02496               0.00        0.00
02497               0.40      400.00
02498               0.20      600.00
02499              -1.00      400.00
02500              -0.40      600.00
02501               0.60      800.00
02502              -0.40      800.00
02503               0.60      800.00
02504              10.40     1200.00
02505              10.80     1400.00
02506             -24.00     1400.00
02507             -25.00     1400.00
02508              21.00     1800.00
02509              25.00     2000.00
02510             -25.00     1800.00
02511             -25.00     2200.00
02512              25.00     2200.00
02513              25.00     2400.00
02514             -25.00     2200.00
02515             -18.20     2800.00
02516              25.00     2600.00
02517             -25.00     2600.00
02518             -25.00     3200.00
02519              25.00     3000.00
02520              21.20     3000.00
02521             -25.00     3600.00
02522              25.00     3400.00
02523              25.00     3400.00
02524             -25.00     3600.00
02525             -11.80     3800.00
02526              25.00     3800.00
02527              13.00     4000.00
02528             -25.00     4200.00
02529              -6.60     4000.00
02530              25.00     4400.00
02531             -22.80     4600.00
02532             -25.00     4400.00
02533              25.00     4600.00
02534              25.00     4800.00
02535             -25.00     4800.00
02536              23.60     5000.00
02537              25.00     5200.00
02538             -25.00     5200.00
02539             -14.60     5400.00
02540              25.00     5400.00
02541             -19.80     5600.00
02542             -25.00     5600.00
02543              25.00     5600.00
02544               8.40     5800.00
02545             -25.00     6000.00
02546              18.20     6000.00
02547              21.20     6000.00
02548             -24.60     6200.00
02549               0.40     6400.00
02550              18.00     6400.00
02551              -7.40     6400.00
02552              -8.20     6600.00
02553               9.60     6600.00
02554               3.60     6600.00
02555              -8.60     6800.00
02556               1.40     6800.00
02557               9.00     7000.00
02558              -3.60     7000.00
02559              -7.40     7000.00
02560               9.80     7000.00
02561               3.00     7200.00
02562             -11.00     7200.00
02563               5.80     7200.00
02564               8.40     7400.00
02565              -9.20     7600.00
02566              -0.40     7600.00
02567               9.20     7600.00
02568              -3.80     7800.00
02569              -3.80     7600.00
02570               7.40     7800.00
02571               0.60     8000.00
02572              -5.20     7800.00
02573               4.20     8000.00
02574               3.80     8200.00
02575              -4.40     8200.00
02576               0.00     8200.00
02577               4.40     8200.00
02578              -0.40     8400.00
02579              -2.00     8200.00
02580               2.60     8200.00
02581               2.00     8200.00
02582              -2.00     8400.00
02583               1.80     8400.00
02584               2.80     8400.00
02585              -1.00     8600.00
02586              -0.40     8400.00
02587               3.40     8600.00
02588               0.60     8600.00
02589              -1.20     8600.00
02590               1.80     8600.00
02591               2.00     8600.00
02592              -0.80     8600.00
02593               0.60     8600.00
02594               1.40     8600.00
02595               0.40     8600.00
02596               1.20     8600.00
02597               1.20     8600.00
02598               0.40     8600.00
02599               0.60     8600.00
02600               1.00     8600.00
02601               1.20     8600.00
02602               1.20     8600.00
02603               1.00     8600.00
02604               0.40     8600.00
02605               1.20     8600.00
02606               1.00     8600.00
02607               0.40     8600.00
02608               0.40     8400.00
02609               1.20     8400.00
02610               1.20     8600.00
02611               0.40     8600.00
02612               0.40     8600.00
02613               1.20     8600.00
02614               1.00     8400.00
02615               0.60     8600.00
02616               1.20     8400.00
02617               1.20     8400.00
02618               0.40     8400.00
02619               0.20     8400.00
02620               1.00     8400.00
02621               0.60     8200.00
02622              -0.40     8400.00
02623               1.20     8000.00
02624               1.00     8200.00
02625              -0.20     8200.00
02626               0.40     8000.00
02627               1.20     8200.00
02628               0.40     8000.00
02629              -0.20     7800.00
02630               0.60     8000.00
02631               1.00     7600.00
02632               0.40     7800.00
02633               0.40     7800.00
02634               1.00     7800.00
02635               0.20     7600.00
02636               0.20     7600.00
02637               0.60     7200.00
02638               0.80     7200.00
02639              -0.60     7200.00
02640               0.40     7200.00
02641               1.20     7200.00
02642              -0.40     7200.00
02643               0.40     7000.00
02644               1.00     7000.00
02645               0.20     6800.00
02646               0.20     6800.00
02647               0.60     6800.00
02648               1.20     6600.00
02649              -0.40     6600.00
02650               0.20     6400.00
02651               1.20     6400.00
02652               1.00     6400.00
02653              -1.20     6200.00
02654               0.40     6200.00
02655               2.00     6000.00
02656              -0.20     6000.00
02657              -1.00     5800.00
02658               1.80     5800.00
02659               0.40     5600.00
02660              -1.00     5600.00
02661               0.60     5600.00
02662               1.20     5400.00
02663              -0.40     5200.00
02664               0.60     5200.00
02665               1.80     5000.00
02666              -0.20     4800.00
02667              -1.00     4800.00
02668               0.40     4800.00
02669               1.00     4600.00
02670               0.20     4400.00
02671              -0.60     4400.00
02672               0.60     4400.00
02673               1.80     4000.00
02674               0.20     4000.00
02675              -0.60     4000.00
02676               0.20     3800.00
02677              -0.20     3800.00
02678               0.20     3600.00
02679               0.40     3600.00
02680               0.80     3400.00
02681               0.40     3200.00
02682              -0.40     3200.00
02683              -0.40     3000.00
02684               0.20     2800.00
02685              -0.20     2800.00
02686              -0.40     2600.00
02687               0.40     2400.00
02688               0.20     2400.00
02689              -1.00     2400.00
02690              -0.60     2200.00
02691               0.00     2000.00
02692               0.60     2000.00
02693               0.40     2000.00
02694              -0.20     1800.00
02695              -0.40     1600.00
02696              -0.60     1600.00
02697              -0.60     1200.00
02698              -0.20     1200.00
02699              -0.20     1200.00
02700              -0.40     1000.00
02701               0.20      800.00
02702               0.20      600.00
02703              -0.60      600.00
02704              -0.60      400.00
02705              -0.60      400.00
02706              -0.40      200.00
02707              -0.40        0.00
02708               0.20        0.00
02709              -0.20     -200.00
02710              -0.40     -400.00
02711               0.40     -400.00
02712               0.00     -400.00
02713              -1.20     -800.00
02714               0.20     -800.00
02715               0.20    -1000.00
02716              -0.40    -1000.00
02717               8.80    -1200.00
02718              19.80    -1600.00
02719             -25.00    -1800.00
02720             -25.00    -1600.00
02721              25.00    -1400.00
02722              25.00    -1800.00
02723             -25.00    -2200.00
02724             -25.00    -1800.00
02725              25.00    -2200.00
02726              25.00    -2600.00
02727             -25.00    -2400.00
02728             -25.00    -2400.00
02729              25.00    -2800.00
02730               8.80    -3000.00
02731             -25.00    -2400.00
02732              25.00    -3400.00
02733              25.00    -3400.00
02734             -25.00    -3000.00
02735              25.00    -3600.00
02736              25.00    -3600.00
02737             -25.00    -3400.00
02738              10.80    -3800.00
02739              25.00    -4000.00
02740              14.60    -4000.00
02741             -25.00    -4200.00
02742             -25.00    -4200.00
02743              25.00    -4400.00
02744             -12.40    -4400.00
02745             -25.00    -4800.00
02746              25.00    -4600.00
02747              25.00    -4600.00
02748             -25.00    -4800.00
02749              25.00    -5000.00
02750              25.00    -5000.00
02751             -25.00    -5200.00
02752              -3.80    -5400.00
02753              25.00    -5600.00
02754             -21.20    -5600.00
02755             -25.00    -5600.00
02756              25.00    -5600.00
02757              10.80    -5800.00
02758             -25.00    -5800.00
02759              22.40    -6000.00
02760              21.80    -6000.00
02761             -25.00    -6000.00
02762               4.20    -6400.00
02763              17.20    -6400.00
02764             -11.60    -6600.00
02765             -10.60    -6400.00
02766               9.00    -6600.00
02767               4.00    -6800.00
02768             -15.00    -6800.00
02769               3.60    -7000.00
02770               9.00    -7000.00
02771             -11.00    -7000.00
02772              -5.40    -7200.00
02773              10.60    -7200.00
02774              -2.20    -7200.00
02775             -14.40    -7400.00
02776               9.20    -7400.00
02777               6.40    -7400.00
02778             -16.60    -7400.00
02779               2.20    -7600.00
02780               9.40    -7600.00
02781             -12.00    -7600.00
02782              -4.40    -7800.00
02783               9.60    -7600.00
02784              -3.00    -8000.00
02785              -9.40    -8000.00
02786               5.00    -7800.00
02787               3.00    -8000.00
02788              -9.40    -8000.00
02789              -1.00    -8200.00
02790               4.60    -8200.00
02791              -3.60    -8200.00
02792              -4.60    -8200.00
02793               2.20    -8400.00
02794              -0.40    -8400.00
02795              -5.40    -8400.00
02796              -0.20    -8400.00
02797               2.00    -8400.00
02798              -4.20    -8400.00
02799              -2.80    -8400.00
02800               2.00    -8400.00
02801              -1.80    -8600.00
02802              -3.40    -8600.00
02803               0.20    -8600.00
02804              -0.20    -8800.00
02805              -2.20    -8400.00
02806              -2.00    -8800.00
02807              -1.00    -8800.00
02808              -1.40    -8800.00
02809              -1.20    -8800.00
02810              -1.40    -8800.00
02811              -1.40    -8800.00
02812              -0.60    -8800.00
02813              -1.40    -8800.00
02814              -2.20    -8800.00
02815              -0.60    -8600.00
02816              -1.20    -8800.00
02817              -2.60    -8800.00
02818              -0.60    -8800.00
02819              -0.60    -8800.00
02820              -2.60    -8600.00
02821              -2.00    -8800.00
02822              -0.40    -8800.00
02823              -1.40    -8800.00
02824              -2.20    -8600.00
02825              -1.20    -8600.00
02826              -1.00    -8600.00
02827              -1.40    -8600.00
02828              -1.60    -8600.00
02829              -1.00    -8400.00
02830              -1.20    -8400.00
02831              -2.20    -8400.00
02832              -1.20    -8400.00
02833              -0.60    -8400.00
02834              -2.20    -8400.00
02835              -1.80    -8400.00
02836              -0.40    -8400.00
02837              -1.00    -8200.00
02838              -2.20    -8200.00
02839              -1.80    -8200.00
02840              -0.20    -8200.00
02841              -1.40    -8000.00
02842              -2.20    -8200.00
02843              -0.60    -8000.00
02844              -0.60    -8000.00
02845              -2.20    -8000.00
02846              -0.60    -7800.00
02847              -0.40    -7600.00
02848              -2.20    -7600.00
02849              -1.80    -7600.00
02850              -0.20    -7600.00
02851              -1.80    -7600.00
02852              -1.80    -7400.00
02853              -0.40    -7200.00
02854              -0.80    -7200.00
02855              -2.20    -7200.00
02856              -0.60    -7000.00
02857              -0.40    -7000.00
02858              -2.20    -7000.00
02859              -0.60    -6800.00
02860              -0.60    -6800.00
02861              -1.20    -6800.00
02862              -1.20    -6800.00
02863              -0.80    -6600.00
02864              -0.60    -6600.00
02865              -1.20    -6400.00
02866              -1.20    -6400.00
02867              -1.00    -6400.00
02868              -0.60    -6200.00
02869              -1.20    -6000.00
02870              -1.20    -6000.00
02871              -0.60    -5800.00
02872              -1.00    -5800.00
02873              -0.60    -5800.00
02874              -0.60    -5600.00
02875              -1.00    -5400.00
02876              -1.40    -5600.00
02877              -0.40    -5200.00
02878              -0.60    -5200.00
02879              -1.20    -5000.00
02880              -1.00    -5000.00
02881              -0.40    -4800.00
02882              -1.00    -4600.00
02883              -1.20    -4600.00
02884              -1.20    -4400.00
02885              -0.40    -4400.00
02886              -1.20    -4200.00
02887              -1.60    -4200.00
02888              -0.60    -4000.00
02889              -0.40    -4000.00
02890              -1.00    -4000.00
02891              -1.40    -4000.00
02892               0.00    -3600.00
02893              -0.60    -3600.00
02894              -1.80    -3400.00
02895              -0.60    -3400.00
02896               0.20    -3200.00
02897              -1.20    -3000.00
02898              -1.20    -2800.00
02899              -0.40    -2800.00
02900              -0.60    -2800.00
02901              -1.00    -2600.00
02902              -0.60    -2400.00
02903              -0.60    -2400.00
02904              -0.60    -2200.00
02905              -0.60    -2000.00
02906              -0.40    -2000.00
02907              -0.40    -1800.00
02908              -1.00    -1800.00
02909              -0.60    -1600.00
02910              -0.40    -1600.00
02911              -0.80    -1400.00
02912              -0.60    -1200.00
02913               0.20    -1000.00
02914               0.20    -1000.00
02915              -0.60     -800.00
02916              -1.20     -800.00
02917              -0.60     -400.00
02918              -0.20     -400.00
02919              -0.60     -400.00
02920              -0.20     -200.00
02921              -0.20     -200.00
02922               0.20        0.00
02923               0.40      200.00
02924               0.20      400.00
02925               0.60      400.00
02926              -0.40      400.00
02927               0.20      400.00
02928               0.60      800.00
02929              -0.20      800.00
02930               0.40      800.00
02931               6.20     1200.00
02932              15.40     1400.00
02933             -10.60     1600.00
02934             -25.00     1400.00
02935             -10.80     1400.00
02936              25.00     1800.00
02937              17.40     2000.00
02938             -25.00     1800.00
02939              24.40     2400.00
02940              25.00     2200.00
02941             -25.00     2200.00
02942             -25.00     2600.00
02943              25.00     2400.00
02944              25.00     2600.00
02945             -25.00     3000.00
02946              25.00     2800.00
02947              25.00     3000.00
02948             -25.00     3200.00
02949               6.20     3400.00
02950              25.00     3200.00
02951             -25.00     3600.00
02952             -25.00     3800.00
02953              25.00     3600.00
02954              25.00     4000.00
02955             -25.00     4000.00
02956             -25.00     4000.00
02957              25.00     4200.00
02958              24.60     4600.00
02959             -25.00     4400.00
02960              19.60     4400.00
02961              25.00     4800.00
02962             -25.00     4800.00
02963             -23.00     4800.00
02964              25.00     5000.00
02965             -18.80     5200.00
02966             -25.00     5400.00
02967              25.00     5400.00
02968              16.80     5600.00
02969             -25.00     5600.00
02970              19.60     5600.00
02971              25.00     5800.00
02972             -25.00     6000.00
02973              -4.80     6000.00
02974              25.00     6200.00
02975             -14.80     6000.00
02976             -13.20     6400.00
02977              18.60     6200.00
02978               1.20     6400.00
02979             -12.60     6400.00
02980               5.80     6600.00
02981               7.40     6800.00
02982              -6.20     6800.00
02983              -2.80     6800.00
02984               8.40     6800.00
02985               1.40     7000.00
02986              -8.20     7000.00
02987               4.60     7200.00
02988               7.40     7200.00
02989              -8.20     7200.00
02990              -1.20     7200.00
02991              10.40     7200.00
02992              -3.80     7600.00
02993              -5.20     7600.00
02994               8.40     7600.00
02995               0.40     7600.00
02996              -5.80     7600.00
02997               4.80     7800.00
02998               4.00     7800.00
02999              -5.00     7800.00
03000               1.60     8200.00
03001               5.20     8200.00
03002              -2.00     8200.00
03003              -1.80     8200.00
03004               3.60     8200.00
03005               2.00     8400.00
03006              -1.80     8400.00
03007               1.40     8400.00
03008               2.60     8400.00
03009              -0.60     8400.00
03010              -0.20     8400.00
03011               2.60     8400.00
03012               0.40     8400.00
03013              -1.20     8400.00
03014               2.20     8600.00
03015               1.60     8400.00
03016              -1.00     8600.00
03017               1.00     8600.00
03018               2.20     8400.00
03019               0.20     8600.00
03020               0.20     8400.00
03021               1.20     8800.00
03022               0.60     8600.00
03023               0.80     8600.00
03024               1.20     8600.00
03025              -0.20     8600.00
03026               0.60     8600.00
03027               1.20     8600.00
03028               0.40     8600.00
03029               0.60     8600.00
03030               1.20     8600.00
03031               0.20     8600.00
03032               0.60     8600.00
03033               1.20     8600.00
03034               0.60     8600.00
03035               0.40     8600.00
03036               0.40     8600.00
03037               1.00     8600.00
03038               1.40     8600.00
03039              -0.20     8600.00
03040               0.20     8400.00
03041               2.00     8600.00
03042               0.40     8600.00
03043               0.20     8400.00
03044               2.00     8600.00
03045               0.60     8400.00
03046              -0.60     8400.00
03047               1.00     8400.00
03048               1.20     8400.00
03049               0.40     8200.00
03050               0.40     8400.00
03051               2.40     8200.00
03052               0.60     8000.00
03053              -0.20     8200.00
03054               1.20     8000.00
03055               1.60     8000.00
03056              -0.40     8000.00
03057               0.40     8000.00
03058               1.80     7800.00
03059               0.20     7800.00
03060               0.40     7800.00
03061               1.40     7800.00
03062               0.80     7600.00
03063               0.20     7600.00
03064               1.20     7400.00
03065               1.40     7400.00
03066              -0.20     7400.00
03067               0.40     7000.00
03068               1.20     7200.00
03069               0.60     7000.00
03070               0.20     7000.00
03071               1.00     7000.00
03072               0.40     6800.00
03073               0.20     6800.00
03074               0.60     6800.00
03075               1.00     6600.00
03076              -0.20     6400.00
03077               0.40     6400.00
03078               1.00     6400.00
03079               0.40     6400.00
03080               0.20     6200.00
03081               0.60     6200.00
03082               0.40     6000.00
03083               0.40     6000.00
03084               0.20     6000.00
03085               0.20     5800.00
03086               0.20     5600.00
03087               0.00     5600.00
03088               0.40     5400.00
03089               0.20     5400.00
03090              -0.20     5400.00
03091               0.20     5000.00
03092               0.40     5200.00
03093               0.20     4800.00
03094              -0.20     4800.00
03095               0.40     4800.00
03096               0.20     4600.00
03097               0.40     4400.00
03098              -0.40     4400.00
03099               0.00     4400.00
03100               0.20     4000.00
03101              -0.20     4000.00
03102               0.20     4000.00
03103               0.20     4000.00
03104               0.20     3800.00
03105               0.20     3600.00
03106               0.20     3600.00
03107               0.20     3400.00
03108              -0.20     3200.00
03109              -0.20     3200.00
03110               0.40     3200.00
03111              -0.20     3000.00
03112              -0.20     3000.00
03113               0.20     2600.00
03114               0.20     2400.00
03115              -0.20     2600.00
03116               0.20     2400.00
03117              -0.20     2200.00
03118              -0.20     2200.00
03119               0.20     2000.00
03120              -0.20     2000.00
03121              -0.20     1800.00
03122              -0.20     1600.00
03123               0.00     1600.00
03124              -0.20     1400.00
03125               0.20     1200.00
03126              -0.20     1200.00
03127              -0.20      800.00
03128              -0.20      800.00
03129               0.20      800.00
03130              -0.20      600.00
03131              -0.20      400.00
03132              -0.20      400.00
03133              -0.20      200.00
03134              -0.20      200.00
03135              -0.40        0.00
03136              -0.40     -200.00
03137               0.40     -200.00
03138               0.60     -200.00
03139              -0.20     -400.00
03140              -0.60     -600.00
03141               0.20     -600.00
03142              -0.40    -1000.00
03143              -0.60    -1000.00
03144               3.60    -1000.00
03145              21.40    -1200.00
03146             -11.40    -1600.00
03147             -25.00    -1800.00
03148             -11.80    -1400.00
03149              25.00    -1800.00
03150              17.20    -2000.00
03151             -25.00    -1800.00
03152              25.00    -1800.00
03153              25.00    -2400.00
03154             -25.00    -2600.00
03155             -25.00    -2000.00
03156              25.00    -2800.00
03157              25.00    -2800.00
03158             -25.00    -2600.00
03159              25.00    -3200.00
03160              25.00    -3200.00
03161             -25.00    -3200.00
03162             -25.00    -3200.00
03163              25.00    -3600.00
03164             -25.00    -3400.00
03165             -25.00    -3600.00
03166              25.00    -4000.00
03167              25.00    -4000.00
03168             -19.80    -4000.00
03169             -25.00    -4200.00
03170              25.00    -4200.00
03171              25.00    -4400.00
03172             -25.00    -4400.00
03173              25.00    -4600.00
03174              25.00    -4600.00
03175             -25.00    -4600.00
03176             -10.60    -5000.00
03177              25.00    -5200.00
03178             -25.00    -5000.00
03179             -25.00    -5400.00
03180              25.00    -5200.00
03181              12.40    -5600.00
03182             -25.00    -5800.00
03183              14.80    -5600.00
03184              25.00    -5800.00
03185             -25.00    -5800.00
03186              -6.60    -6000.00
03187              25.00    -6000.00
03188             -22.20    -6000.00
03189             -13.80    -6200.00
03190              20.20    -6400.00
03191              -1.80    -6400.00
03192             -15.00    -6600.00
03193               2.80    -6600.00
03194              10.20    -6600.00
03195             -10.80    -6800.00
03196              -5.80    -6800.00
03197              11.40    -6800.00
03198              -4.20    -7000.00
03199             -10.60    -7000.00
03200               6.60    -7200.00
03201               5.80    -7200.00
03202             -13.00    -7200.00
03203              -1.40    -7400.00
03204              13.00    -7200.00
03205             -11.00    -7400.00
03206              -7.60    -7600.00
03207              12.20    -7600.00
03208              -5.00    -7600.00
03209             -10.40    -8000.00
03210               7.00    -8000.00
03211               2.60    -8000.00
03212             -10.60    -8000.00
03213               0.40    -8200.00
03214               6.80    -8000.00
03215              -7.20    -8200.00
03216              -5.00    -8200.00
03217               5.00    -8200.00
03218              -1.20    -8200.00
03219              -6.00    -8200.00
03220               0.40    -8400.00
03221               1.80    -8400.00
03222              -4.20    -8400.00
03223              -2.20    -8400.00
03224               1.80    -8400.00
03225              -2.20    -8400.00
03226              -3.80    -8400.00
03227               0.80    -8400.00
03228              -0.60    -8800.00
03229              -4.20    -8400.00
03230              -1.20    -8600.00
03231               0.20    -8600.00
03232              -1.80    -8800.00
03233              -1.80    -8800.00
03234              -0.60    -8800.00
03235              -1.20    -8600.00
03236              -1.40    -8600.00
03237              -1.20    -8800.00
03238              -2.00    -8800.00
03239              -1.20    -8800.00
03240              -1.00    -8800.00
03241              -2.20    -8800.00
03242              -1.20    -8600.00
03243              -0.60    -8800.00
03244              -2.20    -8600.00
03245              -1.80    -8800.00
03246              -0.60    -8600.00
03247              -1.20    -8800.00
03248              -2.20    -8400.00
03249              -1.00    -8800.00
03250              -0.60    -8800.00
03251              -1.60    -8600.00
03252              -2.00    -8800.00
03253              -1.00    -8800.00
03254              -0.60    -8800.00
03255              -1.40    -8600.00
03256              -1.80    -8400.00
03257              -1.00    -8400.00
03258              -1.40    -8400.00
03259              -2.00    -8400.00
03260              -0.60    -8400.00
03261              -1.00    -8400.00
03262              -2.00    -8400.00
03263              -0.60    -8400.00
03264              -0.20    -8200.00
03265              -2.00    -8400.00
03266              -2.20    -8200.00
03267              -0.20    -8200.00
03268              -0.60    -8200.00
03269              -2.20    -8000.00
03270              -1.00    -8000.00
03271              -0.60    -8000.00
03272              -2.00    -8000.00
03273              -2.00    -7800.00
03274              -0.40    -8000.00
03275              -1.80    -7800.00
03276              -1.80    -7600.00
03277              -0.20    -7600.00
03278              -0.60    -7600.00
03279              -2.80    -7400.00
03280              -1.20    -7400.00
03281              -0.20    -7400.00
03282              -1.80    -7200.00
03283              -1.20    -7200.00
03284               0.20    -7200.00
03285              -2.60    -6800.00
03286              -1.40    -6800.00
03287              -1.20    -6800.00
03288              -1.40    -6800.00
03289              -1.80    -6800.00
03290              -0.60    -6600.00
03291              -1.00    -6600.00
03292              -1.20    -6400.00
03293              -1.20    -6400.00
03294              -1.40    -6400.00
03295              -1.40    -6200.00
03296              -1.20    -6200.00
03297              -1.20    -6000.00
03298              -1.20    -6000.00
03299              -1.20    -5800.00
03300              -1.00    -5800.00
03301              -0.60    -5600.00
03302              -1.00    -5600.00
03303              -1.80    -5400.00
03304              -0.60    -5200.00
03305              -1.00    -5200.00
03306              -1.20    -5000.00
03307              -0.80    -5000.00
03308              -0.60    -4800.00
03309              -0.60    -4600.00
03310              -0.60    -4600.00
03311              -1.20    -4400.00
03312              -1.20    -4400.00
03313              -1.00    -4400.00
03314              -1.00    -4200.00
03315              -0.40    -4200.00
03316              -0.40    -4000.00
03317              -1.00    -4000.00
03318              -0.60    -3800.00
03319              -0.60    -3600.00
03320              -1.20    -3600.00
03321              -0.60    -3400.00
03322              -0.60    -3400.00
03323              -0.60    -3200.00
03324              -0.40    -3200.00
03325              -0.60    -3000.00
03326              -0.60    -2800.00
03327              -0.40    -2800.00
03328              -1.00    -2600.00
03329              -0.60    -2600.00
03330              -0.40    -2400.00
03331              -0.40    -2400.00
03332              -0.40    -2000.00
03333              -0.60    -2000.00
03334              -0.80    -1800.00
03335              -1.00    -1800.00
03336              -0.60    -1600.00
03337              -1.00    -1600.00
03338              -0.20    -1200.00
03339              -0.20    -1400.00
03340              -0.80    -1200.00
03341              -0.60    -1000.00
03342              -0.40     -800.00
03343              -1.00     -800.00
03344              -0.60     -600.00
03345              -0.40     -400.00
03346               0.20     -400.00
03347              -0.60     -200.00
03348              -1.00     -200.00
03349              -0.40        0.00
03350               0.20        0.00
03351              -0.60      400.00
03352               1.00      400.00
03353               0.20      400.00
03354              -0.60      600.00
03355               0.60      600.00
03356              -0.40      800.00
03357              -0.40      800.00
03358               3.40     1200.00
03359              14.00     1200.00
03360               2.60     1400.00
03361             -25.00     1800.00
03362             -25.00     1600.00
03363              25.00     1800.00
03364              25.00     2000.00
03365             -25.00     1800.00
03366             -25.00     2200.00
03367              25.00     2200.00
03368              25.00     2200.00
03369             -25.00     2400.00
03370              25.00     2600.00
03371              25.00     2800.00
03372             -25.00     2800.00
03373             -21.20     3000.00
03374              25.00     3200.00
03375             -25.00     3000.00
03376             -25.00     3600.00
03377              25.00     3200.00
03378              12.60     3600.00
03379             -25.00     3800.00
03380              17.20     3800.00
03381              25.00     3800.00
03382             -12.60     4000.00
03383             -25.00     4200.00
03384              25.00     4000.00
03385              25.00     4600.00
03386             -25.00     4400.00
03387             -25.00     4400.00
03388              25.00     4800.00
03389             -14.60     4800.00
03390             -25.00     4800.00
03391              25.00     4800.00
03392              23.60     5400.00
03393             -25.00     5200.00
03394              19.60     5400.00
03395              25.00     5400.00
03396             -25.00     5600.00
03397             -12.40     5600.00
03398              25.00     5600.00
03399             -17.40     5800.00
03400             -25.00     6000.00
03401              25.00     6000.00
03402               5.00     6200.00
03403             -23.60     6400.00
03404              11.00     6200.00
03405              12.20     6400.00
03406             -12.40     6400.00
03407              -2.00     6800.00
03408              10.20     6400.00
03409              -0.60     6600.00
03410              -7.60     6800.00
03411               5.20     6800.00
03412               6.60     7000.00
03413              -7.60     7000.00
03414              -1.60     7000.00
03415              10.60     7200.00
03416              -3.40     7200.00
03417              -8.40     7200.00
03418              10.40     7200.00
03419               2.60     7600.00
03420             -10.00     7600.00
03421               6.00     7600.00
03422               6.00     7800.00
03423              -7.60     7800.00
03424               1.40     7800.00
03425               6.60     7800.00
03426              -3.60     8200.00
03427              -2.20     8000.00
03428               4.60     8200.00
03429               1.00     8000.00
03430              -3.40     8200.00
03431               2.00     8000.00
03432               3.60     8200.00
03433              -1.40     8400.00
03434               0.20     8400.00
03435               2.60     8400.00
03436               0.40     8200.00
03437              -0.20     8400.00
03438               1.20     8400.00
03439               1.20     8400.00
03440              -0.40     8600.00
03441               1.00     8600.00
03442               2.20     8600.00
03443               0.20     8600.00
03444              -0.20     8600.00
03445               1.40     8600.00
03446               1.20     8400.00
03447               0.20     8600.00
03448               0.60     8600.00
03449               1.00     8600.00
03450               0.60     8600.00
03451               1.20     8600.00
03452               0.40     8800.00
03453               0.20     8600.00
03454               1.00     8600.00
03455               1.40     8800.00
03456               1.00     8600.00
03457               0.40     8600.00
03458               1.00     8600.00
03459               1.00     8600.00
03460               0.40     8600.00
03461               1.20     8600.00
03462               0.40     8600.00
03463               0.60     8600.00
03464               1.60     8600.00
03465               0.60     8600.00
03466               0.40     8600.00
03467               0.60     8400.00
03468               1.20     8600.00
03469               0.40     8400.00
03470              -0.40     8400.00
03471               1.40     8400.00
03472               1.20     8400.00
03473               0.20     8400.00
03474               1.00     8400.00
03475               1.20     8400.00
03476              -0.40     8400.00
03477              -1.00     8200.00
03478               2.00     8200.00
03479               1.20     8000.00
03480              -1.40     8200.00
03481               1.80     8000.00
03482               1.80     8000.00
03483              -0.80     8000.00
03484               0.40     8000.00
03485               1.20     7800.00
03486               0.40     7800.00
03487              -0.20     7600.00
03488               0.60     7800.00
03489               1.00     7600.00
03490              -1.00     7600.00
03491               0.20     7600.00
03492               2.00     7400.00
03493               0.00     7600.00
03494              -0.40     7200.00
03495               1.40     7200.00
03496               1.60     7200.00
03497              -0.60     7200.00
03498               0.20     7000.00
03499               1.80     6800.00
03500              -0.20     6800.00
03501               0.20     6800.00
03502               0.20     6800.00
03503               0.80     6600.00
03504               1.20     6400.00
03505              -0.20     6600.00
03506               1.20     6400.00
03507               0.40     6200.00
03508              -0.60     6200.00
03509               0.40     6200.00
03510               1.20     6200.00
03511               0.60     6000.00
03512              -0.20     6000.00
03513               1.00     5800.00
03514               1.00     5600.00
03515              -0.40     5600.00
03516               0.20     5400.00
03517               0.40     5400.00
03518               0.60     5200.00
03519               0.80     5200.00
03520               0.20     5000.00
03521              -0.40     4800.00
03522               0.20     4800.00
03523               0.20     4600.00
03524               0.40     4400.00
03525               0.40     4400.00
03526               0.40     4400.00
03527               0.40     4400.00
03528               0.60     4200.00
03529               0.20     4000.00
03530               0.00     4000.00
03531               0.20     3800.00
03532               0.40     3600.00
03533              -0.20     3600.00
03534              -0.60     3400.00
03535              -0.20     3200.00
03536               0.00     3200.00
03537               0.00     3000.00
03538               0.40     3000.00
03539               0.20     2800.00
03540              -0.20     2800.00
03541               0.00     2400.00
03542              -0.40     2800.00
03543              -0.40     2400.00
03544               0.40     2200.00
03545              -0.20     2200.00
03546              -0.20     2000.00
03547               0.60     2000.00
03548              -0.40     1800.00
03549              -1.80     1600.00
03550               0.40     1600.00
03551               0.40     1400.00
03552              -1.00     1200.00
03553               0.20     1200.00
03554               0.20     1000.00
03555              -1.20     1000.00
03556              -0.20      800.00
03557               0.20      600.00
03558              -0.80      400.00
03559              -0.60      400.00
03560               0.40      200.00
03561               0.00        0.00
03562              -1.20        0.00
03563              -0.20        0.00
03564              -0.20     -200.00
03565               0.20     -400.00
03566               1.00     -400.00
03567              -0.40     -400.00
03568              -0.60     -600.00
03569               0.40     -800.00
03570              -0.60    -1000.00
03571               0.20    -1000.00
03572              15.80    -1200.00
03573               8.40    -1600.00
03574             -25.00    -1600.00
03575             -25.00    -1600.00
03576              25.00    -1600.00
03577              25.00    -2000.00
03578             -25.00    -2400.00
03579             -25.00    -1600.00
03580              25.00    -2400.00
03581              25.00    -2600.00
03582             -25.00    -2000.00
03583              25.00    -2600.00
03584              25.00    -3000.00
03585             -25.00    -2800.00
03586             -25.00    -2600.00
03587              25.00    -3200.00
03588               1.40    -3200.00
03589             -25.00    -3000.00
03590              25.00    -3600.00
03591               9.40    -3600.00
03592             -25.00    -3400.00
03593              25.00    -4000.00
03594              25.00    -3800.00
03595               1.80    -4000.00
03596             -25.00    -4200.00
03597              10.60    -4200.00
03598              25.00    -4400.00
03599             -25.00    -4400.00
03600             -25.00    -4600.00
03601              25.00    -4600.00
03602             -25.00    -4800.00
03603             -25.00    -5000.00
03604              25.00    -5000.00
03605              11.20    -5000.00
03606             -25.00    -5200.00
03607              25.00    -5400.00
03608              25.00    -5400.00
03609             -25.00    -5600.00
03610             -17.80    -5600.00
03611              25.00    -5800.00
03612             -18.20    -5600.00
03613             -25.00    -6000.00
03614              25.00    -6000.00
03615              -0.20    -6000.00
03616             -25.00    -6400.00
03617              15.00    -6400.00
03618               9.20    -6400.00
03619             -15.20    -6400.00
03620              -4.60    -6600.00
03621              12.00    -6600.00
03622              -3.40    -6800.00
03623             -13.20    -6600.00
03624               9.60    -6800.00
03625               3.40    -6800.00
03626             -13.20    -7000.00
03627               0.60    -7200.00
03628               9.80    -7200.00
03629              -9.00    -7200.00
03630              -9.40    -7400.00
03631              13.40    -7600.00
03632              -3.00    -7600.00
03633             -14.00    -7600.00
03634              10.00    -7600.00
03635               2.60    -7600.00
03636             -13.00    -7800.00
03637               2.00    -7800.00
03638               8.00    -8000.00
03639              -8.60    -8000.00
03640              -6.20    -8000.00
03641               8.40    -8200.00
03642              -1.80    -8200.00
03643              -9.00    -8000.00
03644               3.40    -8200.00
03645               2.80    -8400.00
03646              -6.60    -8200.00
03647              -2.00    -8200.00
03648               3.40    -8400.00
03649              -2.80    -8200.00
03650              -4.60    -8400.00
03651               1.40    -8600.00
03652               1.00    -8400.00
03653              -5.20    -8400.00
03654              -1.40    -8400.00
03655               2.40    -8400.00
03656              -2.80    -8600.00
03657              -3.60    -8600.00
03658               0.60    -8800.00
03659              -0.20    -8800.00
03660              -3.00    -8600.00
03661              -2.00    -8800.00
03662              -0.20    -8800.00
03663              -1.60    -8600.00
03664              -1.80    -8800.00
03665              -1.40    -8800.00
03666              -1.20    -8600.00
03667              -1.00    -8800.00
03668              -2.20    -8800.00
03669              -1.40    -8800.00
03670              -0.80    -8800.00
03671              -2.00    -8800.00
03672              -1.20    -8600.00
03673              -1.20    -8800.00
03674              -1.80    -8800.00
03675              -1.80    -8800.00
03676              -1.80    -8600.00
03677              -1.20    -8600.00
03678              -1.40    -8800.00
03679              -2.20    -8600.00
03680              -1.20    -8600.00
03681              -0.60    -8800.00
03682              -2.00    -8800.00
03683              -1.80    -8400.00
03684              -0.60    -8600.00
03685              -2.00    -8400.00
03686              -2.20    -8400.00
03687              -0.60    -8400.00
03688              -0.60    -8200.00
03689              -2.60    -8400.00
03690              -1.40    -8200.00
03691               0.20    -8200.00
03692              -1.80    -8200.00
03693              -2.80    -8200.00
03694              -0.60    -8200.00
03695              -0.60    -8200.00
03696              -2.00    -8000.00
03697              -1.40    -8000.00
03698              -0.40    -8000.00
03699              -1.00    -8000.00
03700              -2.20    -8000.00
03701              -0.80    -7800.00
03702              -0.80    -7800.00
03703              -2.20    -7600.00
03704              -0.60    -7600.00
03705               0.00    -7400.00
03706              -2.20    -7400.00
03707              -1.20    -7400.00
03708              -0.40    -7200.00
03709              -1.00    -7200.00
03710              -1.80    -7200.00
03711              -0.20    -7200.00
03712              -1.40    -7000.00
03713              -1.40    -6800.00
03714              -0.60    -6800.00
03715              -1.20    -6800.00
03716              -1.60    -6800.00
03717              -0.80    -6600.00
03718               0.00    -6600.00
03719              -1.60    -6600.00
03720              -1.20    -6400.00
03721              -0.20    -6400.00
03722              -1.60    -6400.00
03723              -1.00    -6000.00
03724              -0.40    -6000.00
03725              -1.40    -6000.00
03726              -0.60    -5800.00
03727              -0.80    -5800.00
03728              -1.20    -5600.00
03729              -1.00    -5600.00
03730              -1.20    -5600.00
03731              -1.20    -5200.00
03732              -0.60    -5200.00
03733              -0.80    -5200.00
03734              -1.20    -5000.00
03735              -1.40    -5000.00
03736              -0.40    -4800.00
03737              -0.80    -4600.00
03738              -1.40    -4600.00
03739              -0.60    -4400.00
03740              -0.80    -4400.00
03741              -1.20    -4200.00
03742              -0.60    -4200.00
03743              -0.60    -4200.00
03744              -1.20    -4000.00
03745              -1.00    -4000.00
03746              -0.40    -3800.00
03747              -0.60    -3600.00
03748              -1.20    -3600.00
03749              -1.00    -3400.00
03750              -0.60    -3400.00
03751              -1.00    -3200.00
03752              -0.80    -3000.00
03753              -0.60    -2800.00
03754              -0.80    -2800.00
03755              -0.40    -2600.00
03756              -0.60    -2400.00
03757              -0.60    -2400.00
03758              -0.60    -2400.00
03759              -0.40    -2200.00
03760              -0.20    -2200.00
03761              -0.60    -1800.00
03762              -0.60    -1800.00
03763              -0.20    -1600.00
03764              -0.60    -1600.00
03765              -0.20    -1600.00
03766              -0.20    -1200.00
03767              -1.00    -1200.00
03768              -0.60    -1000.00
03769               0.00     -800.00
03770              -0.20     -800.00
03771              -0.40     -800.00
03772              -0.20     -600.00
03773              -0.20     -400.00
03774              -0.80     -400.00
03775              -0.20        0.00
03776              -0.40        0.00
03777               0.20     -200.00
03778               0.20      200.00
03779               0.60      400.00
03780               0.40      400.00
03781              -0.60      600.00
03782               0.40      600.00
03783               1.20      800.00
03784               0.40      800.00
03785              -2.60     1200.00
03786              14.40     1400.00
03787               6.80     1400.00
03788             -23.40     1600.00
03789             -25.00     1400.00
03790              13.00     1800.00
03791              25.00     2000.00
03792             -25.00     2000.00
03793             -25.00     2000.00
03794              25.00     2400.00
03795              25.00     2200.00
03796             -25.00     2200.00
03797             -25.00     2800.00
03798              25.00     2600.00
03799             -24.80     2400.00
03800             -25.00     3200.00
03801              25.00     2800.00
03802              25.00     3000.00
03803             -25.00     3600.00
03804              25.00     3200.00
03805              25.00     3600.00
03806             -25.00     3600.00
03807             -12.60     3800.00
03808              25.00     3800.00
03809              16.40     4000.00
03810             -25.00     4200.00
03811             -13.40     4200.00
03812              25.00     4200.00
03813             -15.40     4400.00
03814             -25.00     4600.00
03815              25.00     4600.00
03816              25.00     4800.00
03817             -25.00     4600.00
03818              18.60     4800.00
03819              25.00     5000.00
03820             -25.00     5200.00
03821             -19.80     5400.00
03822              25.00     5600.00
03823             -15.00     5600.00
03824             -25.00     5600.00
03825              25.00     5600.00
03826              12.20     5800.00
03827             -25.00     5800.00
03828              15.40     6000.00
03829              23.40     6000.00
03830             -23.60     6200.00
03831              -2.00     6400.00
03832              18.00     6400.00
03833              -5.40     6400.00
03834              -9.20     6600.00
03835               9.20     6400.00
03836               5.20     6600.00
03837              -8.60     6800.00
03838               0.20     7000.00
03839               9.60     7000.00
03840              -3.40     7000.00
03841              -6.80     7000.00
03842               9.20     7200.00
03843               3.80     7200.00
03844             -10.20     7200.00
03845               4.40     7400.00
03846               9.00     7400.00
03847              -8.40     7600.00
03848              -1.20     7600.00
03849               9.40     7600.00
03850              -3.60     7800.00
03851              -3.60     7800.00
03852               7.80     7800.00
03853               1.00     7800.00
03854              -5.40     8000.00
03855               3.40     8200.00
03856               4.00     8000.00
03857              -3.60     8200.00
03858              -0.40     8200.00
03859               4.20     8200.00
03860               0.40     8200.00
03861              -2.00     8400.00
03862               2.00     8400.00
03863               2.20     8400.00
03864              -1.20     8400.00
03865               0.20     8400.00
03866               2.60     8400.00
03867              -0.40     8400.00
03868              -0.60     8400.00
03869               2.80     8400.00
03870               1.00     8400.00
03871              -1.00     8600.00
03872               1.40     8600.00
03873               2.00     8400.00
03874              -0.40     8800.00
03875               0.20     8600.00
03876               1.20     8600.00
03877               0.40     8600.00
03878               1.00     8600.00
03879               1.20     8600.00
03880               1.00     8600.00
03881               1.00     8600.00
03882               0.60     8800.00
03883               0.60     8600.00
03884               0.60     8600.00
03885               0.60     8800.00
03886               1.00     8600.00
03887               1.00     8600.00
03888               1.20     8600.00
03889               0.60     8600.00
03890               0.20     8600.00
03891               0.60     8600.00
03892               1.20     8600.00
03893               0.40     8600.00
03894               0.40     8600.00
03895               1.00     8600.00
03896               1.20     8600.00
03897               0.80     8400.00
03898               0.80     8400.00
03899               1.40     8400.00
03900               1.00     8400.00
03901               0.20     8400.00
03902               1.00     8400.00
03903               1.20     8400.00
03904              -0.40     8400.00
03905               1.40     8200.00
03906               1.60     8400.00
03907              -0.20     8000.00
03908               0.40     8200.00
03909               1.80     8000.00
03910               0.40     8000.00
03911               0.00     8200.00
03912               1.00     8000.00
03913               1.40     7800.00
03914               0.00     7600.00
03915               0.40     7800.00
03916               1.80     7600.00
03917               0.20     7600.00
03918               0.20     7600.00
03919               1.60     7600.00
03920               0.80     7200.00
03921              -0.20     7200.00
03922               0.80     7200.00
03923               1.00     7200.00
03924              -0.40     7000.00
03925               1.00     7000.00
03926               1.00     7000.00
03927              -0.20     6800.00
03928               0.60     6800.00
03929               1.00     6800.00
03930              -0.20     6600.00
03931               0.20     6600.00
03932               0.60     6600.00
03933               0.60     6400.00
03934               0.40     6400.00
03935               0.40     6200.00
03936               0.20     6000.00
03937               0.40     6000.00
03938               0.20     6000.00
03939               0.40     6000.00
03940               0.40     5800.00
03941               0.00     5600.00
03942               0.20     5400.00
03943               0.40     5600.00
03944               0.20     5400.00
03945              -0.40     5200.00
03946               1.00     5200.00
03947               0.40     5000.00
03948              -0.40     4800.00
03949               0.40     4800.00
03950              -0.20     4600.00
03951              -0.20     4600.00
03952               0.60     4600.00
03953               0.20     4400.00
03954              -0.20     4400.00
03955               0.60     4000.00
03956               0.20     4000.00
03957              -0.20     3800.00
03958               0.20     3800.00
03959               0.20     3800.00
03960               0.00     3600.00
03961               0.60     3600.00
03962               0.20     3600.00
03963              -0.20     3200.00
03964               0.40     3200.00
03965               0.20     3000.00
03966              -0.20     3000.00
03967               0.20     2800.00
03968               0.20     2800.00
03969              -0.20     2400.00
03970               0.20     2400.00
03971               0.20     2400.00
03972              -0.40     2200.00
03973               0.40     2000.00
03974               0.20     2000.00
03975              -0.40     1800.00
03976               0.20     1600.00
03977              -0.20     1800.00
03978              -0.60     1400.00
03979               0.40     1200.00
03980               0.40     1200.00
03981              -1.40     1000.00
03982              -0.40      800.00
03983               0.60      800.00
03984              -0.40      600.00
03985              -0.40      600.00
03986              -0.40      400.00
03987              -1.00      400.00
03988               0.20      200.00
03989              -0.60        0.00
03990              -1.00        0.00
03991               0.60     -200.00
03992               0.20     -200.00
03993              -0.40     -400.00
03994               0.40     -600.00
03995              -1.00     -600.00
03996              -1.00     -800.00
03997               0.40     -800.00
03998               0.00    -1000.00
03999               6.80    -1200.00
04000              20.60    -1600.00
04001             -25.00    -1800.00
04002             -25.00    -1600.00
04003              25.00    -1400.00
04004              25.00    -1800.00
04005             -25.00    -2400.00
04006             -25.00    -1800.00
04007              25.00    -2200.00
04008              25.00    -2400.00
04009             -25.00    -2400.00
04010             -25.00    -2400.00
04011              25.00    -2800.00
04012              22.00    -3000.00
04013             -25.00    -2400.00
04014              25.00    -3200.00
04015              25.00    -3200.00
04016             -25.00    -3000.00
04017              25.00    -3600.00
04018              25.00    -3400.00
04019             -25.00    -3600.00
04020               5.80    -3600.00
04021              25.00    -4000.00
04022              16.40    -4000.00
04023             -25.00    -4200.00
04024             -25.00    -4200.00
04025              25.00    -4400.00
04026              -2.20    -4400.00
04027             -25.00    -4600.00
04028              25.00    -4800.00
04029              25.00    -4600.00
04030             -25.00    -4800.00
04031              25.00    -5000.00
04032              25.00    -5000.00
04033             -25.00    -5000.00
04034              -9.40    -5400.00
04035              25.00    -5400.00
04036             -17.00    -5600.00
04037             -25.00    -5600.00
04038              25.00    -5800.00
04039              16.20    -5800.00
04040             -25.00    -5800.00
04041              18.60    -6000.00
04042              24.80    -6000.00
04043             -25.00    -6000.00
04044               1.80    -6400.00
04045              17.40    -6400.00
04046              -9.80    -6600.00
04047             -11.00    -6600.00
04048               8.20    -6600.00
04049               5.40    -6600.00
04050             -14.60    -6600.00
04051               2.00    -6800.00
04052              10.00    -6800.00
04053             -10.00    -6800.00
04054              -6.20    -7200.00
04055              10.20    -7200.00
04056              -1.20    -7200.00
04057             -14.60    -7200.00
04058               7.40    -7400.00
04059               7.40    -7400.00
04060             -16.00    -7400.00
04061               1.20    -7600.00
04062              10.00    -7600.00
04063             -10.80    -7600.00
04064              -5.20    -8000.00
04065               9.00    -8000.00
04066              -3.00    -7800.00
04067              -9.80    -8000.00
04068               4.60    -8000.00
04069               3.00    -8200.00
04070              -9.20    -8200.00
04071              -1.00    -8200.00
04072               4.40    -8200.00
04073              -3.80    -8200.00
04074              -4.40    -8200.00
04075               2.00    -8400.00
04076              -0.40    -8400.00
04077              -4.60    -8400.00
04078              -0.60    -8400.00
04079               1.20    -8400.00
04080              -3.60    -8400.00
04081              -2.60    -8600.00
04082               1.40    -8600.00
04083              -1.60    -8600.00
04084              -3.40    -8800.00
04085              -0.20    -8400.00
04086               0.20    -8800.00
04087              -2.20    -8600.00
04088              -2.00    -8400.00
04089              -0.60    -8600.00
04090              -1.40    -8800.00
04091              -1.20    -8800.00
04092              -1.20    -8800.00
04093              -1.80    -8800.00
04094              -0.60    -8800.00
04095              -1.20    -8800.00
04096              -2.00    -8600.00
04097              -0.20    -8800.00
04098              -1.20    -8800.00
04099              -2.20    -8800.00
04100              -0.40    -8800.00
04101              -1.00    -8800.00
04102              -2.00    -8800.00
04103              -1.60    -8800.00
04104              -0.40    -8800.00
04105              -1.20    -8800.00
04106              -2.00    -8600.00
04107              -1.20    -8600.00
04108              -0.60    -8600.00
04109              -1.20    -8600.00
04110              -1.60    -8600.00
04111              -1.20    -8400.00
04112              -0.60    -8400.00
04113              -1.40    -8600.00
04114              -1.80    -8400.00
04115              -0.40    -8400.00
04116              -1.40    -8400.00
04117              -2.20    -8400.00
04118              -0.60    -8200.00
04119              -0.40    -8400.00
04120              -3.00    -8200.00
04121              -1.60    -8200.00
04122               0.20    -8000.00
04123              -2.00    -8000.00
04124              -2.20    -8000.00
04125              -0.20    -8000.00
04126              -1.20    -8000.00
04127              -2.80    -8000.00
04128              -0.60    -7800.00
04129              -0.60    -7600.00
04130              -2.20    -7600.00
04131              -1.80    -7600.00
04132              -0.20    -7600.00
04133              -1.40    -7400.00
04134              -2.20    -7400.00
04135              -1.00    -7400.00
04136              -1.20    -7200.00
04137              -2.20    -7200.00
04138              -0.80    -7200.00
04139              -0.60    -7200.00
04140              -2.80    -7000.00
04141              -0.40    -7000.00
04142              -0.60    -6800.00
04143              -2.00    -6800.00
04144              -1.20    -6600.00
04145              -0.60    -6600.00
04146              -1.00    -6400.00
04147              -0.60    -6400.00
04148              -1.20    -6400.00
04149              -1.40    -6200.00
04150              -0.40    -6000.00
04151              -1.40    -6200.00
04152              -1.40    -6000.00
04153              -1.00    -6000.00
04154              -1.00    -5800.00
04155              -1.00    -5600.00
04156              -0.60    -5600.00
04157              -1.20    -5400.00
04158              -1.40    -5200.00
04159              -0.60    -5200.00
04160              -1.00    -5200.00
04161              -1.00    -5200.00
04162              -1.00    -5000.00
04163              -0.40    -5000.00
04164              -0.60    -4800.00
04165              -1.00    -4600.00
04166              -0.60    -4600.00
04167              -1.00    -4400.00
04168              -1.00    -4200.00
04169              -0.80    -4200.00
04170              -0.60    -4000.00
04171              -1.00    -4000.00
04172              -0.60    -4000.00
04173              -0.40    -3800.00
04174              -0.80    -3600.00
04175              -0.40    -3600.00
04176              -0.60    -3400.00
04177              -1.00    -3200.00
04178              -0.20    -3200.00
04179              -0.60    -3000.00
04180              -1.00    -2800.00
04181              -0.60    -2800.00
04182              -0.60    -2600.00
04183              -1.00    -2600.00
04184              -0.40    -2400.00
04185              -0.60    -2400.00
04186              -1.20    -2200.00
04187              -0.40    -2200.00
04188              -0.40    -2000.00
04189              -1.20    -1800.00
04190              -0.60    -1800.00
04191              -0.20    -1600.00
04192              -0.60    -1400.00
04193              -0.60    -1200.00
04194              -0.60    -1200.00
04195              -0.60    -1200.00
04196              -0.60    -1000.00
04197              -0.40     -800.00
04198              -0.60     -800.00
04199              -0.60     -600.00
04200              -0.60     -400.00
04201              -0.40     -400.00
04202              -0.40     -400.00
04203              -0.80     -200.00
04204              -0.20        0.00
04205               0.20        0.00
04206               0.20        0.00
04207               0.80      400.00
04208              -0.40      400.00
04209              -0.80      600.00
04210               0.40      800.00
04211               0.00      800.00
04212              -0.40     1200.00
04213               5.40     1200.00
04214              16.20     1400.00
04215              -9.20     1600.00
04216             -25.00     1400.00
04217             -14.20     1600.00
04218              25.00     2000.00
04219              21.80     2000.00
04220             -25.00     1800.00
04221              13.80     2200.00
04222              25.00     2400.00
04223             -25.00     2200.00
04224             -25.00     2800.00
04225              25.00     2400.00
04226              25.00     2400.00
04227             -25.00     3000.00
04228              25.00     3000.00
04229              25.00     3200.00
04230             -25.00     3200.00
04231              -2.20     3600.00
04232              25.00     3200.00
04233             -25.00     3600.00
04234             -25.00     4000.00
04235              25.00     3600.00
04236              25.00     4000.00
04237             -25.00     4200.00
04238             -25.00     4000.00
04239              25.00     4000.00
04240              25.00     4600.00
04241             -25.00     4600.00
04242              13.80     4400.00
04243              25.00     4800.00
04244             -25.00     4800.00
04245             -25.00     4800.00
04246              25.00     5000.00
04247             -14.00     5400.00
04248             -25.00     5200.00
04249              25.00     5400.00
04250              21.20     5400.00
04251             -25.00     5600.00
04252              15.80     5600.00
04253              25.00     5800.00
04254             -25.00     6000.00
04255              -7.60     6000.00
04256              25.00     6000.00
04257             -12.00     6200.00
04258             -15.60     6200.00
04259              16.60     6200.00
04260               3.80     6400.00
04261             -12.80     6400.00
04262               3.60     6400.00
04263               9.20     6800.00
04264              -5.20     6800.00
04265              -5.00     6600.00
04266               8.60     6800.00
04267               2.60     7000.00
04268              -9.00     7000.00
04269               3.80     7200.00
04270               8.60     7200.00
04271              -8.20     7200.00
04272              -2.60     7200.00
04273              11.00     7400.00
04274              -3.00     7400.00
04275              -6.20     7600.00
04276               8.60     7600.00
04277               1.40     7600.00
04278              -6.60     7800.00
04279               4.40     7800.00
04280               5.00     7800.00
04281              -5.40     8200.00
04282               0.40     7800.00
04283               5.80     8000.00
04284              -1.80     8200.00
04285              -2.00     8200.00
04286               3.80     8200.00
04287               2.20     8200.00
04288              -1.40     8400.00
04289               1.00     8400.00
04290               2.60     8400.00
04291              -0.60     8400.00
04292              -0.40     8200.00
04293               2.80     8600.00
04294               1.00     8400.00
04295              -1.20     8400.00
04296               2.20     8600.00
04297               2.20     8400.00
04298              -1.00     8600.00
04299               0.60     8800.00
04300               2.60     8600.00
04301               0.20     8600.00
04302               0.40     8600.00
04303               1.40     8800.00
04304               0.20     8600.00
04305               1.00     8600.00
04306               1.40     8600.00
04307               0.40     8600.00
04308               0.60     8600.00
04309               1.00     8600.00
04310               0.40     8600.00
04311               0.60     8600.00
04312               1.00     8800.00
04313               1.00     8600.00
04314               1.00     8600.00
04315               1.00     8400.00
04316               0.40     8600.00
04317               0.60     8600.00
04318               0.40     8400.00
04319               0.60     8600.00
04320               1.00     8600.00
04321               1.00     8400.00
04322               0.20     8400.00
04323               1.20     8600.00
04324               1.00     8600.00
04325              -0.60     8400.00
04326               0.60     8400.00
04327               1.20     8400.00
04328               0.40     8400.00
04329               1.00     8400.00
04330               1.40     8400.00
04331              -0.20     8400.00
04332               0.20     8200.00
04333               1.20     8200.00
04334               0.40     8000.00
04335              -0.60     8200.00
04336               1.00     8000.00
04337               1.00     7800.00
04338               0.20     8200.00
04339               0.20     7800.00
04340               1.20     7800.00
04341               0.40     7800.00
04342               0.20     7600.00
04343               1.20     7600.00
04344               1.00     7600.00
04345              -0.20     7600.00
04346               1.00     7600.00
04347               1.20     7400.00
04348              -0.40     7200.00
04349               0.20     7200.00
04350               1.40     7200.00
04351               0.60     7200.00
04352               0.00     7000.00
04353               1.00     7000.00
04354               0.40     7000.00
04355               0.40     6800.00
04356               0.60     6600.00
04357               0.60     6800.00
04358               0.40     6600.00
04359               0.60     6400.00
04360               0.60     6400.00
04361               0.40     6400.00
04362               0.20     6200.00
04363               0.40     6200.00
04364               0.60     6200.00
04365               0.20     6000.00
04366               0.40     6000.00
04367               0.60     6000.00
04368               0.20     5600.00
04369               0.20     5600.00
04370               0.60     5600.00
04371               0.40     5400.00
04372              -0.20     5400.00
04373               0.40     5000.00
04374               1.00     5000.00
04375               0.20     5000.00
04376               0.20     4800.00
04377               0.60     4800.00
04378               0.20     4600.00
04379              -0.20     4600.00
04380               0.40     4400.00
04381              -0.20     4400.00
04382               0.20     4400.00
04383               0.40     4200.00
04384               0.00     4000.00
04385              -0.20     3800.00
04386              -0.20     4000.00
04387               0.00     3600.00
04388               0.40     3600.00
04389               0.20     3600.00
04390              -0.20     3400.00
04391               0.20     3200.00
04392               0.20     3200.00
04393               0.00     3000.00
04394              -0.20     3000.00
04395              -0.40     2800.00
04396              -0.20     2400.00
04397               0.20     2400.00
04398              -0.20     2400.00
04399              -0.20     2200.00
04400              -0.20     2000.00
04401              -0.40     2000.00
04402              -0.20     2000.00
04403              -0.20     1800.00
04404              -0.20     1600.00
04405               0.20     1600.00
04406              -0.20     1400.00
04407              -0.20     1400.00
04408               0.20     1000.00
04409              -0.20     1200.00
04410              -0.60      800.00
04411               0.40      800.00
04412              -0.40      600.00
04413              -1.00      400.00
04414              -0.20      400.00
04415              -0.20      200.00
04416               0.20        0.00
04417              -0.60        0.00
04418              -0.60     -200.00
04419               1.20     -200.00
04420              -0.20     -200.00
04421               0.20     -400.00
04422               0.20     -600.00
04423              -1.40     -800.00
04424               1.00     -800.00
04425              -0.40    -1000.00
04426               2.20    -1000.00
04427              21.80    -1200.00
04428              -7.40    -1600.00
04429             -25.00    -1800.00
04430             -17.20    -1200.00
04431              25.00    -1600.00
04432              23.00    -2000.00
04433             -25.00    -2000.00
04434              25.00    -1800.00
04435              25.00    -2400.00
04436             -25.00    -2600.00
04437             -25.00    -2000.00
04438              25.00    -2800.00
04439              25.00    -2800.00
04440             -25.00    -2600.00
04441              25.00    -3200.00
04442              25.00    -3400.00
04443             -25.00    -3200.00
04444             -25.00    -3400.00
04445              25.00    -3600.00
04446             -25.00    -3600.00
04447             -25.00    -3600.00
04448              25.00    -4200.00
04449              25.00    -4000.00
04450             -18.00    -4000.00
04451             -25.00    -4200.00
04452              25.00    -4400.00
04453              25.00    -4400.00
04454             -25.00    -4400.00
04455              23.60    -4600.00
04456              25.00    -4800.00
04457             -25.00    -4600.00
04458             -19.40    -5000.00
04459              25.00    -5000.00
04460             -25.00    -5000.00
04461             -25.00    -5200.00
04462              25.00    -5400.00
04463              16.20    -5400.00
04464             -25.00    -5600.00
04465              11.00    -5800.00
04466              25.00    -5800.00
04467             -25.00    -5800.00
04468             -11.00    -6000.00
04469              25.00    -6200.00
04470             -21.00    -6200.00
04471             -15.60    -6400.00
04472              19.60    -6400.00
04473              -0.20    -6400.00
04474             -15.00    -6600.00
04475               1.80    -6600.00
04476              11.00    -6800.00
04477             -10.40    -6800.00
04478              -7.60    -6800.00
04479              12.20    -6800.00
04480              -3.20    -7200.00
04481             -11.80    -7200.00
04482               6.80    -7200.00
04483               6.60    -7200.00
04484             -13.80    -7200.00
04485              -2.00    -7400.00
04486              14.00    -7400.00
04487             -11.00    -7400.00
04488              -8.20    -7400.00
04489              13.00    -7600.00
04490              -4.40    -7600.00
04491             -10.80    -8000.00
04492               6.60    -7800.00
04493               3.00    -7600.00
04494             -10.60    -8000.00
04495               0.20    -7800.00
04496               6.80    -8200.00
04497              -6.80    -8000.00
04498              -4.60    -8200.00
04499               5.00    -8200.00
04500              -1.00    -8200.00
04501              -5.40    -8200.00
04502               0.40    -8400.00
04503               1.00    -8400.00
04504              -3.80    -8200.00
04505              -2.00    -8600.00
04506               1.20    -8400.00
04507              -1.80    -8400.00
04508              -3.80    -8400.00
04509               0.40    -8600.00
04510              -0.20    -8400.00
04511              -3.60    -8600.00
04512              -1.80    -8600.00
04513               0.20    -8800.00
04514              -1.20    -8800.00
04515              -2.40    -8800.00
04516              -1.20    -8600.00
04517              -1.00    -8800.00
04518              -1.60    -8800.00
04519              -1.80    -8600.00
04520              -1.80    -8800.00
04521              -1.20    -8600.00
04522              -1.20    -8800.00
04523              -2.00    -8800.00
04524              -1.20    -8800.00
04525              -1.20    -8800.00
04526              -2.20    -8800.00
04527              -1.20    -8800.00
04528              -0.60    -8800.00
04529              -2.00    -8800.00
04530              -2.20    -8600.00
04531              -1.00    -8800.00
04532              -0.60    -8600.00
04533              -2.00    -8800.00
04534              -1.80    -8800.00
04535              -1.20    -8600.00
04536              -0.80    -8600.00
04537              -2.00    -8400.00
04538              -1.60    -8400.00
04539              -0.80    -8400.00
04540              -1.80    -8400.00
04541              -1.80    -8400.00
04542              -1.00    -8400.00
04543              -1.60    -8400.00
04544              -1.40    -8400.00
04545              -1.00    -8200.00
04546              -0.60    -8200.00
04547              -2.00    -8200.00
04548              -1.40    -8200.00
04549              -0.60    -8000.00
04550              -1.40    -8200.00
04551              -1.40    -8000.00
04552              -0.60    -8000.00
04553              -1.20    -8000.00
04554              -2.20    -7800.00
04555              -1.20    -8000.00
04556              -0.20    -7600.00
04557              -1.40    -7800.00
04558              -1.60    -7600.00
04559              -0.40    -7400.00
04560              -0.40    -7600.00
04561              -2.20    -7400.00
04562              -2.00    -7400.00
04563              -0.60    -7200.00
04564              -0.80    -7200.00
04565              -0.40    -7200.00
04566              -0.60    -7000.00
04567              -2.20    -7000.00
04568              -0.60    -6800.00
04569              -0.60    -6800.00
04570              -1.80    -6800.00
04571              -1.20    -6800.00
04572              -0.40    -6600.00
04573              -1.40    -6400.00
04574              -0.60    -6600.00
04575              -1.20    -6400.00
04576              -2.20    -6200.00
04577              -1.00    -6000.00
04578              -0.60    -6000.00
04579              -1.20    -6000.00
04580              -1.20    -6000.00
04581              -0.60    -5800.00
04582              -0.40    -5800.00
04583              -1.20    -5600.00
04584              -1.80    -5600.00
04585              -1.20    -5600.00
04586              -1.00    -5400.00
04587              -1.20    -5200.00
04588              -0.60    -5000.00
04589              -0.60    -5000.00
04590              -1.00    -5000.00
04591              -0.40    -4600.00
04592              -1.00    -4600.00
04593              -1.20    -4600.00
04594              -0.60    -4400.00
04595              -1.20    -4400.00
04596              -0.60    -4400.00
04597              -0.40    -4200.00
04598              -1.20    -4000.00
04599              -1.60    -4000.00
04600              -1.20    -3600.00
04601               0.20    -3600.00
04602              -1.20    -3600.00
04603              -1.20    -3400.00
04604               0.60    -3400.00
04605              -0.40    -3200.00
04606              -2.20    -3200.00
04607              -0.20    -3000.00
04608               0.60    -2800.00
04609              -2.00    -2600.00
04610              -1.00    -2600.00
04611               0.20    -2600.00
04612              -0.60    -2400.00
04613               0.20    -2400.00
04614              -0.20    -2000.00
04615              -1.40    -2000.00
04616              -0.60    -1800.00
04617              -0.40    -1800.00
04618              -1.20    -1600.00
04619               0.20    -1600.00
04620               0.60    -1200.00
04621              -1.00    -1200.00
04622              -1.00    -1200.00
04623               0.20    -1200.00
04624               0.00     -800.00
04625              -0.40     -800.00
04626              -0.40     -800.00
04627               0.20     -600.00
04628              -0.40     -400.00
04629              -1.20     -200.00
04630              -0.40        0.00
04631               0.40        0.00
04632               0.40        0.00
04633               0.40      200.00
04634               1.00      200.00
04635              -0.60      400.00
04636              -1.40      600.00
04637               0.40      800.00
04638               1.20      800.00
04639              -0.40      800.00
04640               2.60     1200.00
04641              14.60     1400.00
04642               3.00     1600.00
04643             -25.00     1400.00
04644             -25.00     1600.00
04645              25.00     1800.00
04646              25.00     2000.00
04647             -25.00     1800.00
04648             -25.00     2200.00
04649              25.00     2200.00
04650              25.00     2200.00
04651             -25.00     2400.00
04652              25.00     2800.00
04653              25.00     2800.00
04654             -25.00     2800.00
04655             -25.00     3200.00
04656              25.00     3000.00
04657             -25.00     3000.00
04658             -25.00     3600.00
04659              25.00     3400.00
04660              18.60     3400.00
04661             -25.00     3800.00
04662              13.60     3600.00
04663              25.00     4000.00
04664              -9.00     4200.00
04665             -25.00     4000.00
04666              21.20     4000.00
04667              25.00     4400.00
04668             -25.00     4400.00
04669             -25.00     4600.00
04670              25.00     4600.00
04671              -8.60     4800.00
04672             -25.00     4800.00
04673              25.00     4800.00
04674              25.00     5200.00
04675             -25.00     5200.00
04676              15.40     5600.00
04677              25.00     5400.00
04678             -25.00     5600.00
04679             -16.40     5600.00
04680              25.00     5800.00
04681             -14.00     6000.00
04682             -25.00     6200.00
04683              25.00     6000.00
04684               7.60     6200.00
04685             -24.40     6200.00
04686              10.60     6200.00
04687              13.40     6400.00
04688             -12.40     6400.00
04689              -2.80     6400.00
04690              10.60     6800.00
04691              -0.40     6800.00
04692              -8.20     6800.00
04693               5.40     6800.00
04694               7.20     7000.00
04695              -7.60     7000.00
04696              -1.40     7000.00
04697              10.60     7200.00
04698              -3.00     7200.00
04699              -7.60     7200.00
04700              10.20     7200.00
04701               2.80     7600.00
04702              -9.00     7600.00
04703               5.00     7600.00
04704               6.20     7600.00
04705              -6.80     7600.00
04706               0.20     7800.00
04707               7.40     7800.00
04708              -3.40     7800.00
04709              -2.80     8000.00
04710               5.80     8200.00
04711               1.00     8000.00
04712              -3.80     8200.00
04713               2.40     8200.00
04714               3.40     8200.00
04715              -1.60     8400.00
04716              -0.40     8200.00
04717               2.80     8400.00
04718               0.40     8200.00
04719              -1.20     8400.00
04720               1.80     8400.00
04721               1.80     8400.00
04722              -1.40     8600.00
04723               0.60     8400.00
04724               2.80     8600.00
04725              -0.60     8600.00
04726              -0.60     8600.00
04727               2.00     8600.00
04728               1.00     8600.00
04729              -0.40     8600.00
04730               0.80     8800.00
04731               1.00     8600.00
04732               1.00     8600.00
04733               1.00     8600.00
04734               0.60     8600.00
04735               0.60     8800.00
04736               1.00     8600.00
04737               0.40     8800.00
04738               0.60     8600.00
04739               1.00     8600.00
04740               1.00     8600.00
04741               0.00     8800.00
04742               1.60     8600.00
04743               1.20     8600.00
04744              -0.60     8600.00
04745               0.40     8600.00
04746               2.40     8600.00
04747               0.60     8600.00
04748              -0.20     8600.00
04749               1.40     8600.00
04750               0.80     8600.00
04751               0.40     8600.00
04752               0.00     8400.00
04753               1.20     8600.00
04754               1.00     8400.00
04755               1.00     8400.00
04756               1.00     8400.00
04757               1.00     8400.00
04758               0.60     8200.00
04759              -0.20     8400.00
04760               1.20     8200.00
04761               1.20     8200.00
04762              -0.40     8200.00
04763               1.20     8000.00
04764               2.20     8000.00
04765               0.60     7800.00
04766               0.20     8200.00
04767               0.40     7800.00
04768               0.60     7800.00
04769               0.40     7800.00
04770               0.40     7600.00
04771               1.20     7600.00
04772               0.40     7600.00
04773              -0.20     7600.00
04774               1.40     7400.00
04775               1.00     7400.00
04776              -0.60     7400.00
04777               0.60     7200.00
04778               1.40     7200.00
04779              -0.20     7000.00
04780               0.40     7000.00
04781               0.60     6800.00
04782               0.20     6800.00
04783               0.40     6800.00
04784               0.40     6800.00
04785               0.40     6600.00
04786               0.40     6400.00
04787               0.40     6400.00
04788               0.60     6200.00
04789               0.40     6200.00
04790              -0.20     6200.00
04791               0.40     6000.00
04792               0.40     6000.00
04793               0.40     6000.00
04794               0.60     6000.00
04795               0.40     5800.00
04796               0.60     5600.00
04797               0.20     5600.00
04798               0.20     5400.00
04799               0.40     5400.00
04800               0.00     5200.00
04801               0.40     5200.00
04802               1.00     5000.00
04803               0.40     5000.00
04804               0.20     4800.00
04805               0.20     4800.00
04806               0.20     4400.00
04807               0.20     4400.00
04808               0.40     4400.00
04809               0.40     4000.00
04810               0.40     4000.00
04811               0.40     4000.00
04812               0.20     4000.00
04813               0.20     3800.00
04814               0.20     3800.00
04815               0.20     3600.00
04816               0.20     3400.00
04817               0.20     3400.00
04818               0.20     3200.00
04819               0.20     3200.00
04820               0.40     3000.00
04821              -0.20     3000.00
04822              -0.20     2800.00
04823               0.40     2800.00
04824               0.40     2400.00
04825               0.20     2400.00
04826               0.20     2400.00
04827               0.20     2200.00
04828              -0.40     2000.00
04829               0.00     1800.00
04830               0.20     2000.00
04831              -0.40     1600.00
04832              -0.20     1800.00
04833               0.20     1400.00
04834              -0.40     1400.00
04835              -0.60     1200.00
04836              -0.20     1200.00
04837              -0.20      800.00
04838               0.20      800.00
04839              -0.20      800.00
04840              -0.60      400.00
04841              -0.40      400.00
04842              -0.40      400.00
04843              -0.20        0.00
04844              -0.80        0.00
04845              -0.40        0.00
04846               0.20     -200.00
04847               0.20     -400.00
04848               0.40     -400.00
04849              -0.60     -600.00
04850              -0.60     -800.00
04851               0.20     -800.00
04852              -0.40    -1000.00
04853               0.20    -1000.00
04854              14.60    -1200.00
04855              10.60    -1600.00
04856             -25.00    -1800.00
04857             -25.00    -1600.00
04858              25.00    -1600.00
04859              25.00    -1800.00
04860             -25.00    -2400.00
04861             -25.00    -1600.00
04862              25.00    -2200.00
04863              25.00    -2600.00
04864             -25.00    -2200.00
04865              25.00    -2600.00
04866              25.00    -2800.00
04867             -25.00    -2800.00
04868             -25.00    -2600.00
04869              25.00    -3400.00
04870              13.80    -3200.00
04871             -25.00    -3000.00
04872              25.00    -3800.00
04873              19.80    -3400.00
04874             -25.00    -3400.00
04875              25.00    -4000.00
04876              25.00    -3800.00
04877               4.20    -4000.00
04878             -25.00    -4000.00
04879               4.20    -4200.00
04880              25.00    -4400.00
04881             -25.00    -4400.00
04882             -25.00    -4600.00
04883              25.00    -4800.00
04884             -19.80    -4600.00
04885             -25.00    -4800.00
04886              25.00    -5200.00
04887              17.80    -5000.00
04888             -25.00    -5200.00
04889              24.40    -5200.00
04890              25.00    -5400.00
04891             -25.00    -5600.00
04892             -21.00    -5600.00
04893              25.00    -5800.00
04894             -14.20    -5800.00
04895             -25.00    -6000.00
04896              25.00    -6000.00
04897               3.00    -6000.00
04898             -25.00    -6200.00
04899              14.00    -6200.00
04900              10.20    -6400.00
04901             -14.60    -6600.00
04902              -5.40    -6600.00
04903              11.00    -6600.00
04904              -2.00    -6600.00
04905             -13.40    -6800.00
04906               8.40    -6800.00
04907               4.40    -6800.00
04908             -13.00    -7000.00
04909              -0.60    -7200.00
04910              10.00    -7200.00
04911              -7.80    -7200.00
04912             -10.40    -7200.00
04913              13.20    -7400.00
04914              -1.40    -7400.00
04915             -15.40    -7400.00
04916               8.80    -7600.00
04917               4.20    -7600.00
04918             -13.40    -7800.00
04919               1.20    -8000.00
04920               8.20    -8000.00
04921              -8.40    -8000.00
04922              -6.20    -8000.00
04923               7.80    -8000.00
04924              -2.20    -8000.00
04925              -8.40    -8000.00
04926               3.40    -8200.00
04927               2.20    -8200.00
04928              -6.00    -8200.00
04929              -1.80    -8200.00
04930               2.60    -8400.00
04931              -3.00    -8400.00
04932              -3.80    -8400.00
04933               1.80    -8400.00
04934              -0.40    -8600.00
04935              -4.40    -8400.00
04936              -0.60    -8400.00
04937               1.20    -8400.00
04938              -3.00    -8600.00
04939              -2.60    -8400.00
04940               0.40    -8600.00
04941              -0.60    -8600.00
04942              -2.60    -8800.00
04943              -1.20    -8800.00
04944              -0.60    -8600.00
04945              -1.60    -8800.00
04946              -1.20    -8800.00
04947              -1.20    -8800.00
04948              -1.20    -8800.00
04949              -0.60    -8800.00
04950              -1.40    -8800.00
04951              -1.40    -8800.00
04952              -1.00    -8800.00
04953              -1.40    -8800.00
04954              -1.40    -8600.00
04955              -1.00    -8800.00
04956              -1.20    -8800.00
04957              -1.80    -8800.00
04958              -1.60    -8800.00
04959              -0.40    -8600.00
04960              -1.20    -8800.00
04961              -2.00    -8800.00
04962              -1.20    -8600.00
04963              -0.40    -8400.00
04964              -1.40    -8600.00
04965              -2.20    -8400.00
04966              -0.60    -8400.00
04967              -1.20    -8400.00
04968              -2.20    -8400.00
04969              -0.60    -8400.00
04970              -0.60    -8400.00
04971              -2.60    -8200.00
04972              -1.40    -8400.00
04973               0.20    -8200.00
04974              -1.40    -8200.00
04975              -2.60    -8200.00
04976              -0.80    -8200.00
04977              -0.60    -8000.00
04978              -2.20    -8000.00
04979              -1.80    -8000.00
04980              -0.60    -8000.00
04981              -1.00    -8000.00
04982              -1.80    -8000.00
04983              -1.00    -7800.00
04984              -1.80    -7600.00
04985              -2.60    -7600.00
04986              -0.60    -7400.00
04987               0.20    -7600.00
04988              -2.20    -7600.00
04989              -2.00    -7400.00
04990              -0.20    -7400.00
04991              -1.00    -7400.00
04992              -2.40    -7200.00
04993              -0.20    -7200.00
04994              -0.60    -7200.00
04995              -2.20    -7000.00
04996              -0.60    -6800.00
04997              -0.60    -6800.00
04998              -3.00    -6600.00
04999              -1.20    -6800.00
05000               0.40    -6600.00
