Unit:(mV)
                     CH1         CH2
Frequency              ? 234.088 kHz
00001              -1.80     5200.00
00002              15.60     5400.00
00003               9.00     5200.00
00004              -3.00     5400.00
00005               9.40     5400.00
00006              14.60     5400.00
00007              -0.40     5400.00
00008               3.60     5400.00
00009              15.80     5400.00
00010               5.80     5400.00
00011               0.60     5600.00
00012              12.40     5600.00
00013              10.80     5600.00
00014               1.40     5600.00
00015               8.60     5600.00
00016              13.00     5600.00
00017               4.60     5600.00
00018               6.20     5600.00
00019              13.00     5600.00
00020               8.20     5600.00
00021               4.80     5600.00
00022              10.60     5600.00
00023              10.80     5600.00
00024               6.00     5600.00
00025               8.40     5600.00
00026              11.60     5800.00
00027               9.40     6000.00
00028               7.60     5600.00
00029              10.60     6000.00
00030              10.00     6000.00
00031               8.20     5800.00
00032               9.80     5800.00
00033              10.80     5800.00
00034               9.00     6000.00
00035               9.40     5800.00
00036              10.60     5800.00
00037              10.00     5600.00
00038               9.00     5800.00
00039               9.80     6000.00
00040              10.00     6000.00
00041               9.40     5800.00
00042               9.40     5800.00
00043               9.80     5800.00
00044               9.40     5800.00
00045               9.00     5600.00
00046               9.20     5800.00
00047               9.00     5600.00
00048               8.20     5600.00
00049               8.60     5600.00
00050               9.20     5600.00
00051               8.40     5600.00
00052               7.80     5600.00
00053               7.40     5400.00
00054               7.40     5800.00
00055               8.20     5400.00
00056               7.40     5400.00
00057               7.00     5400.00
00058               7.60     5600.00
00059               7.00     5400.00
00060               7.00     5400.00
00061               6.60     5400.00
00062               6.60     5200.00
00063               6.80     5200.00
00064               6.80     5200.00
00065               6.60     5200.00
00066               6.60     5200.00
00067               5.80     5000.00
00068               5.80     5000.00
00069               6.20     5000.00
00070               5.20     5000.00
00071               5.00     5000.00
00072               6.00     4800.00
00073               5.20     4800.00
00074               5.00     4800.00
00075               5.20     4800.00
00076               5.00     4800.00
00077               5.20     4600.00
00078               4.40     4600.00
00079               4.60     4600.00
00080               5.00     4400.00
00081               3.60     4400.00
00082               3.40     4400.00
00083               5.40     4400.00
00084               4.20     4200.00
00085               2.60     4000.00
00086               5.20     4000.00
00087               4.60     4000.00
00088               2.60     4000.00
00089               3.60     4000.00
00090               4.40     3800.00
00091               2.60     4000.00
00092               3.00     4000.00
00093               4.20     3600.00
00094               2.60     3600.00
00095               2.20     3600.00
00096               3.60     3600.00
00097               3.40     3400.00
00098               2.20     3200.00
00099               2.80     3200.00
00100               3.40     3200.00
00101               2.80     3000.00
00102               2.00     3000.00
00103               2.00     3000.00
00104               2.60     2800.00
00105               2.20     2800.00
00106               2.20     2800.00
00107               2.80     2800.00
00108               2.00     2800.00
00109               1.80     2600.00
00110               2.60     2600.00
00111               2.20     2400.00
00112               1.20     2400.00
00113               1.40     2200.00
00114               2.00     2000.00
00115               1.20     2200.00
00116               0.60     2000.00
00117               1.40     2200.00
00118               1.60     2000.00
00119               1.20     2000.00
00120               1.80     1600.00
00121               1.80     1800.00
00122               1.40     1400.00
00123               1.00     1400.00
00124               1.20     1400.00
00125               1.00     1200.00
00126               0.20     1200.00
00127               0.40     1200.00
00128               1.20     1000.00
00129               0.40      800.00
00130               0.40      800.00
00131               0.60      600.00
00132               0.60      600.00
00133               0.00      600.00
00134               0.20      400.00
00135               0.20      400.00
00136              -0.40      400.00
00137              -0.20      400.00
00138               0.20        0.00
00139              -0.20        0.00
00140              -0.60        0.00
00141              -0.20     -200.00
00142              -0.20     -200.00
00143              -0.20     -200.00
00144               0.20     -200.00
00145              -0.40     -200.00
00146              -0.60     -600.00
00147              -0.80     -600.00
00148              -0.20     -600.00
00149               8.20     -800.00
00150              10.00    -1000.00
00151             -25.00    -1000.00
00152             -19.80     -800.00
00153              25.00    -1000.00
00154              17.80    -1400.00
00155             -25.00    -1400.00
00156              -1.80    -1200.00
00157              25.00    -1600.00
00158             -20.20    -1800.00
00159             -25.00    -1600.00
00160              25.00    -1600.00
00161              25.00    -1800.00
00162             -25.00    -2000.00
00163             -25.00    -1800.00
00164              25.00    -2000.00
00165              25.00    -2400.00
00166             -25.00    -2000.00
00167              25.00    -2400.00
00168              25.00    -2600.00
00169             -25.00    -2400.00
00170             -25.00    -2400.00
00171              25.00    -2600.00
00172             -11.00    -2800.00
00173             -25.00    -2600.00
00174              25.00    -2800.00
00175              25.00    -3000.00
00176             -25.00    -2800.00
00177             -11.60    -3200.00
00178              25.00    -3200.00
00179             -25.00    -3200.00
00180             -25.00    -3200.00
00181              25.00    -3200.00
00182              25.00    -3400.00
00183             -25.00    -3400.00
00184             -20.60    -3600.00
00185              25.00    -3600.00
00186             -24.20    -3600.00
00187             -25.00    -3600.00
00188              25.00    -3800.00
00189              21.20    -4000.00
00190             -25.00    -4000.00
00191              15.80    -4200.00
00192              25.00    -4000.00
00193             -25.00    -4000.00
00194             -16.20    -4200.00
00195              25.00    -4200.00
00196             -13.20    -4200.00
00197             -25.00    -4400.00
00198              12.20    -4200.00
00199              10.60    -4400.00
00200             -25.00    -4400.00
00201              -7.40    -4600.00
00202              18.20    -4800.00
00203             -17.60    -4600.00
00204             -19.00    -4800.00
00205              14.20    -4600.00
00206              -6.60    -4800.00
00207             -23.00    -4800.00
00208               5.00    -5000.00
00209               2.00    -5000.00
00210             -19.60    -5000.00
00211              -7.00    -5000.00
00212               5.40    -5200.00
00213             -11.80    -5200.00
00214             -15.40    -5200.00
00215               3.00    -5200.00
00216              -4.40    -5200.00
00217             -18.80    -5200.00
00218              -2.80    -5600.00
00219               1.20    -5400.00
00220             -16.40    -5400.00
00221             -10.20    -5600.00
00222               1.80    -5600.00
00223             -10.00    -5600.00
00224             -15.40    -5600.00
00225              -3.00    -5600.00
00226              -3.80    -5600.00
00227             -14.80    -5600.00
00228              -8.60    -5600.00
00229              -2.80    -5600.00
00230             -11.40    -5600.00
00231             -12.40    -5800.00
00232              -4.40    -5800.00
00233              -7.60    -5600.00
00234             -14.00    -5800.00
00235              -8.20    -5800.00
00236              -5.20    -5800.00
00237             -12.20    -5800.00
00238             -12.00    -5800.00
00239              -6.20    -5800.00
00240              -9.00    -5800.00
00241             -13.00    -5800.00
00242              -9.20    -5800.00
00243              -8.20    -5800.00
00244             -11.40    -6000.00
00245             -10.80    -5800.00
00246              -8.20    -5800.00
00247             -10.00    -6000.00
00248             -11.80    -6000.00
00249             -10.00    -6000.00
00250              -9.00    -5800.00
00251             -10.60    -5800.00
00252             -11.00    -6000.00
00253              -9.40    -5800.00
00254              -9.20    -6000.00
00255             -10.60    -6000.00
00256             -10.60    -5800.00
00257              -9.20    -5800.00
00258              -9.20    -5800.00
00259             -10.20    -5800.00
00260              -9.40    -5800.00
00261              -8.40    -5800.00
00262              -9.80    -5800.00
00263              -9.60    -5600.00
00264              -8.00    -5800.00
00265              -9.00    -5600.00
00266              -9.20    -5600.00
00267              -7.80    -5600.00
00268              -7.60    -5600.00
00269              -9.00    -5600.00
00270              -8.40    -5600.00
00271              -7.60    -5600.00
00272              -8.20    -5600.00
00273              -7.60    -5600.00
00274              -7.00    -5400.00
00275              -7.60    -5400.00
00276              -7.80    -5400.00
00277              -5.60    -5200.00
00278              -6.60    -5200.00
00279              -9.20    -5200.00
00280              -5.20    -5000.00
00281              -6.00    -5200.00
00282              -8.60    -5200.00
00283              -5.80    -5000.00
00284              -4.40    -5000.00
00285              -7.80    -5000.00
00286              -6.00    -5000.00
00287              -5.00    -4600.00
00288              -7.00    -4600.00
00289              -6.20    -4800.00
00290              -4.20    -4600.00
00291              -6.00    -4400.00
00292              -6.00    -4600.00
00293              -4.40    -4600.00
00294              -4.60    -4400.00
00295              -5.80    -4400.00
00296              -4.60    -4400.00
00297              -4.20    -4200.00
00298              -5.40    -4400.00
00299              -5.60    -4200.00
00300              -3.80    -4200.00
00301              -3.80    -4000.00
00302              -5.20    -4000.00
00303              -4.40    -4000.00
00304              -3.20    -4000.00
00305              -4.60    -4000.00
00306              -4.80    -3800.00
00307              -3.40    -3600.00
00308              -3.80    -3600.00
00309              -3.80    -3600.00
00310              -3.40    -3400.00
00311              -3.40    -3400.00
00312              -3.60    -3400.00
00313              -3.20    -3400.00
00314              -2.80    -3400.00
00315              -3.80    -3200.00
00316              -2.80    -3000.00
00317              -2.60    -3200.00
00318              -3.40    -3000.00
00319              -3.00    -2800.00
00320              -2.40    -2800.00
00321              -2.80    -2600.00
00322              -2.80    -2600.00
00323              -1.80    -2600.00
00324              -2.80    -2400.00
00325              -3.00    -2600.00
00326              -1.80    -2400.00
00327              -2.00    -2400.00
00328              -2.60    -2200.00
00329              -1.80    -2200.00
00330              -1.80    -2000.00
00331              -2.80    -2000.00
00332              -2.60    -2000.00
00333              -1.00    -1800.00
00334              -2.20    -1600.00
00335              -2.80    -1600.00
00336              -0.40    -1600.00
00337              -1.40    -1600.00
00338              -3.40    -1400.00
00339              -1.00    -1200.00
00340              -0.40    -1200.00
00341              -2.60    -1200.00
00342              -1.20    -1000.00
00343               0.60    -1000.00
00344              -2.20    -1000.00
00345              -2.20     -800.00
00346               1.00     -800.00
00347              -0.40     -600.00
00348              -3.00     -600.00
00349              -0.60     -400.00
00350               0.80     -400.00
00351              -1.20     -400.00
00352              -2.00     -200.00
00353               0.20     -200.00
00354               0.60        0.00
00355              -1.00        0.00
00356              -0.40      200.00
00357               1.40        0.00
00358               0.40      400.00
00359              -1.20      400.00
00360               0.40      600.00
00361               1.00      600.00
00362               0.40      600.00
00363               5.80      600.00
00364              13.00      800.00
00365             -19.80      800.00
00366             -25.00      800.00
00367              25.00     1000.00
00368              25.00     1200.00
00369             -25.00     1000.00
00370             -25.00     1400.00
00371              25.00     1400.00
00372              25.00     1600.00
00373             -25.00     1600.00
00374              12.20     1800.00
00375              25.00     1800.00
00376             -25.00     1600.00
00377             -25.00     2000.00
00378              25.00     2000.00
00379              25.00     2000.00
00380             -25.00     2200.00
00381              22.80     2200.00
00382              25.00     2400.00
00383             -25.00     2400.00
00384             -25.00     2800.00
00385              25.00     2400.00
00386              25.00     2400.00
00387             -25.00     2800.00
00388              25.00     2800.00
00389              25.00     2800.00
00390             -25.00     3000.00
00391             -25.00     3000.00
00392              25.00     3000.00
00393               5.40     3200.00
00394             -25.00     3200.00
00395              25.00     3200.00
00396              25.00     3200.00
00397             -25.00     3600.00
00398             -15.80     3600.00
00399              25.00     3600.00
00400             -10.60     3800.00
00401             -25.00     3600.00
00402              25.00     3600.00
00403              25.00     3800.00
00404             -25.00     3800.00
00405               9.00     3800.00
00406              25.00     4000.00
00407             -25.00     4000.00
00408             -20.60     4000.00
00409              25.00     4000.00
00410               5.40     4200.00
00411             -25.00     4400.00
00412              20.40     4400.00
00413              25.00     4400.00
00414             -21.40     4600.00
00415               0.20     4400.00
00416              25.00     4600.00
00417              -5.00     4600.00
00418             -11.80     4600.00
00419              23.60     4800.00
00420              10.60     4600.00
00421             -14.20     4800.00
00422              12.20     4800.00
00423              19.40     5000.00
00424              -7.40     5000.00
00425               0.40     5000.00
00426              20.40     5000.00
00427               3.40     4800.00
00428              -5.20     5200.00
00429              15.00     5400.00
00430              11.80     5200.00
00431              -4.40     5400.00
00432               7.80     5200.00
00433              16.40     5400.00
00434               1.00     5400.00
00435               1.80     5400.00
00436              15.40     5400.00
00437               8.40     5600.00
00438              -0.20     5600.00
00439              10.20     5600.00
00440              13.00     5600.00
00441               3.00     5600.00
00442               6.00     5600.00
00443              13.20     5600.00
00444               7.40     5600.00
00445               4.20     5600.00
00446              11.60     5800.00
00447              10.80     5600.00
00448               4.80     6000.00
00449               9.00     5600.00
00450              12.60     5800.00
00451               7.60     5600.00
00452               6.60     5800.00
00453              11.60     5600.00
00454              10.20     5600.00
00455               7.40     5800.00
00456              10.00     5600.00
00457              10.80     6000.00
00458               8.60     5600.00
00459               9.20     5800.00
00460              10.80     5800.00
00461               9.40     6000.00
00462               8.80     5800.00
00463               9.80     5600.00
00464              10.20     5800.00
00465               9.20     5800.00
00466               9.00     5800.00
00467               9.80     5600.00
00468              10.00     5800.00
00469               9.40     5800.00
00470               9.20     5600.00
00471               9.00     5600.00
00472               8.80     5600.00
00473               9.00     5800.00
00474               8.60     5600.00
00475               8.40     5600.00
00476               8.60     5600.00
00477               8.40     5600.00
00478               8.20     5600.00
00479               8.00     5600.00
00480               7.00     5600.00
00481               7.00     5600.00
00482               8.40     5400.00
00483               7.20     5600.00
00484               7.00     5400.00
00485               7.20     5600.00
00486               7.00     5600.00
00487               6.80     5400.00
00488               6.60     5600.00
00489               6.20     5400.00
00490               6.80     5200.00
00491               6.20     5400.00
00492               6.60     5200.00
00493               6.60     5000.00
00494               5.40     5200.00
00495               5.80     5000.00
00496               6.40     5000.00
00497               5.40     5000.00
00498               5.00     4800.00
00499               5.80     4800.00
00500               5.80     4800.00
00501               5.20     4800.00
00502               5.60     4800.00
00503               4.60     4800.00
00504               4.40     4800.00
00505               5.80     4600.00
00506               5.00     4600.00
00507               3.60     4600.00
00508               5.00     4400.00
00509               5.40     4600.00
00510               3.40     4400.00
00511               3.40     4400.00
00512               5.80     4200.00
00513               3.80     4000.00
00514               3.40     4000.00
00515               4.20     4000.00
00516               4.60     3800.00
00517               3.40     4000.00
00518               2.20     3800.00
00519               5.40     3800.00
00520               3.00     3600.00
00521               1.80     3600.00
00522               5.00     3600.00
00523               3.00     3600.00
00524               1.40     3600.00
00525               3.00     3400.00
00526               5.00     3200.00
00527               1.40     3200.00
00528               0.60     3200.00
00529               5.20     3000.00
00530               2.80     3000.00
00531               0.40     2800.00
00532               2.60     2800.00
00533               4.20     2800.00
00534               1.20     2800.00
00535              -0.60     2800.00
00536               4.80     2600.00
00537               3.40     2600.00
00538              -1.40     2400.00
00539               2.20     2400.00
00540               4.40     2200.00
00541              -1.00     2200.00
00542               0.00     2200.00
00543               4.20     2000.00
00544               1.40     2000.00
00545              -0.60     1800.00
00546               3.00     1800.00
00547               2.00     1600.00
00548              -1.40     1800.00
00549               1.00     1600.00
00550               2.80     1600.00
00551               0.40     1800.00
00552               0.40     1200.00
00553               2.00     1200.00
00554               1.00     1000.00
00555              -0.60     1000.00
00556               0.80      800.00
00557               0.80      800.00
00558               0.20      600.00
00559               0.40      600.00
00560               0.60      600.00
00561               0.20      600.00
00562              -0.40      400.00
00563               0.40      400.00
00564               0.40      400.00
00565              -0.40      200.00
00566               0.20        0.00
00567               0.40        0.00
00568              -0.60        0.00
00569              -0.60     -200.00
00570               0.60     -200.00
00571               0.20     -400.00
00572              -0.60     -400.00
00573              -0.60     -400.00
00574               0.40     -600.00
00575              -0.60     -800.00
00576               4.40     -800.00
00577              14.60     -800.00
00578             -25.00    -1000.00
00579             -25.00     -800.00
00580              25.00    -1000.00
00581              25.00    -1200.00
00582             -25.00    -1600.00
00583             -25.00    -1000.00
00584              25.00    -1400.00
00585              18.20    -1600.00
00586             -25.00    -1200.00
00587              25.00    -1600.00
00588              25.00    -1800.00
00589             -25.00    -2000.00
00590             -25.00    -1800.00
00591              25.00    -2000.00
00592              25.00    -2200.00
00593             -25.00    -2000.00
00594              22.60    -2400.00
00595              25.00    -2400.00
00596             -25.00    -2400.00
00597             -25.00    -2400.00
00598              25.00    -2600.00
00599              25.00    -2800.00
00600             -25.00    -2600.00
00601              25.00    -3000.00
00602              25.00    -2800.00
00603             -25.00    -2800.00
00604             -25.00    -3200.00
00605              25.00    -3200.00
00606               5.20    -3200.00
00607             -25.00    -3200.00
00608              23.60    -3400.00
00609              25.00    -3400.00
00610             -25.00    -3400.00
00611             -25.00    -3400.00
00612              25.00    -3600.00
00613               3.60    -3600.00
00614             -25.00    -3600.00
00615              25.00    -3800.00
00616              25.00    -4000.00
00617             -25.00    -4000.00
00618              -4.40    -4000.00
00619              25.00    -4000.00
00620             -25.00    -4000.00
00621             -25.00    -4200.00
00622              25.00    -4200.00
00623              -2.20    -4200.00
00624             -25.00    -4200.00
00625               5.20    -4400.00
00626              16.20    -4400.00
00627             -23.40    -4400.00
00628             -15.00    -4400.00
00629              17.80    -4600.00
00630             -10.00    -4400.00
00631             -23.80    -4600.00
00632              11.00    -4600.00
00633               0.40    -4800.00
00634             -24.40    -4600.00
00635               0.40    -5000.00
00636               6.20    -5000.00
00637             -18.20    -5000.00
00638             -10.60    -5000.00
00639               6.20    -5000.00
00640              -8.60    -5000.00
00641             -17.00    -5200.00
00642               1.20    -5200.00
00643              -1.00    -5200.00
00644             -18.00    -5400.00
00645              -6.20    -5400.00
00646               3.40    -5600.00
00647             -14.00    -5400.00
00648             -13.40    -5600.00
00649               1.40    -5600.00
00650              -6.80    -5600.00
00651             -16.20    -5600.00
00652              -5.20    -5600.00
00653              -2.20    -5800.00
00654             -14.00    -5600.00
00655             -11.00    -5600.00
00656              -2.20    -5800.00
00657             -10.40    -5600.00
00658             -14.20    -5800.00
00659              -4.60    -5800.00
00660              -6.60    -5800.00
00661             -14.20    -5800.00
00662              -9.20    -5600.00
00663              -4.60    -5800.00
00664             -11.60    -5800.00
00665             -12.60    -5800.00
00666              -6.80    -5800.00
00667              -8.60    -6000.00
00668             -13.00    -6000.00
00669              -9.80    -6000.00
00670              -7.60    -5800.00
00671             -11.00    -5800.00
00672             -11.40    -6000.00
00673              -9.20    -5800.00
00674             -10.00    -5800.00
00675             -11.80    -5800.00
00676             -10.60    -5800.00
00677              -9.20    -5800.00
00678             -10.40    -6000.00
00679             -11.40    -5800.00
00680             -10.20    -6000.00
00681              -9.40    -5800.00
00682             -10.20    -5800.00
00683             -10.60    -6000.00
00684              -9.20    -5800.00
00685              -9.40    -5800.00
00686             -10.20    -5800.00
00687             -10.00    -5800.00
00688              -9.00    -5800.00
00689              -9.40    -5800.00
00690              -9.80    -5800.00
00691              -8.20    -5600.00
00692              -8.00    -5800.00
00693              -9.20    -5600.00
00694              -8.60    -5600.00
00695              -7.00    -5600.00
00696              -7.80    -5600.00
00697              -9.00    -5600.00
00698              -7.60    -5600.00
00699              -6.80    -5600.00
00700              -7.80    -5400.00
00701              -7.80    -5600.00
00702              -6.80    -5400.00
00703              -7.00    -5200.00
00704              -7.60    -5200.00
00705              -6.60    -5200.00
00706              -6.60    -5200.00
00707              -7.00    -5200.00
00708              -6.00    -5000.00
00709              -6.00    -5000.00
00710              -6.40    -5200.00
00711              -6.80    -5000.00
00712              -5.80    -5200.00
00713              -5.20    -5000.00
00714              -5.80    -5000.00
00715              -6.60    -4800.00
00716              -4.80    -4800.00
00717              -6.00    -4600.00
00718              -6.00    -4600.00
00719              -4.60    -4600.00
00720              -5.40    -4800.00
00721              -6.00    -4600.00
00722              -3.80    -4400.00
00723              -5.00    -4400.00
00724              -5.60    -4400.00
00725              -4.40    -4200.00
00726              -4.60    -4200.00
00727              -5.00    -4200.00
00728              -3.80    -4400.00
00729              -4.60    -4200.00
00730              -5.00    -4000.00
00731              -3.80    -4000.00
00732              -3.80    -3800.00
00733              -4.60    -3800.00
00734              -3.80    -3800.00
00735              -4.00    -3600.00
00736              -4.20    -3600.00
00737              -3.40    -3600.00
00738              -3.60    -3600.00
00739              -4.00    -3400.00
00740              -3.40    -3200.00
00741              -3.00    -3400.00
00742              -3.40    -3200.00
00743              -3.40    -3200.00
00744              -3.00    -3000.00
00745              -2.80    -3200.00
00746              -3.00    -2800.00
00747              -3.00    -2800.00
00748              -3.00    -2600.00
00749              -2.80    -2800.00
00750              -2.20    -2600.00
00751              -2.60    -2600.00
00752              -2.60    -2400.00
00753              -2.20    -2400.00
00754              -2.20    -2400.00
00755              -2.20    -2200.00
00756              -2.20    -2000.00
00757              -2.20    -2200.00
00758              -2.00    -2000.00
00759              -1.40    -2000.00
00760              -2.00    -1800.00
00761              -2.00    -1600.00
00762              -1.80    -1800.00
00763              -1.60    -1600.00
00764              -1.80    -1200.00
00765              -1.40    -1600.00
00766              -1.20    -1400.00
00767              -1.40    -1200.00
00768              -1.20    -1200.00
00769              -1.00    -1000.00
00770              -0.80     -800.00
00771              -1.20     -800.00
00772              -1.00     -800.00
00773              -0.60     -600.00
00774              -0.60     -600.00
00775              -1.20     -400.00
00776              -0.60     -400.00
00777              -0.40     -400.00
00778              -0.60     -400.00
00779              -0.80     -200.00
00780               0.20        0.00
00781               0.00     -200.00
00782              -0.40        0.00
00783              -0.20        0.00
00784               0.40      200.00
00785               0.20      200.00
00786              -0.20      400.00
00787               0.00      400.00
00788               0.40      600.00
00789               0.40      600.00
00790               4.20      600.00
00791              13.40     1000.00
00792             -12.20      800.00
00793             -25.00      800.00
00794              25.00     1200.00
00795              25.00     1200.00
00796             -25.00     1200.00
00797             -25.00     1400.00
00798              25.00     1400.00
00799              25.00     1600.00
00800             -25.00     1400.00
00801             -25.00     1800.00
00802              25.00     1800.00
00803               1.20     1800.00
00804             -25.00     2000.00
00805              25.00     2000.00
00806              25.00     2000.00
00807             -25.00     2200.00
00808             -21.00     2200.00
00809              25.00     2200.00
00810             -24.60     2200.00
00811             -25.00     2600.00
00812              25.00     2400.00
00813              25.00     2400.00
00814             -25.00     2600.00
00815              11.40     2800.00
00816              25.00     2800.00
00817             -25.00     2800.00
00818             -25.00     3000.00
00819              25.00     2800.00
00820              25.00     3200.00
00821             -25.00     3200.00
00822              18.20     3200.00
00823              25.00     3200.00
00824             -25.00     3400.00
00825             -25.00     3600.00
00826              25.00     3400.00
00827              13.20     3600.00
00828             -25.00     3800.00
00829              25.00     3600.00
00830              25.00     3800.00
00831             -25.00     4000.00
00832              -9.20     3800.00
00833              25.00     4000.00
00834             -11.40     4000.00
00835             -25.00     4000.00
00836              25.00     4000.00
00837              19.00     4400.00
00838             -25.00     4400.00
00839              10.60     4400.00
00840              25.00     4400.00
00841             -16.00     4400.00
00842              -8.20     4400.00
00843              25.00     4600.00
00844               2.60     4600.00
00845             -16.80     4600.00
00846              19.80     4600.00
00847              17.40     4800.00
00848             -14.20     4800.00
00849               6.00     4800.00
00850              21.80     4800.00
00851              -3.40     4800.00
00852              -3.40     5000.00
00853              18.20     5000.00
00854               8.20     5200.00
00855              -5.00     5200.00
00856              10.00     5200.00
00857              14.00     5200.00
00858              -1.20     5400.00
00859               3.00     5400.00
00860              15.80     5400.00
00861               5.40     5400.00
00862              -0.40     5400.00
00863              12.20     5400.00
00864              11.60     5600.00
00865               0.20     5600.00
00866               6.80     5400.00
00867              13.80     5600.00
00868               5.20     5600.00
00869               3.80     5600.00
00870              12.40     5600.00
00871               9.20     5600.00
00872               3.40     5800.00
00873              10.00     5600.00
00874              12.00     5600.00
00875               5.20     5800.00
00876               6.80     5600.00
00877              13.00     5600.00
00878               9.00     5800.00
00879               5.40     5600.00
00880              10.80     6000.00
00881              11.00     5800.00
00882               7.40     6000.00
00883               9.00     5600.00
00884              11.40     6000.00
00885               9.00     5800.00
00886               8.60     5800.00
00887              10.80     5800.00
00888              10.00     5800.00
00889               9.00     6000.00
00890               9.80     6000.00
00891              10.80     6000.00
00892               9.80     6000.00
00893               9.20     5800.00
00894              10.00     5800.00
00895              10.40     5800.00
00896               9.40     5800.00
00897               9.00     5800.00
00898               9.40     5800.00
00899               9.40     5800.00
00900               9.00     5600.00
00901               8.40     5600.00
00902               9.00     5600.00
00903               9.00     5800.00
00904               7.60     5600.00
00905               8.60     5600.00
00906               8.40     5600.00
00907               6.40     5600.00
00908               8.20     5600.00
00909              10.00     5600.00
00910               6.40     5400.00
00911               7.00     5400.00
00912               8.40     5400.00
00913               6.60     5400.00
00914               5.80     5400.00
00915               7.40     5200.00
00916               6.80     5200.00
00917               5.40     5400.00
00918               6.60     5200.00
00919               7.40     5200.00
00920               6.00     5200.00
00921               5.20     5200.00
00922               6.60     5200.00
00923               6.00     5000.00
00924               5.20     4800.00
00925               5.60     5000.00
00926               5.40     5000.00
00927               5.40     4800.00
00928               5.20     4800.00
00929               5.20     4600.00
00930               5.00     4800.00
00931               4.20     4600.00
00932               5.00     4400.00
00933               5.20     4600.00
00934               3.80     4400.00
00935               4.20     4400.00
00936               5.00     4400.00
00937               4.40     4200.00
00938               4.00     4200.00
00939               4.20     4200.00
00940               3.80     4200.00
00941               4.20     4000.00
00942               4.20     4000.00
00943               3.60     4000.00
00944               3.40     4000.00
00945               3.80     4000.00
00946               3.60     3800.00
00947               2.80     3800.00
00948               3.20     3600.00
00949               3.40     3600.00
00950               2.80     3600.00
00951               2.60     3600.00
00952               4.40     3400.00
00953               1.40     3200.00
00954               2.20     3200.00
00955               4.80     3200.00
00956               1.80     3000.00
00957               1.80     3000.00
00958               4.20     3000.00
00959               1.20     3000.00
00960               1.40     2800.00
00961               3.60     2800.00
00962               2.00     2800.00
00963               1.00     2600.00
00964               2.60     2400.00
00965               2.20     2400.00
00966               1.00     2200.00
00967               1.80     2400.00
00968               2.20     2200.00
00969               1.40     2200.00
00970               1.40     2000.00
00971               1.80     2000.00
00972               1.20     1800.00
00973               1.40     2000.00
00974               1.80     1800.00
00975               1.00     1600.00
00976               1.00     1600.00
00977               1.20     1600.00
00978               1.00     1400.00
00979               0.80     1400.00
00980               0.60     1400.00
00981               0.40     1000.00
00982               0.40     1200.00
00983               0.60      800.00
00984               0.40      800.00
00985               0.20      600.00
00986               0.60      800.00
00987               0.40      800.00
00988               0.20      400.00
00989               0.20      400.00
00990              -0.40      400.00
00991              -0.20      400.00
00992               0.20      200.00
00993              -0.40        0.00
00994              -0.20        0.00
00995              -0.20        0.00
00996              -0.60     -400.00
00997              -0.20     -200.00
00998              -0.20     -200.00
00999              -0.40     -400.00
01000              -1.00     -400.00
01001              -0.60     -400.00
01002              -0.60     -600.00
01003               2.80     -800.00
01004              14.60    -1000.00
01005             -14.00    -1200.00
01006             -25.00     -800.00
01007              25.00    -1000.00
01008              25.00    -1000.00
01009             -25.00    -1400.00
01010             -25.00    -1000.00
01011              25.00    -1400.00
01012              25.00    -1600.00
01013             -25.00    -1600.00
01014             -11.00    -1600.00
01015              25.00    -1600.00
01016             -20.60    -2000.00
01017             -25.00    -1600.00
01018              25.00    -2000.00
01019              25.00    -2400.00
01020             -25.00    -2000.00
01021             -25.00    -2200.00
01022              25.00    -2400.00
01023             -20.40    -2600.00
01024             -25.00    -2400.00
01025              25.00    -2600.00
01026              25.00    -2600.00
01027             -25.00    -2600.00
01028               9.80    -2800.00
01029              25.00    -3000.00
01030             -25.00    -2800.00
01031             -25.00    -3000.00
01032              25.00    -3200.00
01033              25.00    -3200.00
01034             -25.00    -3400.00
01035              -2.20    -3400.00
01036              25.00    -3400.00
01037             -25.00    -3400.00
01038             -25.00    -3400.00
01039              25.00    -3600.00
01040              25.00    -3600.00
01041             -25.00    -3800.00
01042              11.20    -3800.00
01043              25.00    -4000.00
01044             -25.00    -3600.00
01045             -25.00    -4000.00
01046              25.00    -4200.00
01047             -17.20    -4000.00
01048             -25.00    -4200.00
01049              25.00    -4200.00
01050              10.80    -4200.00
01051             -25.00    -4200.00
01052              -4.20    -4400.00
01053              19.80    -4400.00
01054             -17.20    -4400.00
01055             -22.00    -4600.00
01056              15.40    -4800.00
01057              -1.20    -4600.00
01058             -25.00    -4800.00
01059               5.20    -4800.00
01060               7.00    -4600.00
01061             -23.80    -4800.00
01062              -6.20    -5000.00
01063               9.40    -5000.00
01064             -14.20    -4600.00
01065             -15.00    -5000.00
01066               5.20    -5200.00
01067              -4.00    -5200.00
01068             -19.00    -5200.00
01069              -2.60    -5200.00
01070               2.60    -5200.00
01071             -16.60    -5200.00
01072             -10.20    -5200.00
01073               4.20    -5200.00
01074             -10.60    -5600.00
01075             -15.80    -5400.00
01076              -0.60    -5600.00
01077              -3.60    -5600.00
01078             -15.80    -5600.00
01079              -8.20    -5600.00
01080              -0.60    -5600.00
01081             -11.60    -5600.00
01082             -12.80    -5600.00
01083              -3.00    -5600.00
01084              -7.40    -5600.00
01085             -14.00    -5600.00
01086              -6.80    -5800.00
01087              -5.00    -5600.00
01088             -12.60    -5800.00
01089             -11.00    -5800.00
01090              -5.00    -5800.00
01091              -9.20    -5800.00
01092             -13.40    -5800.00
01093              -7.80    -6000.00
01094              -7.00    -5800.00
01095             -12.20    -5800.00
01096             -10.60    -5800.00
01097              -7.60    -6000.00
01098             -10.00    -5800.00
01099             -11.80    -6000.00
01100              -9.00    -5800.00
01101              -9.20    -6000.00
01102             -11.40    -5800.00
01103             -10.60    -6000.00
01104              -9.20    -5800.00
01105             -10.00    -6000.00
01106             -11.60    -5800.00
01107             -10.00    -5800.00
01108              -8.80    -6000.00
01109             -10.20    -5800.00
01110             -10.60    -5800.00
01111              -9.20    -5800.00
01112              -9.20    -5800.00
01113             -10.20    -5800.00
01114              -9.40    -5800.00
01115              -8.60    -5800.00
01116              -9.40    -5600.00
01117              -9.60    -5800.00
01118              -8.40    -5600.00
01119              -8.40    -5800.00
01120              -9.40    -5600.00
01121              -8.60    -5600.00
01122              -7.40    -5600.00
01123              -8.40    -5600.00
01124              -9.20    -5600.00
01125              -7.80    -5600.00
01126              -7.00    -5600.00
01127              -7.80    -5600.00
01128              -7.80    -5400.00
01129              -6.80    -5200.00
01130              -7.00    -5200.00
01131              -7.60    -5200.00
01132              -7.00    -5200.00
01133              -6.60    -5200.00
01134              -7.60    -5200.00
01135              -6.80    -5200.00
01136              -6.00    -5000.00
01137              -6.40    -5000.00
01138              -7.00    -5000.00
01139              -5.80    -4800.00
01140              -5.40    -4800.00
01141              -5.40    -4800.00
01142              -6.60    -4600.00
01143              -5.40    -4800.00
01144              -5.40    -4600.00
01145              -6.00    -4800.00
01146              -5.20    -4600.00
01147              -4.60    -4600.00
01148              -6.20    -4400.00
01149              -4.80    -4400.00
01150              -4.20    -4400.00
01151              -5.20    -4400.00
01152              -5.20    -4200.00
01153              -4.40    -4200.00
01154              -4.40    -4200.00
01155              -4.40    -4200.00
01156              -4.40    -4000.00
01157              -4.20    -4000.00
01158              -4.20    -4000.00
01159              -3.80    -3800.00
01160              -3.80    -3800.00
01161              -3.80    -3800.00
01162              -3.80    -3600.00
01163              -3.80    -3600.00
01164              -3.40    -3600.00
01165              -3.60    -3600.00
01166              -3.60    -3400.00
01167              -3.00    -3400.00
01168              -3.00    -3200.00
01169              -3.00    -3200.00
01170              -3.40    -3000.00
01171              -3.00    -3200.00
01172              -2.80    -3000.00
01173              -2.80    -3000.00
01174              -3.40    -2800.00
01175              -2.80    -2800.00
01176              -2.60    -2800.00
01177              -2.60    -2600.00
01178              -2.80    -2600.00
01179              -2.20    -2600.00
01180              -2.80    -2400.00
01181              -2.80    -2400.00
01182              -2.00    -2400.00
01183              -2.20    -2400.00
01184              -2.40    -2000.00
01185              -2.00    -2000.00
01186              -2.00    -1800.00
01187              -1.80    -1800.00
01188              -2.00    -1800.00
01189              -2.00    -1600.00
01190              -1.40    -1600.00
01191              -1.40    -1600.00
01192              -2.20    -1600.00
01193              -1.80    -1400.00
01194              -1.20    -1200.00
01195              -1.80    -1000.00
01196              -1.20    -1200.00
01197              -1.00    -1200.00
01198              -1.40    -1000.00
01199              -1.40     -800.00
01200              -0.60     -600.00
01201              -1.00     -800.00
01202              -1.00     -600.00
01203              -0.40     -400.00
01204              -0.60     -400.00
01205              -0.60     -400.00
01206              -0.80     -200.00
01207              -0.60     -200.00
01208              -0.40        0.00
01209              -0.40        0.00
01210              -0.20        0.00
01211               1.00      200.00
01212               0.40      400.00
01213              -0.40      200.00
01214               0.20      400.00
01215               0.40      400.00
01216               0.60      600.00
01217               3.00      600.00
01218              13.00      800.00
01219              -4.60      800.00
01220             -25.00      600.00
01221              16.60     1200.00
01222              25.00     1000.00
01223             -13.80     1200.00
01224             -25.00     1200.00
01225              25.00     1400.00
01226              25.00     1600.00
01227             -25.00     1400.00
01228             -25.00     1800.00
01229              25.00     1800.00
01230              25.00     1600.00
01231             -25.00     2000.00
01232              25.00     2000.00
01233              25.00     2000.00
01234             -25.00     2000.00
01235             -25.00     2200.00
01236              25.00     2200.00
01237              22.20     2200.00
01238             -25.00     2600.00
01239              25.00     2400.00
01240              25.00     2600.00
01241             -25.00     2800.00
01242             -25.00     2800.00
01243              25.00     2800.00
01244             -11.60     2800.00
01245             -25.00     3000.00
01246              25.00     3000.00
01247              25.00     3000.00
01248             -25.00     3200.00
01249              -7.60     3200.00
01250              25.00     3200.00
01251             -20.00     3600.00
01252             -25.00     3600.00
01253              25.00     3600.00
01254              25.00     3800.00
01255             -25.00     3800.00
01256              10.80     3600.00
01257              25.00     3600.00
01258             -25.00     4000.00
01259             -25.00     3800.00
01260              25.00     3800.00
01261               5.20     4000.00
01262             -25.00     4000.00
01263              25.00     4000.00
01264              25.00     4200.00
01265             -25.00     4400.00
01266              -1.00     4400.00
01267              25.00     4400.00
01268              -7.00     4400.00
01269             -15.80     4400.00
01270              25.00     4600.00
01271              12.40     4600.00
01272             -19.00     4600.00
01273              12.60     4600.00
01274              22.80     4800.00
01275             -10.80     4800.00
01276              -1.40     4800.00
01277              23.60     4800.00
01278               2.80     4800.00
01279              -9.00     5000.00
01280              17.00     5200.00
01281              13.40     5200.00
01282              -6.80     5000.00
01283               6.60     5200.00
01284              17.80     5200.00
01285               0.20     5200.00
01286               0.20     5400.00
01287              16.40     5400.00
01288               7.80     5400.00
01289              -1.20     5400.00
01290              10.60     5600.00
01291              13.80     5600.00
01292               2.00     5600.00
01293               4.60     5600.00
01294              14.20     5600.00
01295               7.40     5600.00
01296               2.80     5600.00
01297              11.00     5600.00
01298              11.40     5600.00
01299               4.20     5600.00
01300               8.00     5600.00
01301              13.00     5800.00
01302               7.40     5600.00
01303               5.20     5600.00
01304              12.20     5600.00
01305              10.80     5800.00
01306               5.20     5600.00
01307               9.00     5600.00
01308              12.20     5800.00
01309               7.80     5800.00
01310               7.80     5600.00
01311              11.60     5800.00
01312               9.60     6000.00
01313               7.80     5800.00
01314              10.20     6000.00
01315              10.60     5800.00
01316               8.40     5800.00
01317               9.20     5800.00
01318              11.00     6000.00
01319               9.60     6000.00
01320               8.60     5800.00
01321               9.80     5800.00
01322              10.20     6000.00
01323               9.00     5800.00
01324               9.00     6000.00
01325               9.40     5800.00
01326               8.60     5600.00
01327               9.00     5800.00
01328               9.00     5600.00
01329               8.40     5600.00
01330               8.60     5800.00
01331               7.80     5600.00
01332               7.80     5600.00
01333               8.60     5600.00
01334               8.20     5600.00
01335               7.60     5600.00
01336               8.40     5600.00
01337               7.60     5400.00
01338               7.00     5400.00
01339               6.40     5600.00
01340               7.40     5400.00
01341               7.20     5400.00
01342               6.60     5400.00
01343               6.60     5400.00
01344               7.40     5200.00
01345               6.00     5400.00
01346               6.00     5200.00
01347               7.00     5200.00
01348               6.20     5200.00
01349               5.40     5200.00
01350               6.40     5000.00
01351               6.20     5000.00
01352               5.20     4800.00
01353               5.20     4800.00
01354               6.00     5000.00
01355               5.80     4800.00
01356               4.60     4600.00
01357               5.40     4600.00
01358               5.20     4600.00
01359               4.40     4600.00
01360               4.60     4600.00
01361               5.00     4600.00
01362               4.60     4400.00
01363               4.20     4400.00
01364               4.60     4400.00
01365               4.60     4200.00
01366               3.60     4400.00
01367               4.00     4200.00
01368               4.40     4000.00
01369               3.80     4000.00
01370               3.60     4000.00
01371               4.00     4000.00
01372               3.60     3800.00
01373               2.80     3800.00
01374               3.00     3800.00
01375               3.60     3600.00
01376               2.80     3600.00
01377               3.40     3400.00
01378               3.40     3600.00
01379               2.80     3400.00
01380               2.60     3200.00
01381               2.60     3400.00
01382               2.80     3200.00
01383               2.20     3200.00
01384               2.20     3000.00
01385               2.60     3000.00
01386               2.60     3000.00
01387               2.00     3000.00
01388               2.20     2800.00
01389               2.60     2800.00
01390               1.80     2600.00
01391               2.00     2400.00
01392               2.20     2600.00
01393               1.80     2400.00
01394               1.20     2200.00
01395               1.40     2200.00
01396               1.40     2200.00
01397               1.40     2000.00
01398               1.20     2000.00
01399               1.80     2000.00
01400               1.60     1800.00
01401               1.00     1800.00
01402               1.20     1800.00
01403               1.40     1800.00
01404               1.00     1400.00
01405               1.00     1400.00
01406               1.40     1400.00
01407               1.00     1200.00
01408               0.20     1200.00
01409               1.00     1000.00
01410               1.20     1000.00
01411               0.20      800.00
01412              -0.20      800.00
01413               1.40      800.00
01414               0.60      600.00
01415              -0.60      600.00
01416               0.60      400.00
01417               1.20      400.00
01418              -0.60      400.00
01419              -1.60      400.00
01420               1.40      200.00
01421               2.00        0.00
01422              -2.40        0.00
01423              -0.20        0.00
01424               3.40     -200.00
01425              -2.80     -400.00
01426              -2.20     -400.00
01427               3.80     -400.00
01428              -1.20     -400.00
01429              -4.40     -400.00
01430               4.20     -800.00
01431              17.20     -800.00
01432              -7.40    -1000.00
01433             -25.00     -800.00
01434              25.00    -1000.00
01435              25.00    -1000.00
01436             -25.00    -1600.00
01437             -25.00    -1000.00
01438              25.00    -1200.00
01439              25.00    -1400.00
01440             -25.00    -1600.00
01441             -25.00    -1600.00
01442              25.00    -1600.00
01443              25.00    -2000.00
01444             -25.00    -1600.00
01445              25.00    -2000.00
01446              25.00    -2000.00
01447             -25.00    -2200.00
01448             -25.00    -2000.00
01449              25.00    -2400.00
01450              25.00    -2600.00
01451             -25.00    -2400.00
01452              25.00    -2600.00
01453              25.00    -2600.00
01454             -25.00    -2600.00
01455             -25.00    -2800.00
01456              25.00    -3000.00
01457             -17.60    -2800.00
01458             -25.00    -2800.00
01459              25.00    -3200.00
01460              25.00    -3200.00
01461             -25.00    -3200.00
01462             -25.00    -3400.00
01463              25.00    -3200.00
01464              -6.80    -3400.00
01465             -25.00    -3400.00
01466              25.00    -3600.00
01467              25.00    -3600.00
01468             -25.00    -3600.00
01469             -13.00    -3600.00
01470              25.00    -3800.00
01471             -25.00    -3600.00
01472             -25.00    -4000.00
01473              25.00    -4000.00
01474               0.20    -4000.00
01475             -25.00    -4200.00
01476              16.40    -4200.00
01477              20.20    -4200.00
01478             -25.00    -4200.00
01479             -12.00    -4400.00
01480              21.20    -4400.00
01481             -10.00    -4400.00
01482             -25.00    -4400.00
01483              11.00    -4600.00
01484               5.00    -4800.00
01485             -25.00    -4600.00
01486              -0.60    -4600.00
01487              11.40    -4600.00
01488             -20.60    -4800.00
01489             -10.60    -4600.00
01490              10.00    -5000.00
01491             -10.20    -5000.00
01492             -17.80    -5000.00
01493               2.80    -5000.00
01494              -0.60    -5000.00
01495             -18.00    -5200.00
01496              -6.00    -5200.00
01497               4.80    -5200.00
01498             -14.00    -5200.00
01499             -13.40    -5400.00
01500               3.60    -5200.00
01501              -7.80    -5400.00
01502             -17.80    -5400.00
01503              -2.20    -5600.00
01504              -1.00    -5600.00
01505             -15.40    -5600.00
01506             -10.20    -5800.00
01507              -0.60    -5600.00
01508             -10.20    -5600.00
01509             -14.60    -5600.00
01510              -4.20    -5600.00
01511              -5.60    -5800.00
01512             -14.00    -5600.00
01513              -8.20    -5800.00
01514              -4.00    -5800.00
01515             -12.20    -5800.00
01516             -12.60    -5800.00
01517              -5.60    -5800.00
01518              -7.80    -5800.00
01519             -13.40    -5800.00
01520              -8.80    -5800.00
01521              -6.60    -5800.00
01522             -12.20    -6000.00
01523             -11.80    -5800.00
01524              -7.60    -5800.00
01525              -9.80    -6000.00
01526             -12.20    -6000.00
01527              -9.40    -5800.00
01528              -9.00    -6000.00
01529             -11.40    -6000.00
01530             -11.40    -6000.00
01531              -9.40    -5800.00
01532             -10.00    -5800.00
01533             -11.40    -5800.00
01534             -10.20    -5800.00
01535              -9.40    -5800.00
01536             -10.20    -5800.00
01537             -10.60    -5800.00
01538             -10.00    -5800.00
01539              -9.40    -5800.00
01540             -10.00    -5800.00
01541              -9.80    -5800.00
01542              -9.00    -5600.00
01543              -9.20    -5800.00
01544              -9.20    -5600.00
01545              -8.60    -5600.00
01546              -8.40    -5600.00
01547              -9.00    -5800.00
01548              -8.60    -5600.00
01549              -7.80    -5600.00
01550              -7.60    -5600.00
01551              -8.60    -5600.00
01552              -8.20    -5400.00
01553              -7.00    -5800.00
01554              -7.60    -5600.00
01555              -7.80    -5600.00
01556              -7.00    -5200.00
01557              -6.80    -5400.00
01558              -7.20    -5200.00
01559              -7.40    -5200.00
01560              -6.20    -5200.00
01561              -7.00    -5200.00
01562              -7.00    -5200.00
01563              -6.20    -5000.00
01564              -5.80    -5000.00
01565              -7.00    -5200.00
01566              -6.20    -5000.00
01567              -5.40    -5000.00
01568              -6.00    -5000.00
01569              -6.80    -4600.00
01570              -5.40    -4800.00
01571              -5.20    -4600.00
01572              -6.20    -4600.00
01573              -5.40    -4600.00
01574              -4.40    -4600.00
01575              -6.00    -4600.00
01576              -5.20    -4400.00
01577              -3.80    -4400.00
01578              -5.00    -4400.00
01579              -5.40    -4400.00
01580              -4.40    -4200.00
01581              -4.40    -4200.00
01582              -4.60    -4200.00
01583              -4.60    -4200.00
01584              -4.40    -4000.00
01585              -4.20    -4000.00
01586              -4.40    -4000.00
01587              -4.40    -4000.00
01588              -4.20    -3800.00
01589              -3.80    -4000.00
01590              -4.00    -3600.00
01591              -3.40    -3600.00
01592              -3.40    -3600.00
01593              -3.80    -3400.00
01594              -3.20    -3400.00
01595              -3.00    -3200.00
01596              -3.40    -3200.00
01597              -3.40    -3200.00
01598              -3.00    -3200.00
01599              -2.80    -3000.00
01600              -2.80    -2800.00
01601              -3.00    -2800.00
01602              -2.60    -2800.00
01603              -2.80    -2800.00
01604              -2.80    -2600.00
01605              -2.60    -2600.00
01606              -2.60    -2400.00
01607              -2.80    -2400.00
01608              -2.00    -2400.00
01609              -2.20    -2000.00
01610              -2.20    -2000.00
01611              -2.00    -2000.00
01612              -2.00    -2000.00
01613              -1.80    -1800.00
01614              -1.60    -1800.00
01615              -1.80    -1600.00
01616              -1.80    -1800.00
01617              -1.60    -1600.00
01618              -1.20    -1600.00
01619              -1.40    -1600.00
01620              -1.60    -1400.00
01621              -1.20    -1200.00
01622              -1.20    -1200.00
01623              -1.20    -1000.00
01624              -1.00    -1000.00
01625              -1.20    -1000.00
01626              -1.20     -800.00
01627              -0.60     -600.00
01628              -0.60     -800.00
01629              -0.60     -400.00
01630              -0.60     -600.00
01631              -0.60     -400.00
01632              -0.40     -400.00
01633              -0.80     -200.00
01634              -0.40     -200.00
01635              -0.20     -200.00
01636              -0.20        0.00
01637              -0.40        0.00
01638               0.20      200.00
01639               0.40      400.00
01640               0.00      200.00
01641              -0.40      400.00
01642               0.40      400.00
01643               0.40      600.00
01644               1.80      800.00
01645              10.80      800.00
01646               1.80      800.00
01647             -25.00      800.00
01648              -1.40     1200.00
01649              25.00     1000.00
01650               6.00     1200.00
01651             -25.00     1000.00
01652              25.00     1400.00
01653              25.00     1600.00
01654             -25.00     1400.00
01655             -25.00     1800.00
01656              25.00     1800.00
01657              25.00     1800.00
01658             -25.00     1800.00
01659              -4.60     2000.00
01660              25.00     2200.00
01661             -25.00     2000.00
01662             -25.00     2400.00
01663              25.00     2200.00
01664              25.00     2200.00
01665             -25.00     2600.00
01666              25.00     2400.00
01667              25.00     2800.00
01668             -25.00     2600.00
01669             -25.00     2800.00
01670              25.00     2800.00
01671              25.00     3000.00
01672             -25.00     3200.00
01673              25.00     3000.00
01674              25.00     3000.00
01675             -25.00     3200.00
01676             -25.00     3200.00
01677              25.00     3200.00
01678               6.80     3600.00
01679             -25.00     3400.00
01680              25.00     3200.00
01681              25.00     3600.00
01682             -25.00     3800.00
01683             -10.60     3600.00
01684              25.00     3800.00
01685             -14.80     3800.00
01686             -25.00     4000.00
01687              25.00     4000.00
01688              22.20     4000.00
01689             -25.00     4200.00
01690              12.80     4000.00
01691              25.00     4200.00
01692             -22.00     4400.00
01693             -11.80     4400.00
01694              25.00     4400.00
01695               2.80     4400.00
01696             -21.40     4600.00
01697              20.40     4400.00
01698              20.20     4600.00
01699             -18.20     4600.00
01700               4.40     4600.00
01701              25.00     4800.00
01702              -6.00     4800.00
01703              -7.00     4800.00
01704              22.60     4800.00
01705               7.80     5000.00
01706             -10.80     4800.00
01707              12.40     5200.00
01708              16.60     5200.00
01709              -5.40     5200.00
01710               2.80     5200.00
01711              18.60     5200.00
01712               2.80     5400.00
01713              -2.40     5400.00
01714              15.00     5200.00
01715              10.60     5400.00
01716              -2.80     5400.00
01717               8.60     5400.00
01718              15.40     5600.00
01719               2.00     5400.00
01720               2.80     5600.00
01721              14.40     5600.00
01722               8.20     5600.00
01723               1.80     5600.00
01724              10.80     5600.00
01725              12.20     5600.00
01726               3.40     5600.00
01727               7.40     5600.00
01728              13.40     5600.00
01729               7.00     5800.00
01730               4.40     5800.00
01731              11.80     5600.00
01732              11.40     5800.00
01733               5.00     5800.00
01734               8.60     5800.00
01735              13.20     6000.00
01736               8.40     6000.00
01737               6.80     6000.00
01738              11.80     6000.00
01739              10.60     5800.00
01740               6.80     5800.00
01741              10.40     5800.00
01742              11.40     6000.00
01743               9.00     6000.00
01744               9.40     6000.00
01745              10.80     5800.00
01746              10.20     5800.00
01747               8.80     6000.00
01748               9.40     5800.00
01749              10.20     5600.00
01750              10.00     5800.00
01751               9.20     5800.00
01752               9.20     5800.00
01753               9.40     6000.00
01754               9.00     5600.00
01755               8.80     5600.00
01756               8.40     5800.00
01757               8.80     5600.00
01758               8.40     5600.00
01759               8.80     5600.00
01760               8.60     5400.00
01761               8.20     5600.00
01762               7.20     5400.00
01763               7.60     5600.00
01764               7.40     5400.00
01765               7.60     5400.00
01766               7.00     5400.00
01767               7.00     5400.00
01768               7.00     5400.00
01769               6.80     5200.00
01770               6.40     5400.00
01771               6.80     5200.00
01772               7.00     5400.00
01773               6.60     5400.00
01774               5.80     5200.00
01775               6.20     5000.00
01776               5.80     5000.00
01777               5.40     4800.00
01778               5.80     5000.00
01779               5.40     4800.00
01780               5.40     4800.00
01781               5.80     4800.00
01782               5.20     4800.00
01783               4.60     4600.00
01784               5.00     4600.00
01785               5.00     4600.00
01786               5.00     4600.00
01787               4.80     4400.00
01788               4.60     4600.00
01789               4.40     4400.00
01790               4.20     4400.00
01791               4.60     4400.00
01792               4.40     4400.00
01793               4.00     4400.00
01794               4.00     4200.00
01795               4.40     4000.00
01796               3.60     4000.00
01797               3.80     3800.00
01798               3.80     3800.00
01799               3.00     4000.00
01800               3.80     3800.00
01801               4.60     3600.00
01802               2.80     3600.00
01803               3.00     3600.00
01804               4.20     3600.00
01805               2.60     3600.00
01806               2.20     3400.00
01807               3.80     3200.00
01808               2.80     3200.00
01809               2.20     3200.00
01810               3.40     3000.00
01811               3.00     3000.00
01812               1.80     3000.00
01813               2.20     2800.00
01814               3.00     2800.00
01815               2.20     2800.00
01816               2.00     2800.00
01817               2.60     2800.00
01818               2.00     2600.00
01819               2.00     2400.00
01820               1.80     2400.00
01821               1.80     2400.00
01822               2.00     2200.00
01823               1.80     2000.00
01824               1.40     2200.00
01825               1.80     2000.00
01826               1.40     1800.00
01827               1.00     2000.00
01828               1.20     1800.00
01829               1.40     1600.00
01830               0.60     1400.00
01831               1.00     1800.00
01832               1.20     1400.00
01833               0.60     1400.00
01834               0.40     1400.00
01835               0.60     1200.00
01836               0.60     1200.00
01837               0.40      800.00
01838               0.40      800.00
01839               0.40      800.00
01840               0.20      800.00
01841               0.20      600.00
01842               0.40      400.00
01843               0.20      400.00
01844              -0.20      400.00
01845              -0.20      400.00
01846               0.20      400.00
01847              -0.20        0.00
01848              -0.40        0.00
01849              -0.20        0.00
01850               0.20        0.00
01851              -0.40     -200.00
01852              -0.20     -200.00
01853               0.20     -200.00
01854              -0.60     -400.00
01855              -1.00     -400.00
01856              -0.20     -400.00
01857               0.60     -600.00
01858              11.60     -800.00
01859               3.60    -1000.00
01860             -25.00     -800.00
01861              10.80     -800.00
01862              25.00    -1000.00
01863              -9.40    -1400.00
01864             -25.00    -1200.00
01865              25.00    -1200.00
01866              25.00    -1400.00
01867             -25.00    -1800.00
01868             -25.00    -1200.00
01869              25.00    -1600.00
01870              25.00    -2000.00
01871             -25.00    -1800.00
01872               7.00    -1800.00
01873              25.00    -2400.00
01874             -25.00    -2400.00
01875             -25.00    -2000.00
01876              25.00    -2200.00
01877              25.00    -2600.00
01878             -25.00    -2200.00
01879              24.60    -2600.00
01880              25.00    -2600.00
01881             -25.00    -2600.00
01882             -25.00    -2600.00
01883              25.00    -2800.00
01884              24.20    -2800.00
01885             -25.00    -2800.00
01886              25.00    -3200.00
01887              25.00    -3200.00
01888             -25.00    -3200.00
01889             -25.00    -3400.00
01890              25.00    -3400.00
01891              20.60    -3200.00
01892             -25.00    -3400.00
01893              14.00    -3600.00
01894              25.00    -3600.00
01895             -25.00    -3600.00
01896             -25.00    -3800.00
01897              25.00    -4000.00
01898             -13.00    -3600.00
01899             -25.00    -4000.00
01900              25.00    -4000.00
01901              19.40    -4000.00
01902             -25.00    -4000.00
01903               2.20    -4200.00
01904              25.00    -4200.00
01905             -25.00    -4200.00
01906             -22.40    -4400.00
01907              19.00    -4400.00
01908               1.20    -4400.00
01909             -25.00    -4400.00
01910               2.60    -4400.00
01911              14.00    -4600.00
01912             -25.00    -4400.00
01913              -9.80    -4800.00
01914              15.00    -4600.00
01915             -15.60    -4800.00
01916             -17.00    -4800.00
01917               9.00    -5000.00
01918              -5.20    -5000.00
01919             -19.40    -5000.00
01920              -1.20    -5000.00
01921               2.00    -5200.00
01922             -15.20    -5200.00
01923             -10.00    -5200.00
01924               4.20    -5200.00
01925              -9.80    -5200.00
01926             -16.20    -5200.00
01927               1.20    -5400.00
01928              -3.80    -5200.00
01929             -17.00    -5600.00
01930              -5.40    -5600.00
01931               0.40    -5400.00
01932             -13.20    -5600.00
01933             -12.40    -5600.00
01934              -1.80    -5600.00
01935              -7.20    -5600.00
01936             -14.40    -5600.00
01937              -6.00    -5600.00
01938              -3.80    -5800.00
01939             -13.00    -5600.00
01940             -10.20    -5600.00
01941              -3.80    -5800.00
01942              -9.60    -5600.00
01943             -13.40    -5800.00
01944              -6.60    -5600.00
01945              -6.20    -5800.00
01946             -13.20    -5600.00
01947             -10.60    -5600.00
01948              -5.80    -5800.00
01949             -10.20    -5800.00
01950             -12.40    -6000.00
01951              -8.00    -5800.00
01952              -8.60    -6000.00
01953             -11.60    -6000.00
01954             -10.40    -6000.00
01955              -8.60    -6000.00
01956             -10.60    -5800.00
01957             -12.20    -6000.00
01958              -9.40    -5800.00
01959              -9.20    -6000.00
01960             -11.60    -6000.00
01961             -10.80    -6000.00
01962              -8.40    -5800.00
01963             -10.40    -5800.00
01964             -11.60    -5800.00
01965              -9.00    -5800.00
01966              -9.60    -5800.00
01967             -10.60    -5800.00
01968              -9.40    -5800.00
01969              -9.00    -5800.00
01970              -9.80    -5800.00
01971              -9.40    -5800.00
01972              -8.40    -5800.00
01973              -8.80    -5800.00
01974              -9.20    -5600.00
01975              -8.40    -5600.00
01976              -8.40    -5600.00
01977              -7.80    -5600.00
01978              -8.20    -5600.00
01979              -8.40    -5600.00
01980              -7.40    -5600.00
01981              -7.40    -5400.00
01982              -7.80    -5600.00
01983              -7.60    -5400.00
01984              -6.80    -5200.00
01985              -7.00    -5400.00
01986              -7.40    -5200.00
01987              -6.20    -5200.00
01988              -6.60    -5400.00
01989              -7.60    -5200.00
01990              -6.00    -5200.00
01991              -6.00    -5000.00
01992              -7.00    -5000.00
01993              -6.20    -5000.00
01994              -6.60    -5000.00
01995              -6.00    -4600.00
01996              -5.40    -4800.00
01997              -6.20    -4800.00
01998              -4.60    -4600.00
01999              -4.60    -4600.00
02000              -6.20    -4600.00
02001              -4.60    -4600.00
02002              -4.40    -4600.00
02003              -5.80    -4400.00
02004              -5.40    -4400.00
02005              -4.40    -4400.00
02006              -5.20    -4200.00
02007              -5.20    -4400.00
02008              -4.40    -4200.00
02009              -4.00    -4200.00
02010              -4.60    -4200.00
02011              -4.40    -4000.00
02012              -3.80    -4000.00
02013              -4.20    -4000.00
02014              -4.40    -3800.00
02015              -4.20    -4000.00
02016              -4.20    -3600.00
02017              -3.80    -3600.00
02018              -3.40    -3600.00
02019              -3.80    -3400.00
02020              -3.80    -3400.00
02021              -3.40    -3400.00
02022              -3.00    -3400.00
02023              -3.00    -3400.00
02024              -3.60    -3200.00
02025              -3.40    -3200.00
02026              -2.80    -3200.00
02027              -2.60    -2800.00
02028              -3.40    -2800.00
02029              -3.00    -2800.00
02030              -2.20    -2600.00
02031              -2.80    -2600.00
02032              -3.40    -2600.00
02033              -2.20    -2400.00
02034              -2.40    -2400.00
02035              -3.40    -2400.00
02036              -2.20    -2400.00
02037              -1.40    -2000.00
02038              -2.80    -2200.00
02039              -2.60    -2000.00
02040              -1.60    -2000.00
02041              -2.00    -1800.00
02042              -2.20    -1800.00
02043              -2.00    -1800.00
02044              -1.80    -1600.00
02045              -2.00    -1600.00
02046              -1.40    -1600.00
02047              -0.80    -1400.00
02048              -2.00    -1400.00
02049              -1.40    -1200.00
02050              -0.60    -1000.00
02051              -2.00    -1000.00
02052              -1.20     -800.00
02053              -0.60    -1000.00
02054              -1.20    -1000.00
02055              -1.20     -600.00
02056              -0.40     -600.00
02057              -1.40     -600.00
02058              -1.00     -400.00
02059              -0.20     -400.00
02060              -0.40     -200.00
02061              -1.00     -200.00
02062               0.20        0.00
02063               0.20        0.00
02064              -0.60        0.00
02065               0.40      200.00
02066               0.60      400.00
02067              -0.20      400.00
02068              -0.60      400.00
02069               0.60      400.00
02070               0.40      600.00
02071               1.40      600.00
02072               8.60      800.00
02073               7.60      800.00
02074             -25.00      800.00
02075             -18.00      800.00
02076              25.00     1000.00
02077              22.00     1200.00
02078             -25.00      800.00
02079              -6.80     1400.00
02080              25.00     1400.00
02081              -7.40     1400.00
02082             -25.00     1800.00
02083              25.00     1800.00
02084              25.00     1800.00
02085             -25.00     1800.00
02086             -25.00     2000.00
02087              25.00     2000.00
02088              11.00     2000.00
02089             -25.00     2200.00
02090              25.00     2200.00
02091              25.00     2200.00
02092             -25.00     2400.00
02093             -15.40     2600.00
02094              25.00     2400.00
02095             -25.00     2400.00
02096             -25.00     2800.00
02097              25.00     2600.00
02098              25.00     2800.00
02099             -25.00     3000.00
02100               6.80     3000.00
02101              25.00     3000.00
02102             -25.00     3200.00
02103             -25.00     3200.00
02104              25.00     3200.00
02105              25.00     3400.00
02106             -25.00     3400.00
02107              16.20     3400.00
02108              25.00     3600.00
02109             -25.00     3600.00
02110             -25.00     3600.00
02111              25.00     3600.00
02112               5.00     4000.00
02113             -25.00     3800.00
02114              25.00     4000.00
02115              25.00     4000.00
02116             -25.00     4000.00
02117              -1.40     4000.00
02118              25.00     4200.00
02119             -11.80     4200.00
02120             -21.00     4400.00
02121              25.00     4400.00
02122              13.20     4400.00
02123             -23.80     4600.00
02124              12.60     4400.00
02125              25.00     4600.00
02126             -14.60     4600.00
02127              -2.20     4600.00
02128              25.00     4800.00
02129               0.60     4800.00
02130             -11.20     4800.00
02131              19.40     4800.00
02132              13.80     5000.00
02133             -10.80     5200.00
02134               7.60     5000.00
02135              19.60     5200.00
02136              -2.20     5000.00
02137              -1.00     5200.00
02138              18.60     5200.00
02139               6.80     5400.00
02140              -3.80     5400.00
02141              12.60     5400.00
02142              13.40     5400.00
02143              -2.00     5400.00
02144               5.80     5400.00
02145              16.40     5400.00
02146               4.20     5400.00
02147               1.80     5600.00
02148              13.20     5400.00
02149              10.20     5600.00
02150               1.80     5600.00
02151               9.40     5600.00
02152              13.40     5600.00
02153               4.00     5600.00
02154               5.40     5600.00
02155              13.80     5600.00
02156               8.40     5600.00
02157               3.40     5600.00
02158              11.00     5600.00
02159              13.00     5800.00
02160               5.00     5800.00
02161               7.40     5800.00
02162              13.40     5800.00
02163               8.60     5600.00
02164               6.00     5800.00
02165              11.40     5800.00
02166              10.80     5800.00
02167               7.40     5800.00
02168               9.40     5800.00
02169              11.60     5600.00
02170               8.40     5800.00
02171               9.20     5800.00
02172              11.40     5800.00
02173               9.20     6000.00
02174               8.60     6000.00
02175              10.60     5600.00
02176               9.80     5800.00
02177               8.60     5800.00
02178               9.80     5800.00
02179               9.80     5800.00
02180               8.40     5800.00
02181               8.80     5800.00
02182               9.20     5800.00
02183               9.00     5600.00
02184               8.40     5600.00
02185               9.20     5600.00
02186               8.60     5600.00
02187               8.20     5600.00
02188               7.80     5600.00
02189               6.80     5600.00
02190               7.20     5600.00
02191               9.20     5600.00
02192               7.00     5400.00
02193               6.00     5600.00
02194               8.20     5400.00
02195               8.00     5600.00
02196               5.80     5400.00
02197               6.80     5400.00
02198               8.00     5400.00
02199               6.20     5400.00
02200               5.20     5200.00
02201               6.80     5200.00
02202               7.00     5200.00
02203               4.60     5200.00
02204               6.00     5200.00
02205               7.60     5000.00
02206               5.20     5000.00
02207               4.20     5000.00
02208               7.00     4800.00
02209               5.80     4800.00
02210               3.60     4800.00
02211               5.80     4800.00
02212               6.00     4600.00
02213               3.80     4600.00
02214               4.40     4600.00
02215               5.80     4600.00
02216               4.20     4400.00
02217               3.60     4400.00
02218               5.40     4400.00
02219               5.00     4400.00
02220               2.80     4400.00
02221               3.60     4200.00
02222               5.00     4200.00
02223               3.40     4000.00
02224               3.00     4000.00
02225               4.40     3800.00
02226               3.40     4000.00
02227               2.60     3800.00
02228               4.00     3600.00
02229               3.60     3600.00
02230               2.60     3600.00
02231               3.00     3600.00
02232               3.60     3600.00
02233               2.60     3400.00
02234               2.00     3200.00
02235               2.80     3400.00
02236               3.00     3200.00
02237               2.20     3200.00
02238               2.60     3200.00
02239               2.60     3000.00
02240               2.00     3000.00
02241               2.20     2800.00
02242               2.20     2800.00
02243               2.20     2800.00
02244               2.00     2800.00
02245               2.20     2800.00
02246               2.00     2400.00
02247               1.80     2400.00
02248               1.80     2400.00
02249               2.20     2200.00
02250               1.80     2200.00
02251               1.00     2000.00
02252               1.80     2000.00
02253               1.60     2000.00
02254               1.00     2000.00
02255               1.80     1800.00
02256               1.80     1600.00
02257               0.60     1800.00
02258               1.20     1600.00
02259               1.20     1600.00
02260               1.00     1400.00
02261               1.00     1400.00
02262               0.40     1200.00
02263               1.00     1200.00
02264               1.00      800.00
02265               0.20      800.00
02266               0.20      800.00
02267               0.80      600.00
02268               0.40      800.00
02269               0.20      600.00
02270               0.40      400.00
02271               0.40      400.00
02272               0.20      400.00
02273               0.20      400.00
02274              -0.20      200.00
02275              -0.20      200.00
02276               0.00        0.00
02277               0.20     -200.00
02278              -0.20     -200.00
02279               0.00     -200.00
02280               0.20     -400.00
02281              -0.60     -400.00
02282              -0.60     -400.00
02283              -1.00     -400.00
02284               0.20     -600.00
02285               9.40     -800.00
02286               8.40    -1000.00
02287             -25.00    -1000.00
02288             -11.80     -800.00
02289              25.00    -1000.00
02290              10.60    -1400.00
02291             -25.00    -1200.00
02292              12.20    -1000.00
02293              25.00    -1400.00
02294             -25.00    -1800.00
02295             -25.00    -1400.00
02296              25.00    -1600.00
02297              25.00    -2000.00
02298             -25.00    -1800.00
02299             -25.00    -1600.00
02300              25.00    -2000.00
02301               8.20    -2400.00
02302             -25.00    -2000.00
02303              25.00    -2400.00
02304              25.00    -2400.00
02305             -25.00    -2400.00
02306             -25.00    -2400.00
02307              25.00    -2600.00
02308             -25.00    -2800.00
02309             -25.00    -2600.00
02310              25.00    -3000.00
02311              25.00    -2800.00
02312             -25.00    -2800.00
02313               0.20    -3200.00
02314              25.00    -3200.00
02315             -25.00    -3200.00
02316             -25.00    -3200.00
02317              25.00    -3400.00
02318              25.00    -3200.00
02319             -25.00    -3400.00
02320             -11.80    -3600.00
02321              25.00    -3600.00
02322             -25.00    -3600.00
02323             -25.00    -3800.00
02324              25.00    -3800.00
02325              12.40    -3800.00
02326             -25.00    -4000.00
02327              23.40    -4000.00
02328              25.00    -4000.00
02329             -25.00    -4000.00
02330              -7.60    -4200.00
02331              25.00    -4200.00
02332             -16.40    -4200.00
02333             -25.00    -4400.00
02334              16.40    -4400.00
02335              11.80    -4400.00
02336             -25.00    -4400.00
02337              -4.40    -4600.00
02338              16.20    -4600.00
02339             -21.20    -4800.00
02340             -17.00    -4600.00
02341              14.60    -4800.00
02342              -7.60    -4800.00
02343             -18.80    -4800.00
02344               5.80    -5000.00
02345               3.40    -5000.00
02346             -22.80    -5000.00
02347              -9.20    -5000.00
02348               6.00    -5200.00
02349             -15.80    -5000.00
02350             -10.80    -5200.00
02351               7.20    -5200.00
02352              -7.80    -5200.00
02353             -17.80    -5200.00
02354              -0.60    -5400.00
02355              -3.60    -5400.00
02356             -17.00    -5400.00
02357              -9.00    -5600.00
02358               1.00    -5400.00
02359             -10.00    -5600.00
02360             -14.60    -5600.00
02361              -0.60    -5600.00
02362              -6.00    -5600.00
02363             -15.80    -5600.00
02364              -8.40    -5600.00
02365              -4.40    -5600.00
02366             -10.80    -5800.00
02367             -11.40    -5800.00
02368              -5.80    -5800.00
02369              -6.60    -5800.00
02370             -13.60    -5800.00
02371             -10.00    -5800.00
02372              -4.60    -5800.00
02373             -11.40    -5800.00
02374             -13.40    -6000.00
02375              -7.00    -5800.00
02376              -7.40    -5800.00
02377             -13.00    -6000.00
02378             -10.20    -6000.00
02379              -6.60    -6000.00
02380             -11.80    -5800.00
02381             -12.40    -5800.00
02382              -7.80    -6000.00
02383             -10.20    -5800.00
02384             -12.40    -6000.00
02385              -9.40    -5800.00
02386              -8.60    -5800.00
02387             -11.00    -6000.00
02388             -10.80    -5800.00
02389              -9.00    -5800.00
02390              -9.80    -5800.00
02391             -11.60    -5800.00
02392             -10.20    -5800.00
02393              -9.40    -5800.00
02394              -9.80    -5800.00
02395              -9.80    -5800.00
02396              -8.40    -5600.00
02397              -9.00    -5800.00
02398             -10.00    -5800.00
02399              -8.40    -5800.00
02400              -7.80    -5800.00
02401              -9.60    -5800.00
02402              -9.20    -5600.00
02403              -6.80    -5600.00
02404              -7.20    -5600.00
02405              -9.40    -5600.00
02406              -7.80    -5600.00
02407              -6.20    -5400.00
02408              -8.60    -5600.00
02409              -7.80    -5600.00
02410              -7.00    -5600.00
02411              -6.20    -5200.00
02412              -8.40    -5400.00
02413              -7.20    -5200.00
02414              -5.00    -5400.00
02415              -8.20    -5200.00
02416              -7.60    -5200.00
02417              -4.40    -5000.00
02418              -7.20    -5200.00
02419              -8.60    -5000.00
02420              -5.20    -5000.00
02421              -3.80    -5000.00
02422              -8.40    -5000.00
02423              -6.20    -4800.00
02424              -3.80    -4800.00
02425              -6.60    -4600.00
02426              -7.40    -4600.00
02427              -4.20    -4600.00
02428              -4.40    -4600.00
02429              -7.40    -4400.00
02430              -6.20    -4400.00
02431              -1.80    -4400.00
02432              -5.40    -4400.00
02433              -7.60    -4400.00
02434              -3.00    -4200.00
02435              -3.40    -4400.00
02436              -7.60    -4200.00
02437              -4.60    -4200.00
02438              -2.20    -4000.00
02439              -5.40    -4000.00
02440              -5.20    -4000.00
02441              -2.20    -3800.00
02442              -4.00    -3800.00
02443              -5.80    -3600.00
02444              -2.80    -3600.00
02445              -2.80    -3600.00
02446              -4.80    -3600.00
02447              -3.40    -3600.00
02448              -2.20    -3400.00
02449              -3.80    -3400.00
02450              -4.20    -3200.00
02451              -2.80    -3200.00
02452              -3.00    -3200.00
02453              -3.00    -3200.00
02454              -2.20    -3000.00
02455              -2.60    -2800.00
02456              -3.40    -2800.00
02457              -2.60    -2800.00
02458              -2.00    -2600.00
02459              -2.60    -2600.00
02460              -2.20    -2600.00
02461              -2.00    -2400.00
02462              -2.40    -2400.00
02463              -2.60    -2400.00
02464              -2.00    -2200.00
02465              -2.00    -2000.00
02466              -2.00    -2000.00
02467              -2.00    -2000.00
02468              -1.60    -1800.00
02469              -1.20    -1800.00
02470              -2.80    -1800.00
02471              -2.20    -1600.00
02472              -0.40    -1600.00
02473              -1.40    -1400.00
02474              -2.20    -1400.00
02475              -0.40    -1200.00
02476              -1.20    -1200.00
02477              -2.20    -1200.00
02478              -1.00    -1200.00
02479              -0.60    -1000.00
02480              -1.80     -800.00
02481              -1.20     -800.00
02482               0.40     -800.00
02483              -1.40     -600.00
02484              -2.20     -400.00
02485              -0.40     -400.00
02486               0.20     -400.00
02487              -1.40     -200.00
02488              -0.40     -200.00
02489               0.80        0.00
02490              -0.60        0.00
02491              -1.20        0.00
02492               0.40        0.00
02493               0.40      200.00
02494              -0.40      400.00
02495              -0.40      400.00
02496               1.00      400.00
02497               0.60      400.00
02498               0.40      600.00
02499               6.60      800.00
02500              11.80      800.00
02501             -23.40      800.00
02502             -25.00      800.00
02503              25.00     1200.00
02504              25.00     1400.00
02505             -25.00     1000.00
02506             -25.00     1400.00
02507              25.00     1400.00
02508              25.00     1800.00
02509             -25.00     1600.00
02510              25.00     1800.00
02511              25.00     2000.00
02512             -25.00     1800.00
02513             -25.00     2000.00
02514              25.00     2000.00
02515              25.00     2000.00
02516             -25.00     2200.00
02517              25.00     2200.00
02518              25.00     2200.00
02519             -25.00     2400.00
02520             -25.00     2800.00
02521              25.00     2400.00
02522              17.00     2400.00
02523             -25.00     3000.00
02524              25.00     2600.00
02525              25.00     3000.00
02526             -25.00     3000.00
02527             -24.20     3200.00
02528              25.00     3000.00
02529              -7.00     3200.00
02530             -25.00     3200.00
02531              25.00     3200.00
02532              25.00     3200.00
02533             -25.00     3400.00
02534              -6.60     3400.00
02535              25.00     3600.00
02536             -18.80     3800.00
02537             -25.00     3600.00
02538              25.00     3800.00
02539              25.00     3800.00
02540             -25.00     4000.00
02541              15.80     3800.00
02542              25.00     4000.00
02543             -25.00     4000.00
02544             -15.80     4000.00
02545              25.00     4000.00
02546               0.40     4400.00
02547             -25.00     4400.00
02548              23.80     4400.00
02549              22.80     4400.00
02550             -22.80     4600.00
02551               3.80     4400.00
02552              25.00     4600.00
02553              -8.40     4600.00
02554              -9.40     4600.00
02555              25.00     4800.00
02556               7.80     4800.00
02557             -14.80     4800.00
02558              15.00     4800.00
02559              18.40     4800.00
02560             -10.00     5000.00
02561               2.80     5000.00
02562              21.20     5000.00
02563               0.20     5200.00
02564              -3.80     5200.00
02565              17.20     5200.00
02566               9.40     5200.00
02567              -4.60     5400.00
02568              10.00     5400.00
02569              15.00     5400.00
02570              -0.60     5400.00
02571               3.60     5400.00
02572              15.80     5400.00
02573               6.20     5600.00
02574               0.40     5600.00
02575              11.80     5600.00
02576              11.60     5600.00
02577               2.20     5600.00
02578               7.40     5600.00
02579              13.20     5600.00
02580               5.80     5800.00
02581               4.60     5600.00
02582              12.40     5600.00
02583               9.80     5800.00
02584               4.40     5600.00
02585               9.40     5800.00
02586              12.20     5600.00
02587               6.80     5600.00
02588               7.40     6000.00
02589              11.80     5800.00
02590               9.80     5600.00
02591               7.60     5800.00
02592              10.00     5800.00
02593              10.60     6000.00
02594               8.60     6000.00
02595               9.40     6000.00
02596              10.80     6000.00
02597               9.40     5800.00
02598               9.20     5800.00
02599              10.60     5600.00
02600              10.20     5800.00
02601               9.40     5800.00
02602               9.80     5800.00
02603              10.00     5600.00
02604               9.20     5800.00
02605               9.40     6000.00
02606               9.20     5800.00
02607               9.20     5800.00
02608               9.00     5600.00
02609               9.00     5800.00
02610               8.60     5600.00
02611               8.20     5600.00
02612               9.00     5600.00
02613               8.60     5600.00
02614               8.00     5600.00
02615               7.40     5600.00
02616               7.40     5600.00
02617               7.60     5600.00
02618               8.20     5400.00
02619               7.40     5400.00
02620               7.40     5600.00
02621               6.60     5400.00
02622               7.40     5600.00
02623               7.40     5400.00
02624               6.20     5400.00
02625               6.20     5400.00
02626               7.40     5400.00
02627               5.80     5400.00
02628               5.80     5200.00
02629               6.80     5200.00
02630               5.80     5200.00
02631               5.40     4800.00
02632               6.60     5000.00
02633               6.00     5000.00
02634               4.60     5000.00
02635               5.40     4800.00
02636               6.60     4800.00
02637               5.00     4800.00
02638               4.60     4600.00
02639               5.80     4600.00
02640               5.00     4600.00
02641               4.20     4600.00
02642               5.00     4600.00
02643               4.80     4400.00
02644               3.80     4400.00
02645               4.40     4400.00
02646               5.20     4400.00
02647               4.00     4200.00
02648               3.60     4200.00
02649               4.20     4400.00
02650               4.20     4000.00
02651               3.60     4000.00
02652               3.80     4000.00
02653               3.60     4000.00
02654               3.60     3800.00
02655               3.60     3800.00
02656               3.60     3600.00
02657               3.40     3600.00
02658               3.00     3600.00
02659               3.40     3600.00
02660               3.20     3400.00
02661               2.80     3600.00
02662               2.60     3200.00
02663               3.00     3200.00
02664               3.00     3000.00
02665               2.60     3200.00
02666               2.80     3200.00
02667               2.60     3000.00
02668               2.40     2800.00
02669               2.60     2800.00
02670               2.20     2800.00
02671               2.20     2600.00
02672               2.20     2600.00
02673               2.00     2400.00
02674               2.00     2400.00
02675               1.80     2200.00
02676               1.40     2200.00
02677               1.80     2200.00
02678               1.80     2200.00
02679               1.20     2000.00
02680               1.20     2000.00
02681               1.40     1800.00
02682               1.20     1800.00
02683               1.20     1600.00
02684               1.00     1800.00
02685               1.00     1400.00
02686               1.00     1400.00
02687               1.20     1400.00
02688               1.00     1200.00
02689               0.40     1200.00
02690               0.60     1000.00
02691               0.80     1200.00
02692               0.60      800.00
02693               0.20     1000.00
02694               0.40      800.00
02695               0.20      800.00
02696               0.20      600.00
02697               0.40      600.00
02698              -0.20      400.00
02699              -0.20      400.00
02700               0.20      400.00
02701              -0.20      200.00
02702              -0.20        0.00
02703               0.40        0.00
02704              -0.20        0.00
02705              -0.20     -200.00
02706              -0.20     -200.00
02707              -0.20     -400.00
02708              -0.60     -400.00
02709              -0.60     -400.00
02710              -0.80     -400.00
02711              -0.20     -600.00
02712               6.60     -600.00
02713              12.40    -1000.00
02714             -25.00    -1000.00
02715             -25.00     -800.00
02716              25.00    -1000.00
02717              25.00    -1200.00
02718             -25.00    -1400.00
02719             -23.00    -1000.00
02720              25.00    -1400.00
02721               3.40    -1600.00
02722             -25.00    -1600.00
02723              25.00    -1600.00
02724              25.00    -1800.00
02725             -25.00    -2000.00
02726             -25.00    -1800.00
02727              25.00    -2000.00
02728              25.00    -2400.00
02729             -25.00    -2000.00
02730              25.00    -2200.00
02731              25.00    -2400.00
02732             -25.00    -2400.00
02733             -25.00    -2400.00
02734              25.00    -2600.00
02735              18.60    -2800.00
02736             -25.00    -2600.00
02737              25.00    -3000.00
02738              25.00    -2800.00
02739             -25.00    -2800.00
02740             -25.00    -3200.00
02741              25.00    -3200.00
02742              -6.20    -3200.00
02743             -25.00    -3400.00
02744              25.00    -3200.00
02745              25.00    -3400.00
02746             -25.00    -3400.00
02747             -25.00    -3600.00
02748              25.00    -3600.00
02749              -6.80    -3600.00
02750             -25.00    -3800.00
02751              25.00    -3800.00
02752              25.00    -4000.00
02753             -25.00    -4000.00
02754               3.40    -4200.00
02755              25.00    -4000.00
02756             -25.00    -4200.00
02757             -25.00    -4200.00
02758              25.00    -4200.00
02759              -6.20    -4200.00
02760             -25.00    -4400.00
02761               8.20    -4400.00
02762              14.80    -4400.00
02763             -25.00    -4400.00
02764             -12.40    -4400.00
02765              18.80    -4800.00
02766             -13.20    -4600.00
02767             -22.40    -4800.00
02768              12.80    -4600.00
02769              -2.00    -4800.00
02770             -24.40    -4800.00
02771               2.20    -4800.00
02772               5.00    -5000.00
02773             -19.00    -5000.00
02774              -9.00    -5200.00
02775               6.00    -5200.00
02776             -10.00    -5000.00
02777             -16.40    -5200.00
02778               2.00    -5200.00
02779              -2.00    -5200.00
02780             -18.20    -5400.00
02781              -5.00    -5400.00
02782               2.60    -5200.00
02783             -14.80    -5400.00
02784             -12.40    -5600.00
02785               2.00    -5600.00
02786              -7.80    -5600.00
02787             -15.80    -5600.00
02788              -4.40    -5600.00
02789              -2.60    -5600.00
02790             -14.60    -5600.00
02791              -9.80    -5800.00
02792              -2.00    -5600.00
02793             -10.60    -5600.00
02794             -13.00    -5800.00
02795              -4.40    -5800.00
02796              -6.80    -5800.00
02797             -14.00    -5800.00
02798              -8.60    -5800.00
02799              -4.60    -5800.00
02800             -11.40    -6000.00
02801             -12.40    -5800.00
02802              -6.60    -5800.00
02803              -8.60    -6000.00
02804             -13.00    -5800.00
02805              -9.80    -6000.00
02806              -7.80    -6000.00
02807             -11.00    -6000.00
02808             -11.40    -6000.00
02809              -8.60    -5800.00
02810              -9.80    -6000.00
02811             -11.40    -5800.00
02812             -10.20    -6000.00
02813              -9.40    -5800.00
02814             -10.60    -6000.00
02815             -11.00    -6000.00
02816              -9.60    -6000.00
02817              -9.40    -5800.00
02818             -10.20    -5800.00
02819             -10.80    -5800.00
02820              -9.80    -6000.00
02821              -9.40    -5800.00
02822             -10.20    -5800.00
02823              -9.40    -5800.00
02824              -9.00    -5800.00
02825              -9.40    -5800.00
02826              -9.40    -5800.00
02827              -8.20    -5600.00
02828              -8.40    -5600.00
02829              -9.20    -5800.00
02830              -8.40    -5600.00
02831              -7.40    -5600.00
02832              -8.40    -5600.00
02833              -8.60    -5600.00
02834              -7.60    -5600.00
02835              -7.00    -5600.00
02836              -8.20    -5600.00
02837              -7.80    -5600.00
02838              -6.80    -5400.00
02839              -7.00    -5400.00
02840              -7.60    -5200.00
02841              -6.60    -5200.00
02842              -6.20    -5200.00
02843              -7.40    -5200.00
02844              -6.00    -5200.00
02845              -5.80    -5000.00
02846              -6.60    -5000.00
02847              -6.80    -5000.00
02848              -5.80    -5000.00
02849              -5.00    -4800.00
02850              -5.80    -4800.00
02851              -6.80    -4600.00
02852              -4.60    -4600.00
02853              -5.40    -4600.00
02854              -6.00    -4800.00
02855              -4.60    -4400.00
02856              -4.40    -4600.00
02857              -6.00    -4600.00
02858              -4.20    -4400.00
02859              -4.40    -4400.00
02860              -5.40    -4200.00
02861              -4.80    -4200.00
02862              -4.40    -4200.00
02863              -4.40    -4200.00
02864              -4.40    -4200.00
02865              -4.40    -4200.00
02866              -4.20    -4000.00
02867              -4.20    -4000.00
02868              -4.40    -4000.00
02869              -4.20    -3600.00
02870              -3.80    -3800.00
02871              -4.20    -3600.00
02872              -3.80    -3600.00
02873              -3.40    -3600.00
02874              -3.80    -3400.00
02875              -3.60    -3400.00
02876              -3.20    -3200.00
02877              -3.00    -3400.00
02878              -3.40    -3200.00
02879              -3.40    -3200.00
02880              -3.00    -3200.00
02881              -3.40    -3200.00
02882              -3.00    -3000.00
02883              -2.80    -2800.00
02884              -3.00    -2800.00
02885              -2.60    -2800.00
02886              -2.60    -2600.00
02887              -2.80    -2400.00
02888              -2.60    -2400.00
02889              -2.80    -2400.00
02890              -2.20    -2400.00
02891              -2.20    -2200.00
02892              -2.20    -2200.00
02893              -2.20    -2000.00
02894              -2.00    -2000.00
02895              -2.00    -1800.00
02896              -2.00    -1800.00
02897              -2.00    -1800.00
02898              -2.00    -1600.00
02899              -1.40    -1600.00
02900              -1.40    -1600.00
02901              -1.80    -1400.00
02902              -1.40    -1600.00
02903              -1.20    -1200.00
02904              -1.20    -1200.00
02905              -1.20    -1000.00
02906              -1.00    -1000.00
02907              -1.20     -800.00
02908              -1.20     -800.00
02909              -1.00     -800.00
02910              -0.60     -600.00
02911              -1.00     -800.00
02912              -0.60     -400.00
02913              -0.20     -400.00
02914              -0.60     -400.00
02915              -1.00     -200.00
02916               0.20        0.00
02917               0.20     -200.00
02918              -0.40        0.00
02919               0.40      200.00
02920               1.00      200.00
02921               0.40      200.00
02922              -0.20      400.00
02923               0.00      400.00
02924               0.60      600.00
02925               1.00      600.00
02926               4.60      800.00
02927              13.80      800.00
02928             -15.00      600.00
02929             -25.00      800.00
02930              25.00     1000.00
02931              25.00     1200.00
02932             -25.00     1200.00
02933             -25.00     1400.00
02934              25.00     1400.00
02935              25.00     1800.00
02936             -25.00     1400.00
02937             -12.20     1800.00
02938              25.00     1800.00
02939             -17.00     1600.00
02940             -25.00     2000.00
02941              25.00     2000.00
02942              25.00     2000.00
02943             -25.00     2200.00
02944              -2.00     2200.00
02945              25.00     2200.00
02946             -25.00     2200.00
02947             -25.00     2600.00
02948              25.00     2400.00
02949              25.00     2400.00
02950             -25.00     2800.00
02951              25.00     2800.00
02952              25.00     2800.00
02953             -25.00     3000.00
02954             -25.00     3200.00
02955              25.00     2800.00
02956              23.60     3200.00
02957             -25.00     3200.00
02958              25.00     3000.00
02959              25.00     3200.00
02960             -25.00     3600.00
02961             -25.00     3400.00
02962              25.00     3600.00
02963               3.60     3600.00
02964             -25.00     3600.00
02965              25.00     3800.00
02966              25.00     3800.00
02967             -25.00     4000.00
02968              -2.00     3800.00
02969              25.00     4000.00
02970             -17.00     4000.00
02971             -25.00     4000.00
02972              25.00     4000.00
02973              13.60     4400.00
02974             -25.00     4400.00
02975              14.80     4200.00
02976              25.00     4400.00
02977             -18.40     4400.00
02978              -4.40     4400.00
02979              25.00     4400.00
02980              -0.20     4600.00
02981             -14.80     4800.00
02982              21.20     4800.00
02983              14.80     4800.00
02984             -14.20     4800.00
02985               8.60     4800.00
02986              21.80     4800.00
02987              -5.20     5000.00
02988              -2.80     5000.00
02989              20.20     5200.00
02990               6.40     5200.00
02991              -6.00     5200.00
02992              13.20     5200.00
02993              14.00     5200.00
02994              -3.60     5400.00
02995               5.40     5400.00
02996              17.00     5400.00
02997               2.60     5400.00
02998              -0.40     5400.00
02999              14.60     5400.00
03000              10.20     5400.00
03001              -0.60     5400.00
03002               8.80     5600.00
03003              14.20     5600.00
03004               3.00     5400.00
03005               5.20     5600.00
03006              13.40     5600.00
03007               7.80     5600.00
03008               3.60     5600.00
03009              11.00     5600.00
03010              11.20     5600.00
03011               4.60     5600.00
03012               7.80     5600.00
03013              12.40     5600.00
03014               8.40     5600.00
03015               6.00     6000.00
03016              10.60     5600.00
03017              10.80     5800.00
03018               7.40     5800.00
03019               9.00     5600.00
03020              10.80     5800.00
03021               9.00     5800.00
03022               8.60     5800.00
03023              10.80     6000.00
03024              10.00     6000.00
03025               8.80     5800.00
03026              10.00     6000.00
03027              10.80     5600.00
03028               9.40     5800.00
03029               9.40     5800.00
03030               9.80     5800.00
03031              10.00     5600.00
03032               9.00     5600.00
03033               9.00     5800.00
03034               9.20     5800.00
03035               9.40     5800.00
03036               9.00     5600.00
03037               9.00     5800.00
03038               9.00     5600.00
03039               8.40     5600.00
03040               7.80     5600.00
03041               8.40     5600.00
03042               8.00     5600.00
03043               7.00     5600.00
03044               8.00     5400.00
03045               9.00     5600.00
03046               6.80     5600.00
03047               7.40     5400.00
03048               7.60     5400.00
03049               7.20     5600.00
03050               6.80     5400.00
03051               6.80     5400.00
03052               6.80     5200.00
03053               6.60     5200.00
03054               6.20     5200.00
03055               6.40     5400.00
03056               6.60     5200.00
03057               5.80     5200.00
03058               5.80     5000.00
03059               6.60     5000.00
03060               5.80     5000.00
03061               5.00     4800.00
03062               5.40     4800.00
03063               6.20     5000.00
03064               4.40     4800.00
03065               4.40     4800.00
03066               5.80     4600.00
03067               4.60     4600.00
03068               4.20     4600.00
03069               5.40     4400.00
03070               4.40     4400.00
03071               3.80     4400.00
03072               4.60     4400.00
03073               4.60     4200.00
03074               3.60     4400.00
03075               4.00     4200.00
03076               4.20     4200.00
03077               4.20     4000.00
03078               3.60     4000.00
03079               3.60     4000.00
03080               3.60     3800.00
03081               3.40     3800.00
03082               3.40     3800.00
03083               3.40     3600.00
03084               2.80     3600.00
03085               3.40     3600.00
03086               3.40     3400.00
03087               3.00     3400.00
03088               2.80     3200.00
03089               2.60     3400.00
03090               2.60     3200.00
03091               2.80     3200.00
03092               2.60     3200.00
03093               2.20     3000.00
03094               2.80     3000.00
03095               2.60     2800.00
03096               2.00     2800.00
03097               2.20     2600.00
03098               2.20     2800.00
03099               1.80     2600.00
03100               2.00     2600.00
03101               2.20     2400.00
03102               2.00     2400.00
03103               1.80     2200.00
03104               1.80     2200.00
03105               2.00     2200.00
03106               1.40     2000.00
03107               1.20     2000.00
03108               1.40     2000.00
03109               1.40     2000.00
03110               1.20     1600.00
03111               1.00     1800.00
03112               1.40     1600.00
03113               1.20     1400.00
03114               1.00     1400.00
03115               1.00     1400.00
03116               1.00     1200.00
03117               0.60     1200.00
03118               0.60     1200.00
03119               1.00      800.00
03120               0.60      800.00
03121               0.20      800.00
03122               0.40      600.00
03123               0.40      600.00
03124               0.20      600.00
03125               0.20      400.00
03126               0.20      400.00
03127               0.20      400.00
03128              -0.40      200.00
03129              -1.00        0.00
03130               0.80     -200.00
03131              -0.40        0.00
03132              -1.60     -200.00
03133               1.00     -200.00
03134               0.60     -400.00
03135              -1.80     -400.00
03136              -0.40     -400.00
03137               0.60     -400.00
03138              -1.60     -800.00
03139               3.40     -800.00
03140              15.40     -800.00
03141             -19.00    -1000.00
03142             -25.00     -800.00
03143              25.00    -1000.00
03144              25.00    -1000.00
03145             -25.00    -1600.00
03146             -25.00    -1000.00
03147              25.00    -1400.00
03148              25.00    -1600.00
03149             -25.00    -1600.00
03150               7.00    -1600.00
03151              25.00    -1800.00
03152             -25.00    -2000.00
03153             -25.00    -1800.00
03154              25.00    -2000.00
03155              25.00    -2200.00
03156             -25.00    -2000.00
03157              -8.60    -2200.00
03158              25.00    -2400.00
03159             -25.00    -2600.00
03160             -25.00    -2400.00
03161              25.00    -2800.00
03162              25.00    -2600.00
03163             -25.00    -2600.00
03164              25.00    -2800.00
03165              25.00    -2800.00
03166             -25.00    -3000.00
03167             -25.00    -3000.00
03168              25.00    -3200.00
03169              23.40    -3200.00
03170             -25.00    -3200.00
03171               9.00    -3400.00
03172              25.00    -3400.00
03173             -25.00    -3400.00
03174             -25.00    -3400.00
03175              25.00    -3600.00
03176              19.60    -3600.00
03177             -25.00    -3600.00
03178              22.20    -3800.00
03179              25.00    -3800.00
03180             -25.00    -4000.00
03181             -17.20    -4000.00
03182              25.00    -4000.00
03183             -24.60    -4000.00
03184             -25.00    -4200.00
03185              25.00    -4200.00
03186               5.40    -4200.00
03187             -25.00    -4400.00
03188              -0.60    -4400.00
03189              18.80    -4400.00
03190             -19.00    -4400.00
03191             -19.80    -4400.00
03192              17.20    -4600.00
03193              -4.20    -4600.00
03194             -25.00    -4800.00
03195               7.40    -4800.00
03196               6.20    -4600.00
03197             -24.60    -4600.00
03198              -4.40    -5000.00
03199               9.60    -5000.00
03200             -16.20    -5000.00
03201             -15.00    -5000.00
03202               6.80    -5200.00
03203              -4.80    -5000.00
03204             -19.80    -5200.00
03205              -1.00    -5200.00
03206               3.20    -5200.00
03207             -18.60    -5200.00
03208             -10.00    -5200.00
03209               5.40    -5400.00
03210             -12.40    -5400.00
03211             -16.60    -5600.00
03212               1.80    -5400.00
03213              -4.20    -5600.00
03214             -17.80    -5600.00
03215              -6.80    -5600.00
03216              -0.60    -5600.00
03217             -13.00    -5600.00
03218             -13.00    -5600.00
03219              -2.20    -5600.00
03220              -7.60    -5600.00
03221             -15.00    -5800.00
03222              -6.40    -5800.00
03223              -4.40    -5800.00
03224             -13.40    -5800.00
03225             -11.40    -5800.00
03226              -3.60    -5800.00
03227              -9.20    -5800.00
03228             -14.60    -5800.00
03229              -7.40    -5800.00
03230              -6.20    -5800.00
03231             -13.40    -5800.00
03232             -10.80    -5800.00
03233              -6.20    -6000.00
03234             -11.00    -5800.00
03235             -12.80    -5800.00
03236              -7.80    -5800.00
03237              -8.40    -5800.00
03238             -12.60    -6000.00
03239             -10.60    -6000.00
03240              -8.60    -6000.00
03241             -10.80    -5800.00
03242             -11.40    -5800.00
03243              -9.40    -6000.00
03244              -9.20    -5800.00
03245             -10.60    -5800.00
03246             -10.60    -6000.00
03247              -9.40    -5800.00
03248              -9.40    -5800.00
03249             -10.00    -5800.00
03250              -9.20    -5800.00
03251              -9.00    -5800.00
03252              -9.00    -5800.00
03253              -9.80    -5800.00
03254              -8.40    -5600.00
03255              -7.80    -5800.00
03256              -9.00    -5600.00
03257              -8.60    -5600.00
03258              -7.60    -5600.00
03259              -8.20    -5800.00
03260              -9.40    -5600.00
03261              -7.60    -5600.00
03262              -7.00    -5400.00
03263              -8.20    -5400.00
03264              -7.60    -5400.00
03265              -6.80    -5600.00
03266              -6.80    -5200.00
03267              -7.60    -5400.00
03268              -7.60    -5400.00
03269              -6.60    -5200.00
03270              -7.00    -5000.00
03271              -6.80    -5200.00
03272              -6.20    -5000.00
03273              -6.60    -5200.00
03274              -7.60    -5200.00
03275              -6.00    -5000.00
03276              -4.40    -5000.00
03277              -5.80    -4800.00
03278              -6.60    -4800.00
03279              -5.20    -4600.00
03280              -5.80    -4600.00
03281              -8.20    -4600.00
03282              -5.60    -4600.00
03283              -5.00    -4400.00
03284              -6.40    -4400.00
03285              -2.80    -4400.00
03286              -2.60    -4400.00
03287              -5.00    -4200.00
03288              -5.20    -4400.00
03289              -6.00    -4200.00
03290              -6.60    -4200.00
03291              -5.20    -4200.00
03292              -4.60    -4000.00
03293              -3.60    -4000.00
03294              -2.20    -4000.00
03295              -2.20    -3800.00
03296              -3.80    -4000.00
03297              -5.20    -3600.00
03298              -5.20    -3800.00
03299              -5.40    -3600.00
03300              -3.80    -3600.00
03301              -2.20    -3400.00
03302              -2.40    -3400.00
03303              -1.40    -3400.00
03304              -1.80    -3200.00
03305              -4.40    -3200.00
03306              -4.40    -3200.00
03307              -3.80    -3200.00
03308              -4.20    -3000.00
03309              -2.60    -3000.00
03310              -1.40    -2800.00
03311              -1.20    -2600.00
03312              -2.00    -2600.00
03313              -2.80    -2600.00
03314              -3.00    -2600.00
03315              -3.80    -2400.00
03316              -3.40    -2400.00
03317              -1.40    -2400.00
03318              -1.20    -2400.00
03319              -1.80    -2200.00
03320              -0.60    -2000.00
03321              -1.40    -2000.00
03322              -3.40    -1800.00
03323              -2.20    -1800.00
03324              -2.20    -1800.00
03325              -2.20    -1800.00
03326              -1.00    -1600.00
03327              -0.40    -1600.00
03328              -2.00    -1200.00
03329              -1.40    -1400.00
03330              -0.40    -1200.00
03331              -2.40    -1200.00
03332              -2.80    -1000.00
03333               0.20    -1000.00
03334              -0.60    -1000.00
03335              -2.80     -800.00
03336               0.20     -800.00
03337               1.00     -400.00
03338              -2.40     -600.00
03339              -2.20     -400.00
03340               0.60     -400.00
03341              -1.00     -200.00
03342              -2.80     -400.00
03343               1.40     -200.00
03344               2.00        0.00
03345              -3.00        0.00
03346              -1.20        0.00
03347               3.40        0.00
03348              -0.20      400.00
03349              -3.00      200.00
03350               1.40      600.00
03351               2.00      400.00
03352              -1.20      400.00
03353               3.40      800.00
03354              15.00      800.00
03355              -8.20      800.00
03356             -25.00      800.00
03357              24.40     1000.00
03358              25.00     1200.00
03359             -23.40     1200.00
03360             -25.00     1400.00
03361              25.00     1400.00
03362              25.00     1800.00
03363             -25.00     1400.00
03364             -25.00     1800.00
03365              25.00     1600.00
03366              25.00     1600.00
03367             -25.00     2000.00
03368              25.00     2000.00
03369              25.00     2000.00
03370             -25.00     2200.00
03371             -25.00     2200.00
03372              25.00     2400.00
03373               2.80     2200.00
03374             -25.00     2600.00
03375              25.00     2400.00
03376              25.00     2400.00
03377             -25.00     2800.00
03378             -10.40     2800.00
03379              25.00     2800.00
03380             -25.00     3000.00
03381             -25.00     3200.00
03382              25.00     3000.00
03383              25.00     3200.00
03384             -25.00     3200.00
03385               3.00     3200.00
03386              25.00     3200.00
03387             -25.00     3600.00
03388             -25.00     3600.00
03389              25.00     3400.00
03390              25.00     3800.00
03391             -25.00     3800.00
03392              18.80     3600.00
03393              25.00     3800.00
03394             -25.00     4000.00
03395             -19.80     3800.00
03396              25.00     4000.00
03397              -1.40     4000.00
03398             -25.00     4000.00
03399              25.00     4000.00
03400              25.00     4200.00
03401             -25.00     4400.00
03402               2.60     4400.00
03403              25.00     4400.00
03404              -9.80     4400.00
03405             -12.20     4600.00
03406              25.00     4600.00
03407               7.60     4600.00
03408             -17.80     4600.00
03409              14.80     4800.00
03410              19.60     4800.00
03411             -11.80     4800.00
03412               3.40     4800.00
03413              22.80     4800.00
03414              -1.40     5000.00
03415              -6.60     5000.00
03416              18.20     5200.00
03417               9.40     5000.00
03418              -6.60     5200.00
03419              11.60     5200.00
03420              15.80     5200.00
03421              -2.80     5400.00
03422               2.20     5200.00
03423              16.40     5400.00
03424               5.00     5400.00
03425              -0.40     5600.00
03426              13.20     5400.00
03427              12.20     5600.00
03428               0.40     5400.00
03429               6.60     5600.00
03430              14.00     5600.00
03431               5.20     5600.00
03432               3.80     5600.00
03433              12.60     5600.00
03434              10.00     5600.00
03435               3.40     5600.00
03436               9.60     5600.00
03437              12.20     5600.00
03438               5.60     5600.00
03439               6.40     5800.00
03440              13.00     5600.00
03441               9.80     5600.00
03442               5.40     5800.00
03443              10.60     5800.00
03444              11.60     6000.00
03445               7.40     5800.00
03446               8.60     5800.00
03447              11.60     5800.00
03448               9.20     6000.00
03449               8.40     5600.00
03450              10.80     5800.00
03451              10.00     5600.00
03452               8.40     6000.00
03453               9.80     5800.00
03454              10.60     5800.00
03455               9.80     6000.00
03456               9.40     5600.00
03457               9.80     5800.00
03458               9.80     5800.00
03459               9.20     5800.00
03460               9.00     6000.00
03461               9.20     5600.00
03462               9.20     5800.00
03463               9.00     5600.00
03464               9.00     5600.00
03465               9.00     5600.00
03466               8.40     5600.00
03467               7.40     5600.00
03468               8.20     5600.00
03469               8.20     5600.00
03470               7.80     5600.00
03471               7.60     5600.00
03472               8.40     5600.00
03473               7.40     5600.00
03474               7.00     5400.00
03475               6.80     5400.00
03476               7.60     5400.00
03477               6.80     5400.00
03478               6.60     5400.00
03479               6.20     5200.00
03480               6.60     5200.00
03481               6.40     5200.00
03482               6.00     5200.00
03483               6.60     5200.00
03484               6.00     5200.00
03485               5.80     5000.00
03486               6.60     5000.00
03487               6.20     4800.00
03488               5.20     5000.00
03489               5.20     5000.00
03490               6.00     4800.00
03491               5.20     4800.00
03492               4.40     4600.00
03493               5.80     4800.00
03494               5.20     4600.00
03495               4.60     4600.00
03496               5.20     4600.00
03497               5.00     4400.00
03498               4.40     4400.00
03499               4.40     4400.00
03500               5.00     4400.00
03501               4.20     4200.00
03502               4.00     4200.00
03503               4.20     4200.00
03504               4.20     4000.00
03505               3.80     4000.00
03506               4.20     4000.00
03507               3.80     3800.00
03508               3.60     3800.00
03509               3.60     3800.00
03510               3.60     3600.00
03511               3.40     3800.00
03512               3.40     3600.00
03513               3.00     3400.00
03514               3.00     3600.00
03515               3.40     3400.00
03516               3.00     3200.00
03517               2.40     3200.00
03518               3.40     3200.00
03519               2.80     3000.00
03520               1.20     3000.00
03521               2.80     3000.00
03522               3.00     2800.00
03523               1.20     3000.00
03524               2.20     2800.00
03525               2.60     2800.00
03526               1.20     2400.00
03527               1.60     2600.00
03528               2.80     2400.00
03529               1.80     2400.00
03530               1.20     2200.00
03531               2.20     2200.00
03532               1.80     2000.00
03533               1.00     2200.00
03534               1.20     2000.00
03535               1.80     2000.00
03536               1.00     1800.00
03537               1.00     1800.00
03538               1.20     1800.00
03539               1.20     1600.00
03540               0.80     1600.00
03541               1.00     1400.00
03542               1.00     1400.00
03543               0.40     1200.00
03544               0.60     1200.00
03545               1.20     1200.00
03546               0.60     1000.00
03547               0.40      800.00
03548               0.60      800.00
03549               0.40      600.00
03550               0.40      600.00
03551               0.40      600.00
03552               0.40      400.00
03553              -0.40      400.00
03554               0.20      200.00
03555               0.40      400.00
03556              -0.40        0.00
03557              -0.40        0.00
03558               0.40        0.00
03559              -0.40     -200.00
03560               0.00     -200.00
03561               0.40     -200.00
03562              -0.40     -400.00
03563              -1.00     -400.00
03564              -0.40     -400.00
03565              -0.20     -600.00
03566               2.00     -400.00
03567              14.60     -800.00
03568              -8.20    -1000.00
03569             -25.00     -800.00
03570              25.00    -1000.00
03571              25.00    -1000.00
03572             -25.00    -1400.00
03573             -25.00    -1000.00
03574              25.00    -1400.00
03575              25.00    -1600.00
03576             -25.00    -1800.00
03577             -25.00    -1600.00
03578              25.00    -1600.00
03579               6.80    -2000.00
03580             -25.00    -1800.00
03581              25.00    -2000.00
03582              25.00    -2200.00
03583             -25.00    -2000.00
03584             -25.00    -2000.00
03585              25.00    -2400.00
03586               9.20    -2400.00
03587             -25.00    -2400.00
03588              25.00    -2600.00
03589              25.00    -2800.00
03590             -25.00    -2600.00
03591             -15.00    -2800.00
03592              25.00    -2800.00
03593             -25.00    -2800.00
03594             -25.00    -2800.00
03595              25.00    -3200.00
03596              25.00    -3200.00
03597             -25.00    -3200.00
03598             -16.40    -3400.00
03599              25.00    -3400.00
03600             -19.20    -3400.00
03601             -25.00    -3400.00
03602              25.00    -3600.00
03603              25.00    -3600.00
03604             -25.00    -3600.00
03605              -2.60    -3600.00
03606              25.00    -4000.00
03607             -25.00    -3800.00
03608             -25.00    -4000.00
03609              25.00    -4000.00
03610              -8.00    -4000.00
03611             -25.00    -4200.00
03612              21.00    -4200.00
03613              16.20    -4200.00
03614             -25.00    -4200.00
03615              -8.60    -4400.00
03616              21.80    -4400.00
03617             -13.20    -4400.00
03618             -25.00    -4400.00
03619              13.40    -4600.00
03620               2.60    -4600.00
03621             -25.00    -4800.00
03622               2.00    -4600.00
03623              10.20    -4600.00
03624             -22.80    -4800.00
03625              -8.80    -5000.00
03626              10.00    -5000.00
03627             -12.20    -5000.00
03628             -16.60    -5000.00
03629               3.80    -5000.00
03630              -2.00    -5200.00
03631             -18.20    -5000.00
03632              -4.40    -5200.00
03633               3.60    -5200.00
03634             -15.40    -5200.00
03635             -12.40    -5200.00
03636               4.20    -5400.00
03637              -8.60    -5200.00
03638             -16.60    -5600.00
03639              -1.20    -5600.00
03640              -2.20    -5600.00
03641             -15.80    -5800.00
03642              -9.00    -5600.00
03643              -0.60    -5600.00
03644             -10.80    -5600.00
03645             -13.40    -5600.00
03646              -3.40    -5600.00
03647              -6.60    -5600.00
03648             -14.60    -5800.00
03649              -7.80    -5600.00
03650              -4.60    -5800.00
03651             -12.40    -5800.00
03652             -11.60    -5800.00
03653              -5.00    -5600.00
03654              -9.00    -5800.00
03655             -13.20    -5800.00
03656              -8.60    -5800.00
03657              -7.00    -5800.00
03658             -11.80    -5800.00
03659             -11.00    -5800.00
03660              -8.00    -5800.00
03661             -10.00    -6000.00
03662             -11.60    -5800.00
03663              -9.80    -6000.00
03664              -9.40    -5800.00
03665             -11.40    -5800.00
03666             -10.80    -6000.00
03667              -9.40    -5800.00
03668             -10.20    -5800.00
03669             -10.80    -5800.00
03670             -10.40    -5800.00
03671             -10.00    -5800.00
03672             -10.20    -5800.00
03673             -10.40    -5800.00
03674             -10.40    -5800.00
03675              -9.40    -5800.00
03676              -9.20    -5800.00
03677              -9.40    -5800.00
03678              -9.20    -5800.00
03679              -9.20    -5800.00
03680              -9.40    -5800.00
03681              -9.00    -5800.00
03682              -8.60    -5800.00
03683              -8.60    -5600.00
03684              -8.40    -5600.00
03685              -7.80    -5600.00
03686              -7.60    -5600.00
03687              -8.60    -5600.00
03688              -8.20    -5600.00
03689              -7.00    -5600.00
03690              -7.60    -5600.00
03691              -8.20    -5600.00
03692              -6.00    -5200.00
03693              -7.00    -5400.00
03694              -8.20    -5200.00
03695              -6.20    -5400.00
03696              -6.20    -5200.00
03697              -8.20    -5200.00
03698              -6.20    -5000.00
03699              -5.00    -5000.00
03700              -6.80    -5000.00
03701              -6.60    -5000.00
03702              -5.20    -5000.00
03703              -6.20    -5000.00
03704              -6.00    -4800.00
03705              -6.00    -4600.00
03706              -5.80    -4800.00
03707              -5.20    -4600.00
03708              -5.40    -4600.00
03709              -5.40    -4600.00
03710              -4.60    -4400.00
03711              -5.40    -4400.00
03712              -5.20    -4400.00
03713              -4.20    -4400.00
03714              -4.40    -4400.00
03715              -5.20    -4200.00
03716              -5.00    -4200.00
03717              -4.60    -4400.00
03718              -4.60    -4000.00
03719              -4.60    -4000.00
03720              -4.40    -4000.00
03721              -3.80    -4200.00
03722              -3.80    -3800.00
03723              -4.80    -4000.00
03724              -3.80    -3800.00
03725              -3.60    -3600.00
03726              -4.40    -3800.00
03727              -3.40    -3600.00
03728              -3.60    -3400.00
03729              -4.20    -3200.00
03730              -3.00    -3400.00
03731              -3.40    -3400.00
03732              -4.20    -3200.00
03733              -2.60    -3000.00
03734              -3.00    -3200.00
03735              -3.80    -3000.00
03736              -2.20    -2800.00
03737              -2.80    -3000.00
03738              -3.40    -2800.00
03739              -2.80    -2600.00
03740              -2.80    -2600.00
03741              -3.00    -2600.00
03742              -2.80    -2400.00
03743              -2.20    -2400.00
03744              -2.20    -2400.00
03745              -2.00    -2200.00
03746              -2.60    -2200.00
03747              -2.00    -2000.00
03748              -1.40    -2000.00
03749              -2.20    -2000.00
03750              -2.00    -2000.00
03751              -1.40    -1800.00
03752              -2.00    -1800.00
03753              -2.20    -1600.00
03754              -1.40    -1600.00
03755              -1.60    -1600.00
03756              -1.80    -1200.00
03757              -0.60    -1400.00
03758              -1.40    -1200.00
03759              -1.40    -1200.00
03760              -0.20     -800.00
03761              -1.20    -1000.00
03762              -1.20     -800.00
03763              -0.60     -800.00
03764              -1.00     -600.00
03765              -1.80     -600.00
03766              -0.40     -600.00
03767              -0.20     -400.00
03768              -1.80     -400.00
03769              -0.60     -200.00
03770               0.60     -200.00
03771              -0.60        0.00
03772              -0.20        0.00
03773               0.60        0.00
03774               0.00      200.00
03775               0.00      400.00
03776               0.00      400.00
03777              -0.40      400.00
03778              -0.20      400.00
03779               0.60      600.00
03780               2.60      600.00
03781              11.80      800.00
03782              -1.20      800.00
03783             -25.00      800.00
03784               7.60     1000.00
03785              25.00     1200.00
03786              -2.80     1400.00
03787             -25.00     1000.00
03788              25.00     1400.00
03789              25.00     1400.00
03790             -25.00     1400.00
03791             -25.00     1800.00
03792              25.00     1800.00
03793              25.00     1600.00
03794             -25.00     2000.00
03795              15.20     2000.00
03796              25.00     2000.00
03797             -25.00     2000.00
03798             -25.00     2200.00
03799              25.00     2200.00
03800              25.00     2200.00
03801             -25.00     2400.00
03802              25.00     2400.00
03803              25.00     2600.00
03804             -25.00     2600.00
03805             -25.00     2800.00
03806              25.00     2600.00
03807              11.60     2800.00
03808             -25.00     3000.00
03809              25.00     2800.00
03810              25.00     3200.00
03811             -25.00     3200.00
03812             -23.00     3200.00
03813              25.00     3200.00
03814              -5.20     3600.00
03815             -25.00     3400.00
03816              25.00     3400.00
03817              25.00     3600.00
03818             -25.00     3800.00
03819              -1.00     3800.00
03820              25.00     3800.00
03821             -22.00     3800.00
03822             -25.00     4000.00
03823              25.00     4000.00
03824              14.80     4000.00
03825             -25.00     4000.00
03826              17.80     4000.00
03827              25.00     4200.00
03828             -24.20     4200.00
03829              -7.00     4200.00
03830              25.00     4400.00
03831              -1.00     4400.00
03832             -18.80     4600.00
03833              23.20     4400.00
03834              16.60     4600.00
03835             -18.80     4800.00
03836               8.40     4600.00
03837              24.60     4800.00
03838              -8.60     4800.00
03839              -3.60     4800.00
03840              23.60     4800.00
03841               5.00     5200.00
03842              -9.80     5000.00
03843              15.40     5000.00
03844              14.60     5000.00
03845              -6.60     5200.00
03846               5.80     5200.00
03847              18.20     5200.00
03848               0.40     5200.00
03849              -0.40     5200.00
03850              16.40     5400.00
03851               8.20     5400.00
03852              -2.20     5400.00
03853              10.60     5400.00
03854              14.20     5400.00
03855               1.00     5600.00
03856               4.60     5400.00
03857              14.60     5600.00
03858               6.80     5600.00
03859               2.20     5600.00
03860              11.60     5600.00
03861              11.00     5600.00
03862               3.00     5800.00
03863               8.40     5600.00
03864              13.00     5600.00
03865               6.60     5600.00
03866               5.40     5600.00
03867              12.20     5600.00
03868              10.60     5800.00
03869               5.20     5800.00
03870               9.20     5600.00
03871              12.20     6000.00
03872               7.60     5800.00
03873               7.40     5800.00
03874              12.20     5800.00
03875               9.80     5800.00
03876               6.80     6000.00
03877              11.20     6000.00
03878              12.20     5800.00
03879               7.40     6000.00
03880               7.60     5800.00
03881              13.00     6000.00
03882              10.80     6000.00
03883               6.80     5800.00
03884               9.60     6000.00
03885              12.40     6000.00
03886               9.00     6000.00
03887               8.20     5800.00
03888              10.60     5600.00
03889               9.80     5800.00
03890               7.80     5600.00
03891               9.20     5600.00
03892               9.00     5600.00
03893               8.20     5600.00
03894               8.40     5600.00
03895               9.20     5600.00
03896               8.20     5600.00
03897               6.80     5600.00
03898               8.20     5600.00
03899               8.40     5600.00
03900               7.00     5600.00
03901               7.60     5400.00
03902               7.80     5400.00
03903               6.60     5600.00
03904               7.00     5600.00
03905               7.40     5400.00
03906               6.20     5400.00
03907               6.60     5400.00
03908               6.80     5400.00
03909               5.80     5200.00
03910               6.00     5200.00
03911               6.00     5000.00
03912               5.80     4800.00
03913               5.80     5000.00
03914               6.00     4800.00
03915               5.20     4800.00
03916               5.20     4800.00
03917               5.60     4800.00
03918               5.20     4800.00
03919               4.80     4800.00
03920               5.00     4800.00
03921               5.00     4600.00
03922               4.60     4600.00
03923               4.60     4400.00
03924               5.00     4600.00
03925               4.20     4400.00
03926               4.20     4400.00
03927               5.00     4400.00
03928               3.60     4400.00
03929               3.40     4200.00
03930               4.20     4200.00
03931               4.20     4000.00
03932               3.40     4000.00
03933               3.60     4000.00
03934               3.80     4000.00
03935               3.40     4000.00
03936               3.40     3800.00
03937               3.60     3600.00
03938               3.40     3600.00
03939               2.60     3600.00
03940               3.40     3400.00
03941               3.20     3400.00
03942               2.60     3600.00
03943               2.60     3200.00
03944               2.80     3200.00
03945               2.60     3200.00
03946               2.60     3200.00
03947               2.60     3000.00
03948               2.60     2800.00
03949               2.60     3000.00
03950               2.20     2800.00
03951               2.40     2800.00
03952               2.20     2800.00
03953               1.80     2800.00
03954               2.00     2600.00
03955               2.20     2400.00
03956               2.00     2400.00
03957               1.40     2200.00
03958               1.80     2200.00
03959               1.80     2200.00
03960               1.60     2200.00
03961               1.40     2000.00
03962               1.60     2000.00
03963               1.80     2000.00
03964               1.00     1800.00
03965               1.20     1600.00
03966               1.00     1600.00
03967               0.80     1600.00
03968               1.00     1400.00
03969               1.00     1400.00
03970               1.00     1200.00
03971               0.80     1200.00
03972               0.40     1000.00
03973               0.60     1000.00
03974               0.80     1000.00
03975              -0.20     1000.00
03976               0.20      600.00
03977               1.00      600.00
03978               0.20      400.00
03979              -0.20      400.00
03980               0.40      400.00
03981              -0.40      400.00
03982              -0.40      200.00
03983              -0.20      200.00
03984              -0.20        0.00
03985              -0.40        0.00
03986              -0.20     -200.00
03987              -0.20     -200.00
03988              -0.20     -200.00
03989              -0.20     -400.00
03990              -0.80     -400.00
03991              -1.00     -400.00
03992              -0.20     -600.00
03993               0.80     -800.00
03994              13.00     -800.00
03995               0.20    -1200.00
03996             -25.00     -800.00
03997              21.20     -800.00
03998              25.00    -1000.00
03999             -19.80    -1600.00
04000             -25.00    -1000.00
04001              25.00    -1200.00
04002              25.00    -1400.00
04003             -25.00    -1800.00
04004             -25.00    -1600.00
04005              25.00    -1600.00
04006              25.00    -2000.00
04007             -25.00    -1600.00
04008              25.00    -1800.00
04009              25.00    -2000.00
04010             -25.00    -2400.00
04011             -25.00    -2000.00
04012              25.00    -2400.00
04013              25.00    -2400.00
04014             -25.00    -2200.00
04015              25.00    -2600.00
04016              25.00    -2600.00
04017             -25.00    -2600.00
04018             -25.00    -2800.00
04019              25.00    -3000.00
04020               5.00    -2800.00
04021             -25.00    -2800.00
04022              25.00    -3200.00
04023              25.00    -3200.00
04024             -25.00    -3200.00
04025             -25.00    -3400.00
04026              25.00    -3200.00
04027               7.00    -3400.00
04028             -25.00    -3400.00
04029              25.00    -3400.00
04030              25.00    -3600.00
04031             -25.00    -3800.00
04032             -25.00    -3600.00
04033              25.00    -4000.00
04034             -24.60    -3800.00
04035             -25.00    -4000.00
04036              25.00    -4000.00
04037               9.40    -4000.00
04038             -25.00    -4200.00
04039              10.60    -4200.00
04040              23.80    -4400.00
04041             -25.00    -4200.00
04042             -16.20    -4400.00
04043              20.40    -4400.00
04044              -6.00    -4400.00
04045             -25.00    -4400.00
04046               7.80    -4600.00
04047               8.60    -4600.00
04048             -25.00    -4600.00
04049              -3.80    -4800.00
04050              13.20    -5000.00
04051             -19.60    -4600.00
04052             -13.40    -4800.00
04053              10.40    -4800.00
04054              -8.40    -4800.00
04055             -19.60    -5000.00
04056               2.00    -5000.00
04057               0.60    -5200.00
04058             -17.40    -5000.00
04059              -7.40    -5200.00
04060               3.80    -5200.00
04061             -12.60    -5400.00
04062             -14.60    -5200.00
04063               2.60    -5400.00
04064              -6.20    -5400.00
04065             -17.40    -5400.00
04066              -3.20    -5600.00
04067              -0.60    -5400.00
04068             -14.80    -5600.00
04069             -10.80    -5600.00
04070              -0.40    -5600.00
04071              -9.20    -5600.00
04072             -14.20    -5600.00
04073              -4.20    -5600.00
04074              -6.00    -5800.00
04075             -14.00    -5800.00
04076              -8.60    -5800.00
04077              -4.60    -5600.00
04078             -11.00    -5800.00
04079             -11.80    -5800.00
04080              -6.60    -5800.00
04081              -7.40    -5800.00
04082             -12.60    -6000.00
04083             -10.20    -5800.00
04084              -7.00    -5800.00
04085              -9.40    -5800.00
04086             -11.80    -5800.00
04087              -9.20    -5800.00
04088              -8.40    -6000.00
04089             -11.40    -6000.00
04090             -11.20    -5800.00
04091              -8.40    -6000.00
04092              -9.80    -5800.00
04093             -12.20    -5800.00
04094             -10.00    -5800.00
04095              -8.60    -6000.00
04096             -11.00    -5800.00
04097             -11.60    -5800.00
04098              -8.60    -5800.00
04099              -9.20    -5800.00
04100             -11.60    -5800.00
04101              -9.80    -6000.00
04102              -8.40    -5800.00
04103             -10.20    -5800.00
04104             -10.20    -5800.00
04105              -8.20    -5800.00
04106              -9.00    -5800.00
04107             -10.40    -5800.00
04108              -9.00    -5800.00
04109              -7.60    -5800.00
04110              -9.60    -5800.00
04111              -9.40    -5600.00
04112              -7.20    -5600.00
04113              -7.60    -5600.00
04114              -9.40    -5600.00
04115              -8.20    -5600.00
04116              -6.60    -5600.00
04117              -8.20    -5600.00
04118              -8.20    -5400.00
04119              -6.80    -5200.00
04120              -7.00    -5200.00
04121              -7.80    -5400.00
04122              -7.00    -5400.00
04123              -6.00    -5200.00
04124              -6.80    -5200.00
04125              -7.60    -5200.00
04126              -6.60    -5000.00
04127              -5.80    -5000.00
04128              -7.00    -5000.00
04129              -6.40    -5000.00
04130              -5.40    -5000.00
04131              -6.00    -4600.00
04132              -6.80    -5000.00
04133              -5.80    -4600.00
04134              -5.40    -4600.00
04135              -6.00    -4600.00
04136              -5.20    -4600.00
04137              -4.40    -4600.00
04138              -6.00    -4400.00
04139              -5.00    -4400.00
04140              -4.40    -4400.00
04141              -5.40    -4200.00
04142              -5.80    -4200.00
04143              -4.20    -4200.00
04144              -4.60    -4200.00
04145              -4.40    -4000.00
04146              -4.20    -4000.00
04147              -4.40    -4000.00
04148              -4.40    -4000.00
04149              -3.80    -4000.00
04150              -4.40    -3800.00
04151              -4.60    -3800.00
04152              -3.40    -3800.00
04153              -3.80    -3600.00
04154              -3.80    -3600.00
04155              -3.00    -3400.00
04156              -3.40    -3400.00
04157              -3.60    -3400.00
04158              -3.20    -3200.00
04159              -2.80    -3200.00
04160              -3.40    -3000.00
04161              -3.40    -3200.00
04162              -2.60    -3000.00
04163              -2.80    -3000.00
04164              -3.40    -2800.00
04165              -2.80    -2800.00
04166              -2.20    -2800.00
04167              -2.60    -2600.00
04168              -3.00    -2400.00
04169              -2.40    -2400.00
04170              -2.60    -2400.00
04171              -2.80    -2400.00
04172              -2.20    -2200.00
04173              -1.80    -2200.00
04174              -2.60    -2000.00
04175              -2.20    -2000.00
04176              -2.00    -2000.00
04177              -1.80    -1800.00
04178              -2.20    -1800.00
04179              -2.00    -1600.00
04180              -1.40    -1600.00
04181              -1.80    -1600.00
04182              -1.80    -1400.00
04183              -1.80    -1400.00
04184              -1.80    -1200.00
04185              -1.00    -1000.00
04186              -1.20    -1000.00
04187              -1.40    -1000.00
04188              -1.20    -1000.00
04189              -1.40     -800.00
04190              -1.20     -800.00
04191              -0.40     -800.00
04192              -1.20     -600.00
04193              -1.20     -600.00
04194              -0.40     -400.00
04195              -0.60     -200.00
04196              -1.00     -200.00
04197              -0.40     -200.00
04198              -0.20     -200.00
04199              -0.40        0.00
04200              -0.40        0.00
04201               0.20        0.00
04202               0.60      200.00
04203              -0.20      200.00
04204              -0.20      400.00
04205               0.60      400.00
04206               0.20      600.00
04207               2.00      600.00
04208              10.20      800.00
04209               5.00      800.00
04210             -25.00      800.00
04211             -10.00     1000.00
04212              25.00     1000.00
04213              15.00     1200.00
04214             -25.00     1000.00
04215              10.00     1600.00
04216              25.00     1600.00
04217             -25.00     1400.00
04218             -25.00     1600.00
04219              25.00     1600.00
04220              25.00     1800.00
04221             -25.00     2000.00
04222             -25.00     2000.00
04223              25.00     2000.00
04224             -12.60     2000.00
04225             -25.00     2200.00
04226              25.00     2400.00
04227              25.00     2200.00
04228             -25.00     2400.00
04229               6.80     2400.00
04230              25.00     2600.00
04231             -25.00     2600.00
04232             -25.00     2800.00
04233              25.00     2600.00
04234              25.00     2800.00
04235             -25.00     3000.00
04236              22.80     2800.00
04237              25.00     3000.00
04238             -25.00     3200.00
04239             -25.00     3200.00
04240              25.00     3200.00
04241              19.80     3400.00
04242             -25.00     3400.00
04243              25.00     3200.00
04244              25.00     3600.00
04245             -25.00     3800.00
04246             -21.40     3600.00
04247              25.00     3600.00
04248              -5.00     3800.00
04249             -25.00     4000.00
04250              25.00     4000.00
04251              25.00     4000.00
04252             -25.00     4000.00
04253               5.20     4000.00
04254              25.00     4200.00
04255             -17.00     4200.00
04256             -17.20     4400.00
04257              25.00     4400.00
04258               8.20     4400.00
04259             -22.60     4600.00
04260              16.40     4600.00
04261              23.40     4600.00
04262             -16.40     4600.00
04263               0.40     4600.00
04264              25.00     4800.00
04265              -2.40     4800.00
04266              -9.40     4800.00
04267              20.60     4800.00
04268              11.00     5000.00
04269             -10.80     4800.00
04270              10.00     5200.00
04271              18.20     5000.00
04272              -3.80     5200.00
04273               0.60     5200.00
04274              18.60     5200.00
04275               4.80     5200.00
04276              -3.60     5400.00
04277              13.80     5200.00
04278              12.40     5400.00
04279              -2.60     5400.00
04280               7.40     5400.00
04281              16.20     5600.00
04282               2.40     5600.00
04283               2.80     5600.00
04284              14.20     5600.00
04285               8.40     5600.00
04286               2.20     5600.00
04287              11.40     5600.00
04288              11.60     5600.00
04289               3.40     5600.00
04290               8.20     5600.00
04291              13.00     5800.00
04292               7.00     5600.00
04293               5.80     5600.00
04294              10.80     5600.00
04295              11.60     6000.00
04296               5.20     5800.00
04297               8.60     5800.00
04298              13.20     5600.00
04299               7.60     5800.00
04300               7.40     6000.00
04301              12.20     6000.00
04302               9.40     6000.00
04303               6.60     5800.00
04304              10.80     5800.00
04305              12.60     6000.00
04306               6.20     5800.00
04307               9.00     5800.00
04308              13.20     6000.00
04309               9.00     5800.00
04310               7.60     5800.00
04311              10.80     6000.00
04312              11.00     5800.00
04313               7.60     5600.00
04314               8.20     6000.00
04315              12.20     5800.00
04316               8.60     5600.00
04317               6.80     5800.00
04318              10.80     5600.00
04319              10.00     5600.00
04320               5.40     5600.00
04321               7.80     5600.00
04322              10.80     5600.00
04323               7.80     5600.00
04324               6.80     5600.00
04325               8.40     5600.00
04326               7.80     5400.00
04327               6.80     5600.00
04328               7.00     5400.00
04329               7.60     5400.00
04330               7.40     5400.00
04331               6.80     5400.00
04332               6.80     5400.00
04333               6.80     5400.00
04334               6.60     5200.00
04335               6.00     5200.00
04336               6.20     5200.00
04337               7.20     5200.00
04338               6.00     5200.00
04339               4.80     5200.00
04340               6.60     5000.00
04341               6.60     5000.00
04342               5.00     4800.00
04343               5.40     5200.00
04344               6.40     4800.00
04345               5.40     4800.00
04346               4.40     4800.00
04347               5.20     4600.00
04348               5.20     4800.00
04349               4.60     4600.00
04350               4.60     4600.00
04351               5.00     4400.00
04352               5.00     4400.00
04353               4.40     4400.00
04354               3.80     4200.00
04355               4.40     4400.00
04356               4.60     4200.00
04357               3.60     4200.00
04358               4.20     4000.00
04359               4.20     4000.00
04360               4.20     4000.00
04361               3.00     4000.00
04362               3.60     4000.00
04363               4.40     3800.00
04364               3.00     3800.00
04365               2.80     3800.00
04366               3.80     3600.00
04367               3.00     3600.00
04368               2.00     3400.00
04369               3.40     3600.00
04370               3.00     3400.00
04371               1.80     3200.00
04372               2.60     3200.00
04373               3.40     3200.00
04374               2.60     3000.00
04375               1.60     3000.00
04376               2.60     3000.00
04377               2.60     2800.00
04378               1.40     2800.00
04379               2.00     2800.00
04380               2.60     2800.00
04381               1.80     2600.00
04382               1.40     2400.00
04383               2.00     2400.00
04384               1.80     2200.00
04385               1.00     2200.00
04386               1.60     2200.00
04387               2.00     2200.00
04388               1.40     2000.00
04389               1.20     2000.00
04390               1.40     1800.00
04391               1.20     1800.00
04392               0.60     1600.00
04393               0.60     1800.00
04394               1.00     1600.00
04395               1.00     1400.00
04396               1.20     1400.00
04397               0.60     1200.00
04398               1.00     1200.00
04399               0.60     1200.00
04400               0.40     1000.00
04401               0.40      800.00
04402               0.40      800.00
04403               0.40      800.00
04404               0.40      800.00
04405               0.40      400.00
04406               0.40      600.00
04407               0.20      400.00
04408               0.20      400.00
04409               0.40      200.00
04410              -0.20      200.00
04411              -0.20        0.00
04412               0.20        0.00
04413              -0.40        0.00
04414              -0.20     -200.00
04415               0.40     -200.00
04416               0.20     -400.00
04417              -0.60     -400.00
04418              -0.20     -400.00
04419              -0.40     -400.00
04420               0.20     -600.00
04421              10.80     -800.00
04422               6.80    -1000.00
04423             -25.00    -1000.00
04424               0.20     -800.00
04425              25.00    -1000.00
04426               0.60    -1400.00
04427             -25.00    -1000.00
04428              25.00    -1200.00
04429              25.00    -1600.00
04430             -25.00    -1800.00
04431             -25.00    -1400.00
04432              25.00    -1600.00
04433              25.00    -2000.00
04434             -25.00    -1800.00
04435             -18.80    -1800.00
04436              25.00    -2200.00
04437             -18.00    -2000.00
04438             -25.00    -2000.00
04439              25.00    -2400.00
04440              25.00    -2400.00
04441             -25.00    -2200.00
04442              -1.80    -2600.00
04443              25.00    -2600.00
04444             -25.00    -2600.00
04445             -25.00    -2800.00
04446              25.00    -3000.00
04447              25.00    -2800.00
04448             -25.00    -2800.00
04449              16.40    -3200.00
04450              25.00    -3200.00
04451             -25.00    -3000.00
04452             -25.00    -3200.00
04453              25.00    -3400.00
04454              25.00    -3400.00
04455             -25.00    -3600.00
04456               2.00    -3600.00
04457              25.00    -3600.00
04458             -25.00    -3600.00
04459             -25.00    -3800.00
04460              25.00    -4000.00
04461              -1.20    -3600.00
04462             -25.00    -4000.00
04463              25.00    -4000.00
04464              25.00    -4200.00
04465             -25.00    -4200.00
04466              -3.00    -4200.00
04467              25.00    -4200.00
04468             -22.20    -4200.00
04469             -24.40    -4400.00
04470              17.40    -4400.00
04471               3.40    -4400.00
04472             -25.00    -4400.00
04473               0.20    -4400.00
04474              15.00    -4400.00
04475             -23.40    -4800.00
04476             -12.60    -4600.00
04477              15.40    -4800.00
04478             -13.20    -4800.00
04479             -19.40    -4800.00
04480               8.60    -5000.00
04481              -2.60    -5000.00
04482             -20.40    -5000.00
04483              -2.20    -5000.00
04484               4.00    -5200.00
04485             -15.00    -5000.00
04486             -11.80    -5200.00
04487               4.80    -5200.00
04488              -8.00    -5200.00
04489             -17.80    -5200.00
04490               0.40    -5400.00
04491              -1.40    -5400.00
04492             -17.80    -5400.00
04493              -7.00    -5400.00
04494               1.80    -5600.00
04495             -12.60    -5600.00
04496             -13.40    -5600.00
04497              -1.60    -5600.00
04498              -6.20    -5600.00
04499             -15.00    -5600.00
04500              -6.80    -5600.00
04501              -3.40    -5800.00
04502             -13.00    -5800.00
04503             -11.40    -5600.00
04504              -3.80    -5800.00
04505              -9.20    -5800.00
04506             -14.00    -5800.00
04507              -7.00    -5800.00
04508              -6.00    -5800.00
04509             -13.20    -5800.00
04510             -10.80    -5800.00
04511              -6.00    -5800.00
04512             -10.20    -6000.00
04513             -12.60    -5800.00
04514              -8.60    -6000.00
04515              -8.60    -5800.00
04516             -11.80    -5800.00
04517             -10.80    -5800.00
04518              -8.60    -6000.00
04519             -11.00    -6000.00
04520             -11.60    -5800.00
04521              -9.40    -5800.00
04522              -9.40    -6000.00
04523             -11.20    -6000.00
04524             -11.20    -5800.00
04525              -9.40    -5800.00
04526              -9.80    -5800.00
04527             -11.00    -5600.00
04528             -10.20    -5800.00
04529              -9.00    -5800.00
04530              -9.80    -6000.00
04531             -10.00    -5800.00
04532              -8.60    -5800.00
04533              -9.20    -5600.00
04534              -9.20    -5600.00
04535              -9.00    -5600.00
04536              -8.40    -5600.00
04537              -8.60    -5800.00
04538              -8.60    -5600.00
04539              -8.20    -5800.00
04540              -7.60    -5600.00
04541              -8.00    -5600.00
04542              -8.60    -5600.00
04543              -7.60    -5600.00
04544              -7.00    -5600.00
04545              -8.20    -5200.00
04546              -7.60    -5400.00
04547              -6.80    -5200.00
04548              -7.00    -5200.00
04549              -7.60    -5200.00
04550              -6.20    -5200.00
04551              -6.20    -5200.00
04552              -7.40    -5200.00
04553              -6.20    -5000.00
04554              -5.40    -5200.00
04555              -6.80    -5000.00
04556              -7.00    -5000.00
04557              -5.80    -5000.00
04558              -5.20    -4600.00
04559              -6.20    -4800.00
04560              -6.00    -4600.00
04561              -4.80    -4800.00
04562              -6.00    -4600.00
04563              -6.00    -4600.00
04564              -4.60    -4600.00
04565              -5.40    -4400.00
04566              -5.80    -4600.00
04567              -4.20    -4400.00
04568              -4.60    -4400.00
04569              -6.00    -4400.00
04570              -4.60    -4200.00
04571              -4.20    -4200.00
04572              -4.60    -4200.00
04573              -4.40    -4200.00
04574              -4.40    -4000.00
04575              -4.40    -4000.00
04576              -3.80    -4000.00
04577              -4.20    -3800.00
04578              -4.40    -3600.00
04579              -3.80    -3600.00
04580              -3.80    -3600.00
04581              -3.80    -3600.00
04582              -3.60    -3400.00
04583              -3.60    -3600.00
04584              -3.60    -3200.00
04585              -3.20    -3400.00
04586              -3.00    -3200.00
04587              -3.40    -3200.00
04588              -3.20    -3200.00
04589              -2.80    -3000.00
04590              -2.60    -2800.00
04591              -3.00    -2800.00
04592              -2.80    -2800.00
04593              -2.80    -2800.00
04594              -2.60    -2600.00
04595              -2.80    -2400.00
04596              -2.20    -2600.00
04597              -2.60    -2400.00
04598              -2.60    -2400.00
04599              -1.80    -2400.00
04600              -2.00    -2200.00
04601              -2.20    -2000.00
04602              -2.00    -2000.00
04603              -1.80    -2000.00
04604              -1.80    -1800.00
04605              -1.80    -1800.00
04606              -2.00    -1800.00
04607              -1.60    -1600.00
04608              -1.40    -1600.00
04609              -1.40    -1600.00
04610              -1.20    -1200.00
04611              -1.40    -1200.00
04612              -1.40    -1200.00
04613              -1.20    -1200.00
04614              -1.00    -1000.00
04615              -1.20    -1000.00
04616              -1.20     -800.00
04617              -1.00     -800.00
04618              -0.40     -600.00
04619              -0.60     -400.00
04620              -0.80     -400.00
04621              -0.40     -400.00
04622              -0.60     -400.00
04623              -0.60     -200.00
04624              -0.60     -200.00
04625              -0.20     -200.00
04626              -0.20        0.00
04627              -0.40        0.00
04628               0.20      200.00
04629               0.40        0.00
04630               0.20      400.00
04631              -0.60      200.00
04632               0.20      400.00
04633               0.40      600.00
04634               1.00      600.00
04635               7.60      800.00
04636               9.60      800.00
04637             -25.00      800.00
04638             -24.40      800.00
04639              25.00     1200.00
04640              25.00     1400.00
04641             -25.00     1200.00
04642             -23.00     1400.00
04643              25.00     1600.00
04644              11.20     1400.00
04645             -25.00     1600.00
04646              25.00     1800.00
04647              25.00     1800.00
04648             -25.00     1600.00
04649             -25.00     2200.00
04650              25.00     2000.00
04651              25.00     2000.00
04652             -25.00     2400.00
04653              25.00     2000.00
04654              25.00     2400.00
04655             -25.00     2400.00
04656             -25.00     2600.00
04657              25.00     2600.00
04658              -5.40     2600.00
04659             -25.00     3000.00
04660              25.00     2800.00
04661              25.00     2800.00
04662             -25.00     3200.00
04663              -8.40     3000.00
04664              25.00     3000.00
04665             -23.00     3200.00
04666             -25.00     3200.00
04667              25.00     3200.00
04668              25.00     3400.00
04669             -25.00     3400.00
04670               5.00     3400.00
04671              25.00     3600.00
04672             -25.00     3800.00
04673             -25.00     3600.00
04674              25.00     3600.00
04675              15.40     3800.00
04676             -25.00     4000.00
04677              24.20     3800.00
04678              25.00     4000.00
04679             -25.00     4000.00
04680              -9.00     4000.00
04681              25.00     4200.00
04682              -5.40     4400.00
04683             -25.00     4400.00
04684              25.00     4400.00
04685              19.00     4600.00
04686             -23.60     4400.00
04687               8.20     4600.00
04688              25.00     4600.00
04689             -11.00     4600.00
04690              -6.80     4800.00
04691              25.00     4800.00
04692               4.60     4800.00
04693             -13.20     4800.00
04694              16.40     4800.00
04695              16.20     4800.00
04696             -10.00     5000.00
04697               4.40     5200.00
04698              20.20     5000.00
04699               0.20     5200.00
04700              -2.80     5200.00
04701              16.80     5200.00
04702               8.80     5200.00
04703              -4.40     5200.00
04704              10.20     5400.00
04705              14.60     5400.00
04706              -0.80     5400.00
04707               4.00     5400.00
04708              15.40     5600.00
04709               6.00     5400.00
04710               1.00     5600.00
04711              11.40     5600.00
04712              10.80     5600.00
04713               2.60     5600.00
04714               7.80     5600.00
04715              12.60     5600.00
04716               6.00     5600.00
04717               5.40     5600.00
04718              12.00     5600.00
04719               9.80     5600.00
04720               4.60     5600.00
04721               9.40     5800.00
04722              12.20     6000.00
04723               6.80     5800.00
04724               7.20     6000.00
04725              11.60     5600.00
04726               9.80     5800.00
04727               7.20     6000.00
04728              10.20     6000.00
04729              10.80     5800.00
04730               8.60     6000.00
04731               9.40     6000.00
04732              11.00     6000.00
04733               9.40     5600.00
04734               9.00     5800.00
04735              10.60     5800.00
04736              10.20     6000.00
04737               9.00     5800.00
04738               9.80     6000.00
04739              10.00     6000.00
04740               9.80     5800.00
04741               9.20     5800.00
04742               9.40     5800.00
04743               9.40     5600.00
04744               9.20     5600.00
04745               9.20     5600.00
04746               9.00     5600.00
04747               8.20     5600.00
04748               8.20     5600.00
04749               8.40     5600.00
04750               8.40     5600.00
04751               8.20     5600.00
04752               8.00     5600.00
04753               8.20     5400.00
04754               7.60     5600.00
04755               7.80     5400.00
04756               7.00     5400.00
04757               6.80     5400.00
04758               7.00     5400.00
04759               7.00     5200.00
04760               6.00     5400.00
04761               6.60     5400.00
04762               6.80     5400.00
04763               6.20     5200.00
04764               6.20     5200.00
04765               6.60     5200.00
04766               5.80     5200.00
04767               5.40     5000.00
04768               6.60     5000.00
04769               5.40     4800.00
04770               4.60     4800.00
04771               6.00     4800.00
04772               5.80     4800.00
04773               4.40     4800.00
04774               5.00     4800.00
04775               5.40     4600.00
04776               4.40     4800.00
04777               4.40     4600.00
04778               5.20     4400.00
04779               4.20     4400.00
04780               3.80     4400.00
04781               4.60     4400.00
04782               4.40     4400.00
04783               3.80     4400.00
04784               3.80     4200.00
04785               4.60     4000.00
04786               3.80     4000.00
04787               3.40     3800.00
04788               4.20     3800.00
04789               3.80     3800.00
04790               3.40     4000.00
04791               3.60     3800.00
04792               3.60     3600.00
04793               3.00     3600.00
04794               3.20     3600.00
04795               3.40     3600.00
04796               3.20     3600.00
04797               2.60     3400.00
04798               2.80     3600.00
04799               3.20     3200.00
04800               2.80     3200.00
04801               2.20     3000.00
04802               2.80     3000.00
04803               2.60     3000.00
04804               2.20     2800.00
04805               2.60     2800.00
04806               2.60     2800.00
04807               1.80     2600.00
04808               2.60     2600.00
04809               2.00     2600.00
04810               1.80     2400.00
04811               1.80     2400.00
04812               2.00     2400.00
04813               1.80     2200.00
04814               1.60     2000.00
04815               1.80     2200.00
04816               1.40     2000.00
04817               1.00     1800.00
04818               1.40     1800.00
04819               1.40     1800.00
04820               0.80     1600.00
04821               1.00     1600.00
04822               1.60     1400.00
04823               1.00     1400.00
04824               0.40     1200.00
04825               1.00     1200.00
04826               1.00     1000.00
04827               0.20     1000.00
04828               0.40      800.00
04829               0.60      800.00
04830              -0.20      800.00
04831               0.20      600.00
04832               0.40      600.00
04833               0.40      400.00
04834              -0.40      400.00
04835               0.20      400.00
04836               0.20      400.00
04837              -0.60      200.00
04838              -0.20        0.00
04839               0.20        0.00
04840              -1.00        0.00
04841               0.40        0.00
04842               0.20     -200.00
04843              -1.20     -400.00
04844               0.00     -400.00
04845              -0.60     -400.00
04846              -1.80     -600.00
04847               0.40     -600.00
04848               8.20     -600.00
04849               9.80    -1000.00
04850             -25.00     -800.00
04851             -21.20     -800.00
04852              25.00    -1000.00
04853              19.00    -1200.00
04854             -25.00    -1400.00
04855              -5.00    -1200.00
04856              25.00    -1400.00
04857             -16.40    -1800.00
04858             -25.00    -1200.00
04859              25.00    -1600.00
04860              25.00    -2000.00
04861             -25.00    -1800.00
04862             -25.00    -1600.00
04863              25.00    -2000.00
04864              25.00    -2400.00
04865             -25.00    -2000.00
04866              25.00    -2200.00
04867              25.00    -2400.00
04868             -25.00    -2400.00
04869             -25.00    -2600.00
04870              25.00    -2600.00
04871              -6.60    -2600.00
04872             -25.00    -2600.00
04873              25.00    -2800.00
04874              25.00    -2800.00
04875             -25.00    -2800.00
04876             -14.20    -3000.00
04877              25.00    -3200.00
04878             -23.00    -3200.00
04879             -25.00    -3200.00
04880              25.00    -3400.00
04881              25.00    -3200.00
04882             -25.00    -3600.00
04883             -22.80    -3400.00
04884              25.00    -3600.00
04885             -21.40    -3600.00
04886             -25.00    -3800.00
04887              25.00    -3600.00
04888              23.00    -4000.00
04889             -25.00    -4000.00
04890              14.00    -4200.00
04891              25.00    -4000.00
04892             -25.00    -4200.00
04893             -17.20    -4200.00
04894              25.00    -4200.00
04895             -13.00    -4200.00
04896             -25.00    -4400.00
04897              12.20    -4400.00
04898              10.00    -4600.00
04899             -25.00    -4400.00
04900              -7.00    -4600.00
04901              17.20    -4600.00
04902             -17.80    -4600.00
04903             -18.20    -4800.00
04904              14.00    -4600.00
04905              -7.00    -4800.00
04906             -22.60    -5000.00
04907               5.20    -5000.00
04908               1.40    -5000.00
04909             -20.00    -5000.00
04910              -6.20    -5000.00
04911               5.20    -5200.00
04912             -12.20    -5000.00
04913             -14.80    -5200.00
04914               3.40    -5200.00
04915              -4.60    -5000.00
04916             -18.20    -5200.00
04917              -2.80    -5400.00
04918               1.00    -5200.00
04919             -15.80    -5600.00
04920             -10.60    -5400.00
04921               1.80    -5600.00
04922              -9.40    -5400.00
04923             -15.00    -5600.00
04924              -3.40    -5600.00
04925              -3.60    -5600.00
04926             -14.60    -5600.00
04927              -8.80    -5600.00
04928              -2.80    -5600.00
04929             -11.60    -5600.00
04930             -12.40    -5800.00
04931              -4.20    -5800.00
04932              -7.60    -5800.00
04933             -14.00    -5800.00
04934              -8.00    -5800.00
04935              -5.20    -5800.00
04936             -12.00    -5800.00
04937             -11.80    -5800.00
04938              -6.60    -6000.00
04939              -9.20    -5800.00
04940             -12.60    -6000.00
04941              -9.20    -5800.00
04942              -8.20    -6000.00
04943             -11.20    -5800.00
04944             -11.00    -6000.00
04945              -8.60    -5800.00
04946              -9.80    -5800.00
04947             -11.60    -6000.00
04948             -10.20    -6000.00
04949              -9.20    -5800.00
04950             -10.80    -5800.00
04951             -11.60    -6000.00
04952              -9.40    -5800.00
04953              -9.40    -6000.00
04954             -10.80    -6000.00
04955             -10.20    -5800.00
04956              -9.40    -5800.00
04957              -9.40    -5800.00
04958              -9.80    -5800.00
04959              -9.20    -5800.00
04960              -9.20    -5800.00
04961              -9.40    -5800.00
04962              -9.20    -5600.00
04963              -8.60    -5800.00
04964              -8.60    -5600.00
04965              -9.20    -5600.00
04966              -8.60    -5600.00
04967              -7.40    -5600.00
04968              -8.40    -5600.00
04969              -8.60    -5600.00
04970              -7.40    -5600.00
04971              -7.00    -5600.00
04972              -8.40    -5600.00
04973              -7.80    -5400.00
04974              -7.00    -5400.00
04975              -7.60    -5400.00
04976              -7.40    -5400.00
04977              -6.20    -5200.00
04978              -6.60    -5400.00
04979              -7.40    -5200.00
04980              -5.80    -5200.00
04981              -5.80    -5000.00
04982              -7.00    -5000.00
04983              -7.00    -5000.00
04984              -5.80    -5000.00
04985              -5.80    -4600.00
04986              -5.80    -4800.00
04987              -6.20    -4600.00
04988              -5.20    -4600.00
04989              -6.00    -4800.00
04990              -5.80    -4600.00
04991              -4.60    -4600.00
04992              -5.40    -4400.00
04993              -5.40    -4400.00
04994              -3.80    -4400.00
04995              -5.00    -4400.00
04996              -5.20    -4200.00
04997              -4.40    -4400.00
04998              -5.00    -4400.00
04999              -4.60    -4200.00
05000              -3.80    -4200.00
