Unit:(mV)
                     CH1         CH2
Frequency              ? 233.969 kHz
00001              -7.80    10000.00
00002               4.20    10000.00
00003               6.60    10400.00
00004              -4.20    10200.00
00005              -0.60    10400.00
00006               6.20    10400.00
00007               0.20    10600.00
00008              -3.00    10400.00
00009               4.20    10600.00
00010               3.60    10800.00
00011              -3.40    10800.00
00012               0.20    10800.00
00013               5.80    11000.00
00014              -0.40    11000.00
00015              -2.20    11000.00
00016               3.80    11000.00
00017               2.20    11000.00
00018              -1.40    11200.00
00019               2.00    11200.00
00020               3.00    11200.00
00021              -0.40    11200.00
00022               1.00    11200.00
00023               3.00    11200.00
00024               0.40    11200.00
00025              -1.00    11400.00
00026               3.00    11200.00
00027               2.60    11400.00
00028              -1.20    11400.00
00029               1.00    11600.00
00030               4.00    11600.00
00031               0.00    11400.00
00032              -0.20    11200.00
00033               3.40    11600.00
00034               1.60    11600.00
00035              -0.40    11400.00
00036               2.00    11600.00
00037               2.60    11600.00
00038               0.20    11400.00
00039               1.00    11600.00
00040               2.20    11600.00
00041               1.40    11600.00
00042               1.20    11600.00
00043               1.40    11600.00
00044               1.20    11400.00
00045               1.20    11400.00
00046               1.40    11400.00
00047               1.40    11200.00
00048               1.00    11400.00
00049               1.40    11200.00
00050               1.40    11200.00
00051               1.20    11200.00
00052               1.40    11000.00
00053               1.40    11200.00
00054               1.40    11200.00
00055               2.00    11000.00
00056               0.80    11000.00
00057               0.60    10800.00
00058               1.20    10800.00
00059               1.80    10800.00
00060               1.00    10800.00
00061               1.00    10800.00
00062               1.20    10800.00
00063               1.40    10400.00
00064               1.00    10600.00
00065               1.00    10400.00
00066               1.20    10400.00
00067               1.00    10200.00
00068               1.00    10200.00
00069               1.00    10000.00
00070               1.00    10000.00
00071               0.60    10000.00
00072               1.00    10000.00
00073               1.00     9800.00
00074               0.60     9600.00
00075               1.00     9600.00
00076               1.00     9600.00
00077               1.00     9400.00
00078               1.00     9400.00
00079               0.60     9200.00
00080               0.60     9200.00
00081               0.60     9000.00
00082               1.00     8800.00
00083               1.20     8800.00
00084               0.40     8800.00
00085               1.00     8600.00
00086               1.00     8600.00
00087               0.60     8400.00
00088               0.40     8400.00
00089               0.40     8200.00
00090               0.60     8000.00
00091               0.60     8000.00
00092               1.00     7800.00
00093               0.40     7800.00
00094               0.20     7600.00
00095               1.00     7400.00
00096               1.00     7200.00
00097               0.40     7200.00
00098               0.20     7000.00
00099               1.00     6800.00
00100               0.60     6600.00
00101               0.20     6400.00
00102               0.60     6600.00
00103               0.60     6200.00
00104               0.20     6200.00
00105               0.60     6000.00
00106               0.60     6000.00
00107              -0.20     6000.00
00108               0.60     5600.00
00109               0.80     5600.00
00110               0.20     5400.00
00111               0.40     5200.00
00112               0.60     5000.00
00113               0.40     4800.00
00114               0.20     4600.00
00115               0.40     4400.00
00116               0.40     4400.00
00117               0.20     4400.00
00118               0.60     4200.00
00119               0.20     3800.00
00120               0.20     3600.00
00121               0.20     3600.00
00122              -0.40     3600.00
00123               0.60     3400.00
00124               0.20     3200.00
00125               0.00     2800.00
00126               0.20     2800.00
00127              -0.20     2800.00
00128               0.00     2400.00
00129               0.20     2200.00
00130               0.20     2200.00
00131              -0.40     2000.00
00132              -0.20     1800.00
00133              -0.20     1600.00
00134              -0.40     1600.00
00135              -0.40     1200.00
00136              -0.60     1200.00
00137               0.20      800.00
00138              -0.20      800.00
00139              -0.60      600.00
00140              -0.60      400.00
00141              -0.20      400.00
00142              -0.40        0.00
00143              -1.00        0.00
00144              -0.40     -200.00
00145               0.60     -400.00
00146               0.40     -400.00
00147              -0.60     -600.00
00148              -1.20     -800.00
00149              -0.20    -1000.00
00150              -0.20    -1000.00
00151              -0.80    -1200.00
00152               2.80    -1600.00
00153              25.00    -1800.00
00154              -8.60    -2000.00
00155             -25.00    -2200.00
00156             -20.20    -2200.00
00157              25.00    -2000.00
00158              25.00    -2600.00
00159             -25.00    -2800.00
00160             -25.00    -2400.00
00161              25.00    -3200.00
00162              25.00    -3200.00
00163             -25.00    -3000.00
00164              25.00    -3600.00
00165              25.00    -3600.00
00166             -25.00    -3600.00
00167              24.60    -4000.00
00168              25.00    -4200.00
00169             -25.00    -4200.00
00170              10.00    -4400.00
00171               4.20    -4600.00
00172              25.00    -4800.00
00173             -19.80    -5000.00
00174             -25.00    -4800.00
00175              25.00    -5400.00
00176              25.00    -5200.00
00177             -25.00    -5400.00
00178              25.00    -5800.00
00179              25.00    -5600.00
00180             -25.00    -6000.00
00181              12.20    -6200.00
00182              25.00    -6200.00
00183             -22.60    -6400.00
00184             -25.00    -6400.00
00185              25.00    -6800.00
00186              20.80    -6800.00
00187             -25.00    -6800.00
00188              19.40    -7400.00
00189              25.00    -7200.00
00190             -25.00    -7400.00
00191             -19.80    -7600.00
00192              25.00    -7600.00
00193               6.80    -7600.00
00194             -25.00    -8000.00
00195              17.80    -8200.00
00196              20.80    -8200.00
00197             -25.00    -8200.00
00198              -3.80    -8400.00
00199              22.60    -8400.00
00200              -7.60    -8600.00
00201             -22.40    -8800.00
00202              17.00    -8800.00
00203               6.20    -9000.00
00204             -23.40    -9000.00
00205               6.20    -9200.00
00206              13.00    -9200.00
00207             -15.40    -9200.00
00208              -6.60    -9400.00
00209              14.60    -9600.00
00210              -7.00    -9600.00
00211             -13.40    -9600.00
00212               9.80    -9600.00
00213               3.00   -10000.00
00214             -13.40   -10000.00
00215               0.40   -10000.00
00216               8.40   -10400.00
00217             -10.20   -10200.00
00218              -5.60   -10600.00
00219               8.00   -10400.00
00220              -3.00   -10600.00
00221              -8.60   -10600.00
00222               2.80   -10600.00
00223               3.80   -10800.00
00224              -9.00   -10800.00
00225              -3.40   -10800.00
00226               6.00   -10800.00
00227              -3.80   -10800.00
00228              -6.80   -10800.00
00229               2.60   -11200.00
00230               0.40   -11000.00
00231              -6.80   -11000.00
00232              -1.40   -11200.00
00233               2.60   -11000.00
00234              -4.40   -11200.00
00235              -4.40   -11400.00
00236               2.40   -11200.00
00237              -1.40   -11400.00
00238              -5.20   -11200.00
00239              -0.20   -11400.00
00240               0.20   -11400.00
00241              -3.60   -11400.00
00242              -3.00   -11600.00
00243              -0.20   -11600.00
00244              -1.00   -11400.00
00245              -2.80   -11600.00
00246              -2.20   -11400.00
00247              -0.60   -11400.00
00248              -0.80   -11400.00
00249              -3.00   -11600.00
00250              -2.20   -11600.00
00251              -0.40   -11400.00
00252              -2.00   -11600.00
00253              -2.60   -11400.00
00254              -0.60   -11400.00
00255              -1.20   -11600.00
00256              -3.20   -11400.00
00257              -2.00   -11400.00
00258              -0.40   -11400.00
00259              -2.00   -11600.00
00260              -2.20   -11400.00
00261              -1.40   -11400.00
00262              -2.00   -11400.00
00263              -2.00   -11200.00
00264              -2.00   -11400.00
00265              -1.80   -11000.00
00266              -1.80   -11200.00
00267              -2.00   -11200.00
00268              -1.20   -11000.00
00269              -2.20   -11200.00
00270              -2.60   -11000.00
00271              -1.40   -11000.00
00272              -1.00   -10800.00
00273              -2.20   -10800.00
00274              -2.40   -10800.00
00275              -1.40   -10600.00
00276              -2.00   -10600.00
00277              -1.80   -10600.00
00278              -1.80   -10400.00
00279              -2.00   -10400.00
00280              -1.20   -10400.00
00281              -2.80   -10400.00
00282              -1.00   -10000.00
00283              -0.80   -10000.00
00284              -3.80   -10000.00
00285              -0.60   -10000.00
00286              -0.60    -9800.00
00287              -3.80    -9800.00
00288              -0.40    -9600.00
00289              -2.00    -9600.00
00290              -1.40    -9600.00
00291              -2.00    -9600.00
00292              -1.40    -9200.00
00293              -1.20    -9200.00
00294              -1.20    -9200.00
00295              -1.60    -9000.00
00296              -2.20    -9000.00
00297              -0.60    -8800.00
00298              -2.00    -8600.00
00299              -2.80    -8600.00
00300               1.20    -8600.00
00301              -2.60    -8400.00
00302              -1.80    -8200.00
00303              -0.60    -8200.00
00304              -1.80    -8200.00
00305              -0.60    -8000.00
00306              -2.40    -7600.00
00307              -1.80    -7600.00
00308               0.20    -7400.00
00309              -1.60    -7400.00
00310              -2.20    -7200.00
00311              -0.20    -7200.00
00312              -1.20    -6800.00
00313              -2.20    -6800.00
00314              -0.20    -6800.00
00315              -1.00    -6600.00
00316              -2.20    -6400.00
00317              -1.00    -6400.00
00318              -0.20    -6200.00
00319              -2.20    -6000.00
00320              -0.80    -5800.00
00321              -0.20    -5800.00
00322              -1.80    -5600.00
00323              -1.60    -5400.00
00324              -0.60    -5200.00
00325              -1.20    -5000.00
00326              -1.80    -5000.00
00327              -0.40    -4800.00
00328              -0.40    -4600.00
00329              -1.40    -4400.00
00330              -1.40    -4400.00
00331              -0.60    -4200.00
00332              -1.20    -4200.00
00333              -1.20    -4000.00
00334              -0.60    -3800.00
00335              -0.60    -3600.00
00336              -1.20    -3400.00
00337              -0.80    -3200.00
00338              -1.00    -3200.00
00339              -1.20    -3000.00
00340              -0.80    -2800.00
00341              -0.60    -2600.00
00342              -0.60    -2400.00
00343              -1.00    -2400.00
00344              -0.80    -2200.00
00345              -0.20    -2000.00
00346              -0.40    -1800.00
00347              -1.20    -1600.00
00348              -0.60    -1600.00
00349              -0.20    -1200.00
00350              -0.80    -1200.00
00351              -0.60    -1000.00
00352              -0.20     -800.00
00353              -0.40     -600.00
00354              -0.60     -400.00
00355               0.20     -400.00
00356              -0.20     -200.00
00357              -1.20        0.00
00358               0.40        0.00
00359               1.00      400.00
00360               0.60      600.00
00361              -1.00      600.00
00362               0.20      800.00
00363               1.00     1000.00
00364              -0.60     1200.00
00365               0.20     1200.00
00366               4.40     1400.00
00367              15.40     1800.00
00368               4.20     2000.00
00369             -25.00     2200.00
00370             -21.00     2000.00
00371               7.40     2200.00
00372              25.00     2800.00
00373              -5.60     2400.00
00374             -25.00     2800.00
00375              25.00     3200.00
00376              25.00     3000.00
00377             -25.00     3200.00
00378              -2.00     3600.00
00379              25.00     3600.00
00380             -25.00     3600.00
00381             -25.00     4400.00
00382              25.00     4000.00
00383             -25.00     4400.00
00384             -25.00     4600.00
00385              24.40     4400.00
00386              24.80     4600.00
00387             -11.60     5000.00
00388             -25.00     5000.00
00389              25.00     5400.00
00390              25.00     5600.00
00391             -25.00     5600.00
00392               1.00     5600.00
00393              25.00     6000.00
00394             -25.00     6000.00
00395             -25.00     6200.00
00396              25.00     6200.00
00397              15.80     6400.00
00398             -25.00     6600.00
00399              15.80     6600.00
00400              25.00     6800.00
00401             -25.00     7000.00
00402             -10.80     7000.00
00403              25.00     7200.00
00404              -6.40     7400.00
00405             -25.00     7600.00
00406              21.80     7800.00
00407              16.80     7800.00
00408             -25.00     7800.00
00409               0.60     8200.00
00410              23.60     8200.00
00411             -10.60     8400.00
00412             -12.40     8400.00
00413              17.20     8400.00
00414               5.40     8600.00
00415             -17.20     8600.00
00416               5.80     8800.00
00417              14.80     8800.00
00418             -12.80     9000.00
00419              -3.80     9200.00
00420              17.20     9200.00
00421              -3.60     9400.00
00422             -11.20     9400.00
00423              13.00     9400.00
00424               5.00     9600.00
00425             -12.40     9800.00
00426               5.20     9800.00
00427              10.60     9800.00
00428              -7.80    10000.00
00429              -2.20    10200.00
00430              10.20    10200.00
00431              -2.00    10200.00
00432              -5.00    10400.00
00433               7.40    10400.00
00434               3.20    10600.00
00435              -5.00    10600.00
00436               2.60    10400.00
00437               6.40    10800.00
00438              -2.00    10800.00
00439              -2.60    10800.00
00440               5.80    11000.00
00441               2.80    11000.00
00442              -3.60    11000.00
00443               2.20    11000.00
00444               4.40    11000.00
00445              -2.00    11000.00
00446               0.00    11000.00
00447               4.60    11200.00
00448               0.20    11200.00
00449              -1.40    11200.00
00450               3.20    11200.00
00451               2.80    11200.00
00452              -1.20    11400.00
00453               0.60    11200.00
00454               4.20    11400.00
00455               1.00    11400.00
00456              -1.20    11400.00
00457               2.60    11600.00
00458               2.00    11200.00
00459              -0.40    11400.00
00460               1.00    11600.00
00461               2.40    11200.00
00462               0.20    11600.00
00463               0.40    11600.00
00464               2.40    11600.00
00465               1.20    11600.00
00466              -0.20    11400.00
00467               1.40    11600.00
00468               2.60    11600.00
00469               0.20    11600.00
00470               0.60    11400.00
00471               2.60    11400.00
00472               1.00    11400.00
00473               0.40    11400.00
00474               2.00    11200.00
00475               1.00    11200.00
00476              -0.40    11200.00
00477               1.60    11200.00
00478               2.60    11200.00
00479               0.80    11200.00
00480               1.20    11000.00
00481               1.40    11200.00
00482               0.40    11000.00
00483               1.00    11000.00
00484               1.40    11000.00
00485               1.00    11000.00
00486               1.40    10800.00
00487               1.80    10800.00
00488               1.20    10800.00
00489               0.40    10800.00
00490               0.80    10800.00
00491               1.40    10400.00
00492               1.20    10600.00
00493               0.60    10600.00
00494               1.40    10400.00
00495               1.20    10400.00
00496               0.60    10200.00
00497               0.80    10000.00
00498               1.00    10200.00
00499               1.00    10000.00
00500               1.40    10000.00
00501               1.40     9600.00
00502               0.40     9600.00
00503               1.00     9600.00
00504               1.20     9600.00
00505               1.00     9400.00
00506               0.60     9400.00
00507               1.00     9200.00
00508               0.80     9200.00
00509               1.00     9000.00
00510               1.20     8800.00
00511               1.00     8800.00
00512               0.60     8600.00
00513               1.20     8600.00
00514               1.00     8400.00
00515               1.00     8400.00
00516               1.00     8400.00
00517               1.00     8200.00
00518               1.00     8000.00
00519               0.60     7800.00
00520               1.00     7800.00
00521               0.40     7600.00
00522               0.40     7400.00
00523               0.60     7200.00
00524               0.40     7200.00
00525               0.60     7200.00
00526               0.40     7000.00
00527               0.40     6800.00
00528               0.60     6800.00
00529               0.60     6400.00
00530               0.40     6400.00
00531               0.20     6200.00
00532               0.80     6000.00
00533               0.40     6000.00
00534               0.40     5600.00
00535               0.40     5600.00
00536               0.40     5600.00
00537               0.40     5400.00
00538               0.20     5200.00
00539               0.20     5000.00
00540               0.20     4800.00
00541               0.20     4800.00
00542               0.40     4600.00
00543               0.20     4400.00
00544              -0.20     4400.00
00545               0.40     4000.00
00546               0.40     4000.00
00547               0.20     3800.00
00548               0.20     3600.00
00549               0.20     3600.00
00550              -0.20     3400.00
00551              -0.20     3200.00
00552               0.20     3000.00
00553              -0.20     2800.00
00554              -0.20     2800.00
00555               0.20     2600.00
00556               0.20     2400.00
00557              -0.60     2200.00
00558              -0.20     2000.00
00559               0.40     2000.00
00560              -0.20     1600.00
00561               0.00     1800.00
00562              -0.20     1400.00
00563              -0.20     1200.00
00564              -0.40     1000.00
00565              -0.20      800.00
00566              -0.20      800.00
00567               0.20      600.00
00568              -0.60      400.00
00569              -0.20        0.00
00570               0.20        0.00
00571              -0.60     -200.00
00572              -0.20     -200.00
00573               1.20     -400.00
00574               1.00     -600.00
00575              -1.20     -800.00
00576              -0.60     -800.00
00577               0.60    -1000.00
00578              -0.40    -1200.00
00579               0.00    -1200.00
00580              14.20    -1600.00
00581              17.20    -2000.00
00582             -25.00    -2000.00
00583             -25.00    -2400.00
00584               5.00    -2000.00
00585              25.00    -2400.00
00586              -3.00    -2800.00
00587             -25.00    -2400.00
00588              25.00    -2800.00
00589              25.00    -3400.00
00590             -25.00    -3200.00
00591             -25.00    -3200.00
00592              25.00    -4000.00
00593             -19.80    -3600.00
00594             -25.00    -3800.00
00595              25.00    -4200.00
00596             -25.00    -4000.00
00597             -25.00    -4400.00
00598              11.40    -4600.00
00599              18.80    -4600.00
00600              25.00    -5000.00
00601             -25.00    -4800.00
00602              25.00    -5200.00
00603              25.00    -5600.00
00604             -25.00    -5200.00
00605              -4.60    -5800.00
00606              25.00    -5800.00
00607             -25.00    -5600.00
00608             -25.00    -6200.00
00609              25.00    -6000.00
00610              18.40    -6400.00
00611             -25.00    -6400.00
00612               6.80    -6600.00
00613              25.00    -6800.00
00614             -25.00    -6800.00
00615             -21.80    -7200.00
00616              25.00    -7200.00
00617              -5.20    -7200.00
00618             -25.00    -7400.00
00619              10.00    -7400.00
00620              25.00    -7800.00
00621             -25.00    -7800.00
00622             -13.40    -8000.00
00623              25.00    -8200.00
00624             -14.20    -8200.00
00625             -21.20    -8400.00
00626              17.40    -8400.00
00627               9.80    -8400.00
00628             -24.40    -8800.00
00629               0.00    -8800.00
00630              20.40    -9000.00
00631             -17.60    -9000.00
00632              -9.40    -9000.00
00633              17.40    -9200.00
00634              -4.40    -9200.00
00635             -16.40    -9400.00
00636              10.00    -9600.00
00637               6.00    -9600.00
00638             -16.60    -9600.00
00639               1.00    -9800.00
00640              10.60    -9800.00
00641              -9.20   -10000.00
00642              -8.40   -10000.00
00643               9.80   -10000.00
00644              -2.00   -10400.00
00645             -11.40   -10400.00
00646               5.20   -10400.00
00647               3.20   -10400.00
00648              -9.40   -10400.00
00649              -2.60   -10600.00
00650               6.80   -10600.00
00651              -4.40   -10800.00
00652              -9.00   -10600.00
00653               4.80   -10800.00
00654               1.40   -10800.00
00655              -9.00   -11000.00
00656              -0.60   -11000.00
00657               3.80   -11200.00
00658              -5.80   -11000.00
00659              -4.40   -11000.00
00660               3.00   -11200.00
00661              -2.60   -11000.00
00662              -6.80   -11200.00
00663               1.20   -11200.00
00664               1.00   -11400.00
00665              -6.20   -11200.00
00666              -1.80   -11400.00
00667               1.80   -11400.00
00668              -3.00   -11400.00
00669              -4.60   -11400.00
00670               0.20   -11400.00
00671              -0.40   -11600.00
00672              -4.40   -11400.00
00673              -1.80   -11600.00
00674              -0.20   -11400.00
00675              -3.00   -11400.00
00676              -2.80   -11400.00
00677              -0.60   -11400.00
00678              -1.40   -11400.00
00679              -3.40   -11600.00
00680              -1.40   -11600.00
00681              -0.60   -11400.00
00682              -2.80   -11600.00
00683              -2.00   -11600.00
00684              -1.20   -11600.00
00685              -2.60   -11400.00
00686              -0.60   -11600.00
00687              -2.40   -11400.00
00688              -2.00   -11400.00
00689              -1.20   -11400.00
00690              -2.20   -11400.00
00691              -2.00   -11000.00
00692              -1.00   -11000.00
00693              -2.60   -11200.00
00694              -2.00   -11000.00
00695              -0.40   -11000.00
00696              -2.00   -11000.00
00697              -2.60   -11000.00
00698              -1.00   -11000.00
00699              -1.40   -10800.00
00700              -2.00   -10800.00
00701              -1.80   -10800.00
00702              -1.40   -10800.00
00703              -1.80   -10600.00
00704              -1.40   -10600.00
00705              -1.20   -10600.00
00706              -1.80   -10400.00
00707              -2.00   -10400.00
00708              -1.20   -10400.00
00709              -1.40   -10200.00
00710              -1.80   -10200.00
00711              -1.40   -10000.00
00712              -1.80   -10000.00
00713              -1.00    -9800.00
00714              -2.00    -9800.00
00715              -2.00    -9800.00
00716              -1.80    -9800.00
00717              -1.00    -9600.00
00718              -1.40    -9200.00
00719              -1.80    -9600.00
00720              -1.40    -9400.00
00721              -1.20    -9200.00
00722              -1.40    -9200.00
00723              -2.20    -9000.00
00724              -1.20    -9000.00
00725              -1.40    -8800.00
00726              -1.80    -8800.00
00727              -1.20    -8400.00
00728              -1.00    -8400.00
00729              -1.80    -8400.00
00730              -1.40    -8400.00
00731              -1.20    -8200.00
00732              -1.20    -8000.00
00733              -1.40    -7800.00
00734              -2.00    -7600.00
00735              -1.00    -7600.00
00736              -1.20    -7400.00
00737              -1.80    -7400.00
00738              -1.20    -7200.00
00739              -1.20    -7000.00
00740              -1.40    -6800.00
00741              -1.20    -6800.00
00742              -1.00    -6600.00
00743              -1.60    -6600.00
00744              -1.20    -6400.00
00745              -0.60    -6200.00
00746              -1.00    -6000.00
00747              -1.20    -5800.00
00748              -1.00    -5800.00
00749              -1.20    -5800.00
00750              -1.00    -5600.00
00751              -1.20    -5600.00
00752              -1.40    -5200.00
00753              -0.80    -5000.00
00754              -0.60    -5000.00
00755              -1.20    -4600.00
00756              -1.00    -4600.00
00757              -0.40    -4400.00
00758              -1.20    -4200.00
00759              -1.00    -4200.00
00760              -0.40    -4000.00
00761              -1.00    -4000.00
00762              -1.20    -3600.00
00763              -0.20    -3600.00
00764              -0.60    -3400.00
00765              -1.00    -3200.00
00766              -0.60    -3000.00
00767              -0.60    -2800.00
00768              -0.60    -2800.00
00769              -0.40    -2600.00
00770              -0.60    -2400.00
00771              -0.40    -2000.00
00772              -0.60    -2200.00
00773              -0.60    -2000.00
00774              -0.40    -1800.00
00775              -0.20    -1600.00
00776              -1.00    -1400.00
00777              -0.20    -1200.00
00778               0.20    -1000.00
00779              -0.60     -800.00
00780              -0.80     -400.00
00781               0.20     -600.00
00782              -0.40     -400.00
00783              -0.40        0.00
00784              -0.40        0.00
00785              -0.60        0.00
00786               0.20      400.00
00787               1.60      600.00
00788              -0.40      600.00
00789              -1.40      600.00
00790               0.60      800.00
00791               1.20     1200.00
00792              -0.80     1200.00
00793               1.20     1400.00
00794              10.20     1800.00
00795              15.80     2000.00
00796             -21.20     2000.00
00797             -25.00     2200.00
00798              -7.40     2000.00
00799              25.00     2400.00
00800              25.00     2800.00
00801             -25.00     2600.00
00802             -14.20     3000.00
00803              25.00     3200.00
00804             -25.00     3000.00
00805             -25.00     3600.00
00806              25.00     3400.00
00807              25.00     3600.00
00808             -25.00     4000.00
00809              25.00     4400.00
00810              25.00     4000.00
00811             -25.00     4400.00
00812               5.20     4600.00
00813              25.00     4600.00
00814              10.00     4800.00
00815             -25.00     5000.00
00816              -2.60     5200.00
00817              25.00     5400.00
00818             -25.00     5600.00
00819             -25.00     5800.00
00820              25.00     5600.00
00821              14.60     6000.00
00822             -25.00     6200.00
00823              15.60     6200.00
00824              25.00     6400.00
00825             -25.00     6400.00
00826             -21.00     6600.00
00827              25.00     6600.00
00828              -6.20     7000.00
00829             -25.00     7000.00
00830              25.00     7200.00
00831              18.80     7400.00
00832             -25.00     7600.00
00833               1.00     7600.00
00834              25.00     7600.00
00835             -14.20     7800.00
00836             -18.00     8000.00
00837              22.80     8200.00
00838               5.80     8400.00
00839             -19.40     8400.00
00840               6.80     8400.00
00841              16.60     8600.00
00842             -12.40     8600.00
00843              -6.60     8800.00
00844              16.60     9000.00
00845              -1.40     8800.00
00846             -12.40     9000.00
00847              11.40     9200.00
00848               7.60     9400.00
00849             -13.00     9600.00
00850               3.00     9400.00
00851              12.40     9600.00
00852              -8.60     9600.00
00853              -3.80     9800.00
00854              12.20     9600.00
00855              -1.00    10000.00
00856              -7.20    10000.00
00857               6.80    10000.00
00858               4.40    10200.00
00859              -6.00    10400.00
00860               1.20    10400.00
00861               7.00    10400.00
00862              -2.20    10400.00
00863              -3.00    10600.00
00864               5.80    10800.00
00865               3.40    10800.00
00866              -5.00    10800.00
00867               1.20    10800.00
00868               7.00    11000.00
00869              -2.60    11000.00
00870              -2.60    11000.00
00871               6.60    11000.00
00872               1.00    11000.00
00873              -3.80    11200.00
00874               4.20    11000.00
00875               3.60    11200.00
00876              -3.00    11200.00
00877               1.00    11200.00
00878               5.20    11200.00
00879              -0.40    11200.00
00880              -1.40    11200.00
00881               3.60    11600.00
00882               2.20    11400.00
00883              -1.00    11400.00
00884               1.20    11400.00
00885               3.40    11400.00
00886               0.80    11600.00
00887              -0.20    11600.00
00888               2.60    11400.00
00889               1.80    11600.00
00890              -0.20    11800.00
00891               2.00    11400.00
00892               2.80    11600.00
00893              -0.60    11400.00
00894               0.40    11400.00
00895               3.40    11600.00
00896               1.00    11400.00
00897               0.00    11600.00
00898               2.20    11600.00
00899               2.00    11400.00
00900               0.40    11400.00
00901               1.80    11200.00
00902               2.20    11400.00
00903               1.00    11200.00
00904               1.00    11200.00
00905               1.80    11200.00
00906               1.00    11200.00
00907               0.20    11000.00
00908               2.00    11200.00
00909               1.80    11000.00
00910               1.40    11200.00
00911               1.00    11000.00
00912               1.80    11000.00
00913               0.60    11000.00
00914               1.40    10800.00
00915               0.60    10800.00
00916               1.00    10600.00
00917               1.20    10400.00
00918               1.20    10600.00
00919               1.00    10600.00
00920               1.00    10400.00
00921               0.80    10200.00
00922               0.60    10200.00
00923               1.20    10200.00
00924               1.40    10200.00
00925               1.00    10000.00
00926               0.40    10000.00
00927               1.00     9800.00
00928               1.40     9800.00
00929               0.60     9600.00
00930               0.40     9600.00
00931               1.00     9600.00
00932               1.00     9400.00
00933               0.60     9400.00
00934               1.00     9200.00
00935               1.00     9200.00
00936               0.60     9200.00
00937               1.00     9000.00
00938               1.00     8800.00
00939               0.40     8800.00
00940               0.60     8600.00
00941               1.00     8600.00
00942               1.00     8400.00
00943               0.40     8400.00
00944               0.60     8200.00
00945               1.20     8000.00
00946               0.60     8000.00
00947               0.60     7800.00
00948               0.60     7800.00
00949               0.80     7600.00
00950               0.40     7400.00
00951               0.60     7200.00
00952               0.60     7200.00
00953               0.40     7000.00
00954               0.40     6800.00
00955               0.80     6800.00
00956               0.40     6600.00
00957               0.20     6400.00
00958               1.00     6200.00
00959               0.60     6200.00
00960               0.40     6200.00
00961               0.60     6000.00
00962               0.40     5800.00
00963               0.60     5600.00
00964               0.40     5600.00
00965               0.40     5400.00
00966               0.20     5200.00
00967               0.20     5200.00
00968               0.40     4800.00
00969               0.40     4600.00
00970               0.40     4600.00
00971               0.40     4400.00
00972               0.20     4400.00
00973               0.20     4000.00
00974               0.40     3800.00
00975               0.20     3800.00
00976              -0.40     3600.00
00977               0.20     3400.00
00978               0.20     3200.00
00979              -0.20     3000.00
00980               0.20     2800.00
00981              -0.20     2800.00
00982              -0.20     2400.00
00983               0.40     2400.00
00984              -0.40     2400.00
00985              -0.40     2200.00
00986               0.20     2000.00
00987              -0.80     1600.00
00988               0.20     1800.00
00989              -0.20     1600.00
00990              -1.40     1400.00
00991               0.60     1200.00
00992               0.40     1000.00
00993              -1.40      600.00
00994               0.20      600.00
00995               0.60      400.00
00996              -1.60      200.00
00997              -0.40      200.00
00998               0.40     -200.00
00999              -1.20     -200.00
01000               0.20     -400.00
01001               1.80     -400.00
01002              -1.40     -800.00
01003              -1.40     -800.00
01004               0.60    -1000.00
01005              -0.20    -1000.00
01006              -1.20    -1200.00
01007               5.20    -1400.00
01008              25.00    -1800.00
01009             -18.40    -2000.00
01010             -25.00    -2400.00
01011             -17.40    -2000.00
01012              25.00    -2000.00
01013              25.00    -2600.00
01014             -25.00    -2600.00
01015             -20.20    -2400.00
01016              25.00    -3200.00
01017              -5.20    -3200.00
01018             -25.00    -3200.00
01019              25.00    -3600.00
01020              25.00    -3600.00
01021             -25.00    -3600.00
01022              25.00    -4200.00
01023              25.00    -4000.00
01024             -25.00    -4400.00
01025              16.20    -4400.00
01026               5.40    -4400.00
01027              25.00    -4800.00
01028             -25.00    -5000.00
01029             -25.00    -5000.00
01030              25.00    -5600.00
01031             -12.60    -5200.00
01032             -25.00    -5600.00
01033              25.00    -5800.00
01034              15.80    -5600.00
01035             -25.00    -6200.00
01036              25.00    -6000.00
01037              25.00    -6200.00
01038             -25.00    -6400.00
01039             -25.00    -6600.00
01040              25.00    -6800.00
01041               1.40    -6800.00
01042             -25.00    -7200.00
01043              25.00    -7400.00
01044              23.00    -7000.00
01045             -25.00    -7400.00
01046             -13.40    -7400.00
01047              25.00    -7600.00
01048              -4.40    -7800.00
01049             -25.00    -7800.00
01050              25.00    -8200.00
01051              12.20    -8200.00
01052             -25.00    -8400.00
01053               2.80    -8400.00
01054              21.20    -8600.00
01055             -13.80    -8800.00
01056             -18.20    -8800.00
01057              20.80    -9000.00
01058              -0.20    -9000.00
01059             -22.00    -9000.00
01060              10.80    -9200.00
01061               9.40    -9200.00
01062             -18.00    -9200.00
01063              -2.20    -9600.00
01064              14.00    -9600.00
01065             -11.00    -9600.00
01066             -10.20    -9800.00
01067              11.80    -9800.00
01068              -0.20   -10000.00
01069             -13.40   -10000.00
01070               3.60   -10000.00
01071               6.60   -10000.00
01072             -11.80   -10400.00
01073              -2.20   -10400.00
01074               7.80   -10400.00
01075              -5.40   -10600.00
01076              -7.60   -10600.00
01077               4.80   -10600.00
01078               2.00   -10600.00
01079             -10.60   -10800.00
01080              -0.40   -10600.00
01081               5.40   -10800.00
01082              -6.20   -10800.00
01083              -4.60   -11000.00
01084               3.60   -11000.00
01085              -1.40   -11000.00
01086              -6.00   -11000.00
01087               0.40   -11000.00
01088               1.60   -11200.00
01089              -5.80   -11200.00
01090              -2.80   -11200.00
01091               3.60   -11200.00
01092              -3.60   -11400.00
01093              -5.40   -11400.00
01094               2.00   -11000.00
01095              -0.60   -11400.00
01096              -5.40   -11400.00
01097              -1.00   -11400.00
01098               1.00   -11600.00
01099              -4.00   -11400.00
01100              -1.80   -11600.00
01101               0.40   -11400.00
01102              -3.00   -11400.00
01103              -2.20   -11600.00
01104              -0.60   -11400.00
01105              -2.00   -11600.00
01106              -2.80   -11600.00
01107              -1.40   -11600.00
01108              -1.20   -11600.00
01109              -2.00   -11600.00
01110              -2.00   -11600.00
01111              -2.00   -11400.00
01112              -2.00   -11400.00
01113              -2.00   -11400.00
01114              -2.20   -11400.00
01115              -1.40   -11400.00
01116              -1.40   -11200.00
01117              -2.40   -11400.00
01118              -1.40   -11400.00
01119              -1.40   -11200.00
01120              -2.60   -11000.00
01121              -2.20   -11000.00
01122              -1.40   -11000.00
01123              -2.00   -11200.00
01124              -2.60   -11000.00
01125              -1.80   -11000.00
01126              -1.80   -10800.00
01127              -2.20   -10800.00
01128              -1.40   -10800.00
01129              -2.20   -10800.00
01130              -1.80   -10800.00
01131              -1.80   -10600.00
01132              -1.60   -10600.00
01133              -1.80   -10400.00
01134              -2.20   -10400.00
01135              -1.80   -10400.00
01136              -1.40   -10400.00
01137              -1.80   -10200.00
01138              -2.00   -10000.00
01139              -1.40   -10000.00
01140              -1.80   -10000.00
01141              -1.40   -10000.00
01142              -2.00    -9800.00
01143              -2.00    -9800.00
01144              -1.80    -9600.00
01145              -1.20    -9400.00
01146              -1.20    -9400.00
01147              -1.80    -9200.00
01148              -1.20    -9200.00
01149              -0.60    -9000.00
01150              -2.20    -9000.00
01151              -1.60    -8800.00
01152              -1.20    -8800.00
01153              -1.60    -8800.00
01154              -1.40    -8800.00
01155              -0.80    -8400.00
01156              -1.80    -8400.00
01157              -1.40    -8200.00
01158              -1.00    -8000.00
01159              -1.40    -8000.00
01160              -1.40    -8000.00
01161              -1.20    -7800.00
01162              -1.40    -7600.00
01163              -1.00    -7400.00
01164              -1.00    -7400.00
01165              -1.40    -7200.00
01166              -1.40    -7000.00
01167              -0.60    -7000.00
01168              -1.20    -6800.00
01169              -1.00    -6600.00
01170              -1.20    -6600.00
01171              -1.40    -6400.00
01172              -1.00    -6400.00
01173              -1.00    -6200.00
01174              -1.20    -6000.00
01175              -1.00    -6000.00
01176              -1.40    -5800.00
01177              -1.00    -5800.00
01178              -0.60    -5400.00
01179              -1.40    -5200.00
01180              -1.80    -5000.00
01181              -0.60    -5000.00
01182              -1.20    -4600.00
01183              -1.20    -4600.00
01184              -1.00    -4400.00
01185              -1.20    -4200.00
01186              -1.00    -4200.00
01187              -1.00    -4200.00
01188              -1.00    -3800.00
01189              -1.40    -3800.00
01190              -0.60    -3600.00
01191              -0.40    -3400.00
01192              -0.80    -3400.00
01193              -1.20    -3000.00
01194              -0.60    -2800.00
01195              -0.60    -2600.00
01196              -1.00    -2600.00
01197              -1.00    -2400.00
01198              -0.60    -2400.00
01199              -0.60    -2200.00
01200              -0.60    -2000.00
01201              -0.60    -1800.00
01202              -0.60    -1600.00
01203              -1.00    -1400.00
01204              -0.20    -1200.00
01205              -0.20    -1000.00
01206              -0.60     -800.00
01207              -0.60     -600.00
01208               0.20     -600.00
01209              -0.40     -400.00
01210              -0.20     -200.00
01211               0.20     -200.00
01212              -1.00        0.00
01213               0.20      400.00
01214               1.00      400.00
01215               1.00      600.00
01216              -1.00      600.00
01217              -0.20      800.00
01218               1.00     1200.00
01219              -0.20     1200.00
01220               0.20     1400.00
01221               5.20     1600.00
01222              17.00     1800.00
01223              -2.20     2000.00
01224             -25.00     2200.00
01225             -16.60     2200.00
01226              15.00     2400.00
01227              25.00     2600.00
01228             -25.00     2600.00
01229             -25.00     2800.00
01230              25.00     3200.00
01231              25.00     3200.00
01232             -25.00     3200.00
01233              25.00     3600.00
01234              25.00     3600.00
01235             -25.00     3800.00
01236              -2.00     4200.00
01237              25.00     4000.00
01238             -25.00     4200.00
01239             -25.00     4600.00
01240              25.00     4600.00
01241              22.00     4800.00
01242             -22.20     5200.00
01243             -25.00     5200.00
01244              25.00     5400.00
01245              23.80     5600.00
01246             -25.00     5600.00
01247              19.80     5600.00
01248              25.00     6000.00
01249             -25.00     6000.00
01250             -24.60     6200.00
01251              25.00     6400.00
01252               2.20     6400.00
01253             -25.00     6600.00
01254              25.00     6800.00
01255              25.00     6800.00
01256             -25.00     7000.00
01257               0.40     7200.00
01258              25.00     7200.00
01259             -15.60     7400.00
01260             -21.20     7600.00
01261              25.00     7600.00
01262               8.40     7800.00
01263             -25.00     8000.00
01264               8.00     8200.00
01265              21.00     8200.00
01266             -15.40     8400.00
01267              -7.80     8400.00
01268              19.60     8600.00
01269              -0.20     8600.00
01270             -15.20     8800.00
01271              10.60     8800.00
01272              10.00     9000.00
01273             -14.00     9200.00
01274               1.40     9200.00
01275              14.80     9200.00
01276              -7.00     9200.00
01277              -7.00     9600.00
01278              13.20     9600.00
01279               1.20     9600.00
01280             -10.60     9800.00
01281               7.40    10000.00
01282               8.20    10000.00
01283              -7.80    10000.00
01284              -0.20    10000.00
01285               9.60    10200.00
01286              -2.80    10200.00
01287              -3.60    10400.00
01288               7.40    10400.00
01289               2.00    10400.00
01290              -4.60    10600.00
01291               3.00    10600.00
01292               5.80    10800.00
01293              -2.80    10800.00
01294              -1.80    10800.00
01295               6.60    10800.00
01296               1.40    10800.00
01297              -3.80    11000.00
01298               3.80    11000.00
01299               3.80    11200.00
01300              -2.60    11000.00
01301               1.00    11200.00
01302               4.60    11200.00
01303              -0.60    11200.00
01304              -1.00    11200.00
01305               3.60    11400.00
01306               1.40    11200.00
01307              -1.80    11200.00
01308               2.00    11200.00
01309               2.80    11200.00
01310               0.20    11600.00
01311              -0.20    11400.00
01312               2.60    11400.00
01313               1.40    11400.00
01314              -0.20    11400.00
01315               1.40    11400.00
01316               2.00    11600.00
01317               0.40    11200.00
01318               0.80    11400.00
01319               2.40    11600.00
01320               1.00    11600.00
01321              -0.40    11600.00
01322               2.00    11400.00
01323               1.80    11600.00
01324               0.40    11600.00
01325               1.00    11400.00
01326               1.60    11600.00
01327               1.00    11400.00
01328               1.00    11200.00
01329               1.40    11200.00
01330               1.00    11200.00
01331               0.40    11200.00
01332               1.80    11200.00
01333               2.20    11200.00
01334               1.00    11200.00
01335               1.00    11200.00
01336               1.40    11000.00
01337               1.00    11000.00
01338               0.60    11000.00
01339               0.60    11000.00
01340               1.20    10800.00
01341               1.40    10800.00
01342               1.00    10800.00
01343               1.20    10800.00
01344               1.20    10600.00
01345               1.20    10800.00
01346               1.20    10800.00
01347               1.00    10400.00
01348               1.00    10400.00
01349               1.00    10400.00
01350               1.20    10200.00
01351               1.00    10200.00
01352               0.60    10000.00
01353               1.20    10000.00
01354               1.00    10000.00
01355               0.60     9800.00
01356               1.20     9600.00
01357               1.00     9800.00
01358               0.60     9600.00
01359               1.00     9400.00
01360               1.40     9400.00
01361               0.80     9400.00
01362               0.40     9200.00
01363               1.20     9200.00
01364               1.00     9000.00
01365               0.60     8800.00
01366               1.20     8800.00
01367               0.60     8600.00
01368               0.40     8600.00
01369               1.20     8400.00
01370               1.00     8400.00
01371               0.20     8000.00
01372               0.40     8200.00
01373               1.00     7800.00
01374               0.60     8000.00
01375               0.40     7800.00
01376               0.40     7600.00
01377               0.80     7600.00
01378               1.00     7200.00
01379               0.20     7200.00
01380               0.20     7000.00
01381               0.40     6800.00
01382               0.20     6800.00
01383               0.60     6600.00
01384               0.60     6400.00
01385              -0.20     6200.00
01386               0.20     6200.00
01387               0.60     6200.00
01388               0.20     6000.00
01389              -0.20     5800.00
01390               0.40     5600.00
01391               0.20     5400.00
01392               0.40     5200.00
01393               0.20     5200.00
01394               0.40     5000.00
01395               0.40     4800.00
01396               0.40     4800.00
01397               0.20     4600.00
01398               0.20     4400.00
01399               0.20     4400.00
01400               0.20     4000.00
01401               0.20     4000.00
01402               0.20     3800.00
01403               0.00     3600.00
01404               0.20     3600.00
01405               0.00     3200.00
01406               0.20     3200.00
01407              -0.20     3000.00
01408               0.20     2800.00
01409               0.00     2800.00
01410               0.20     2400.00
01411               0.20     2400.00
01412              -0.20     2200.00
01413              -0.40     2000.00
01414               0.20     2000.00
01415               0.20     1800.00
01416               0.00     1600.00
01417              -0.20     1400.00
01418              -0.20     1200.00
01419              -0.20      800.00
01420              -0.20      800.00
01421               0.00      600.00
01422              -0.20      600.00
01423              -0.40      400.00
01424               0.40        0.00
01425               0.20        0.00
01426              -1.20     -200.00
01427               0.60     -200.00
01428               1.40     -400.00
01429              -0.20     -800.00
01430              -1.20     -800.00
01431              -0.20     -800.00
01432               0.20    -1000.00
01433              -0.60    -1200.00
01434               0.60    -1400.00
01435              18.60    -1600.00
01436               8.60    -2000.00
01437             -25.00    -2200.00
01438             -24.00    -2400.00
01439              20.20    -2000.00
01440              25.00    -2400.00
01441             -25.00    -2800.00
01442             -25.00    -2400.00
01443              25.00    -2800.00
01444              25.00    -3400.00
01445             -25.00    -3200.00
01446               4.60    -3200.00
01447              25.00    -4000.00
01448             -25.00    -3600.00
01449             -25.00    -3800.00
01450              25.00    -4200.00
01451             -25.00    -4200.00
01452             -15.60    -4400.00
01453               7.60    -4400.00
01454              25.00    -4600.00
01455              17.00    -4800.00
01456             -25.00    -4600.00
01457              25.00    -5200.00
01458              25.00    -5200.00
01459             -25.00    -5200.00
01460              25.00    -5800.00
01461              25.00    -5600.00
01462             -25.00    -5800.00
01463             -19.40    -6000.00
01464              25.00    -6200.00
01465               3.20    -6400.00
01466             -25.00    -6400.00
01467              25.00    -6600.00
01468              25.00    -6800.00
01469             -25.00    -6800.00
01470              -5.40    -7200.00
01471              25.00    -7200.00
01472             -15.00    -7200.00
01473             -25.00    -7400.00
01474              17.80    -7400.00
01475              23.00    -7600.00
01476             -25.00    -7800.00
01477              -2.20    -8000.00
01478              25.00    -8000.00
01479             -20.40    -8200.00
01480             -16.20    -8400.00
01481              19.80    -8400.00
01482               5.60    -8400.00
01483             -25.00    -8800.00
01484               5.80    -8800.00
01485              18.00    -8800.00
01486             -21.20    -9000.00
01487              -4.60    -9000.00
01488              17.60    -9200.00
01489              -8.40    -9200.00
01490             -14.80    -9400.00
01491              13.00    -9600.00
01492               1.80    -9600.00
01493             -17.40    -9600.00
01494               5.00    -9800.00
01495               9.20    -9800.00
01496             -11.80   -10000.00
01497              -5.80   -10000.00
01498              10.00   -10000.00
01499              -5.00   -10200.00
01500              -9.80   -10200.00
01501               6.60   -10400.00
01502               1.20   -10400.00
01503              -9.40   -10600.00
01504              -1.40   -10600.00
01505               5.80   -10800.00
01506              -6.20   -10800.00
01507              -7.40   -10800.00
01508               6.00   -10800.00
01509              -0.40   -10800.00
01510              -9.20   -10800.00
01511               1.20   -11000.00
01512               2.80   -11000.00
01513              -6.60   -11000.00
01514              -3.40   -11200.00
01515               3.60   -11200.00
01516              -3.00   -11000.00
01517              -6.80   -11200.00
01518               2.20   -11200.00
01519               0.40   -11400.00
01520              -6.80   -11400.00
01521              -1.20   -11400.00
01522               1.80   -11400.00
01523              -3.80   -11400.00
01524              -4.40   -11400.00
01525               0.80   -11400.00
01526              -1.20   -11400.00
01527              -4.40   -11400.00
01528              -0.60   -11400.00
01529              -0.20   -11600.00
01530              -3.60   -11600.00
01531              -2.60   -11600.00
01532              -0.40   -11400.00
01533              -1.80   -11600.00
01534              -3.60   -11600.00
01535              -1.20   -11600.00
01536              -0.60   -11600.00
01537              -3.00   -11400.00
01538              -2.60   -11600.00
01539              -0.60   -11400.00
01540              -1.40   -11400.00
01541              -3.00   -11400.00
01542              -0.60   -11400.00
01543              -1.80   -11400.00
01544              -3.40   -11200.00
01545              -0.60   -11200.00
01546              -0.40   -11200.00
01547              -3.40   -11000.00
01548              -2.00   -11400.00
01549              -0.40   -11000.00
01550              -2.20   -11000.00
01551              -2.20   -11000.00
01552              -1.00   -11000.00
01553              -1.80   -10800.00
01554              -2.20   -11000.00
01555              -0.80   -10800.00
01556              -2.00   -10800.00
01557              -2.60   -10800.00
01558              -1.00   -10600.00
01559              -1.40   -10600.00
01560              -2.20   -10600.00
01561              -1.20   -10400.00
01562              -1.40   -10400.00
01563              -1.80   -10400.00
01564              -1.80   -10400.00
01565              -1.40   -10400.00
01566              -1.80   -10000.00
01567              -2.20   -10000.00
01568              -1.20   -10000.00
01569              -1.20    -9800.00
01570              -2.00    -9800.00
01571              -2.20    -9600.00
01572              -1.20    -9600.00
01573              -1.20    -9600.00
01574              -2.00    -9600.00
01575              -1.80    -9200.00
01576              -1.00    -9200.00
01577              -2.00    -9000.00
01578              -1.40    -9000.00
01579              -1.40    -8800.00
01580              -1.40    -8800.00
01581              -1.80    -8600.00
01582              -1.20    -8600.00
01583              -1.00    -8400.00
01584              -2.20    -8200.00
01585              -1.80    -8200.00
01586              -1.00    -8200.00
01587              -1.40    -8000.00
01588              -1.80    -7800.00
01589              -1.80    -7600.00
01590              -1.00    -7400.00
01591              -1.20    -7400.00
01592              -1.20    -7200.00
01593              -1.20    -7200.00
01594              -1.00    -7000.00
01595              -1.20    -6800.00
01596              -1.20    -6800.00
01597              -1.00    -6600.00
01598              -1.40    -6400.00
01599              -1.20    -6400.00
01600              -0.60    -6200.00
01601              -1.00    -6000.00
01602              -1.40    -5800.00
01603              -1.00    -5800.00
01604              -0.80    -5800.00
01605              -1.20    -5600.00
01606              -1.00    -5200.00
01607              -1.00    -5000.00
01608              -0.60    -4800.00
01609              -1.20    -4600.00
01610              -1.00    -4600.00
01611              -0.20    -4400.00
01612              -0.80    -4400.00
01613              -1.40    -4400.00
01614              -0.40    -4000.00
01615              -0.60    -4000.00
01616              -1.20    -3600.00
01617              -1.00    -3600.00
01618              -0.20    -3400.00
01619              -0.80    -3200.00
01620              -1.20    -3000.00
01621              -0.40    -3200.00
01622              -1.00    -2800.00
01623              -0.60    -2600.00
01624              -0.60    -2400.00
01625               0.20    -2200.00
01626              -1.20    -2200.00
01627              -0.60    -2000.00
01628               0.80    -1800.00
01629              -1.40    -1600.00
01630              -1.40    -1600.00
01631               0.40    -1200.00
01632              -0.60    -1000.00
01633              -1.00    -1000.00
01634              -0.60     -800.00
01635               0.20     -600.00
01636              -0.60     -600.00
01637              -0.60     -400.00
01638               0.40     -200.00
01639              -0.60        0.00
01640              -1.20        0.00
01641               1.00      400.00
01642               1.80      400.00
01643              -1.40      600.00
01644              -1.00      800.00
01645               1.80     1000.00
01646               0.20     1200.00
01647              -1.80     1200.00
01648               2.00     1600.00
01649              12.20     1800.00
01650              12.60     2000.00
01651             -25.00     2000.00
01652             -25.00     2200.00
01653              -2.40     2200.00
01654              25.00     2600.00
01655              25.00     2800.00
01656             -25.00     2800.00
01657              22.80     3200.00
01658              25.00     3200.00
01659             -25.00     3000.00
01660             -25.00     3600.00
01661              25.00     3400.00
01662             -10.20     3600.00
01663             -25.00     4200.00
01664              25.00     4000.00
01665              13.20     4000.00
01666             -25.00     4600.00
01667              14.20     4600.00
01668              25.00     4600.00
01669               3.60     4800.00
01670             -25.00     5200.00
01671              13.60     5200.00
01672              25.00     5600.00
01673             -25.00     5600.00
01674             -25.00     5600.00
01675              25.00     5800.00
01676              -3.60     6200.00
01677             -25.00     6200.00
01678              25.00     6200.00
01679              25.00     6400.00
01680             -25.00     6600.00
01681              -7.60     6600.00
01682              25.00     6800.00
01683             -18.20     7000.00
01684             -25.00     7000.00
01685              25.00     7200.00
01686              10.40     7400.00
01687             -25.00     7600.00
01688               8.60     7800.00
01689              25.00     7800.00
01690             -20.00     8000.00
01691             -12.20     8200.00
01692              24.80     8200.00
01693              -0.40     8400.00
01694             -18.20     8400.00
01695              11.00     8400.00
01696              13.00     8600.00
01697             -15.20     8800.00
01698              -2.00     8800.00
01699              16.60     8800.00
01700              -6.20     8800.00
01701              -9.80     9200.00
01702              14.00     9200.00
01703               3.60     9400.00
01704             -13.20     9400.00
01705               6.60     9600.00
01706              10.00     9600.00
01707             -10.20     9600.00
01708              -1.20     9800.00
01709              11.80    10000.00
01710              -3.00    10000.00
01711              -5.80    10200.00
01712               8.20    10200.00
01713               2.60    10200.00
01714              -6.20    10400.00
01715               3.20    10400.00
01716               6.00    10400.00
01717              -3.60    10400.00
01718              -1.20    10600.00
01719               6.80    10600.00
01720               1.00    10800.00
01721              -4.60    10800.00
01722               3.40    10800.00
01723               5.20    11000.00
01724              -3.00    11000.00
01725               0.20    11000.00
01726               5.40    11000.00
01727              -0.40    11200.00
01728              -1.80    11200.00
01729               4.20    11200.00
01730               2.00    11200.00
01731              -2.00    11400.00
01732               2.20    11200.00
01733               3.60    11200.00
01734              -0.60    11200.00
01735               0.00    11200.00
01736               3.40    11400.00
01737               1.80    11200.00
01738              -0.60    11400.00
01739               1.60    11600.00
01740               2.60    11600.00
01741               0.60    11600.00
01742               0.40    11400.00
01743               2.60    11600.00
01744               1.20    11400.00
01745               0.20    11600.00
01746               2.20    11800.00
01747               2.20    11600.00
01748               0.00    11400.00
01749               1.00    11600.00
01750               2.60    11400.00
01751               1.00    11600.00
01752               0.40    11600.00
01753               2.20    11600.00
01754               1.40    11400.00
01755               0.40    11400.00
01756               1.60    11200.00
01757               2.00    11200.00
01758               0.60    11200.00
01759               1.00    11200.00
01760               2.00    11200.00
01761               1.20    11200.00
01762              -0.20    11200.00
01763               0.80    11200.00
01764               1.80    11000.00
01765               1.80    11000.00
01766               0.20    11000.00
01767               1.80    11000.00
01768               1.40    10800.00
01769               1.00    10800.00
01770               0.80    10800.00
01771               1.40    10800.00
01772               0.60    10800.00
01773               1.20    10600.00
01774               1.20    10400.00
01775               0.80    10400.00
01776               0.60    10400.00
01777               1.20    10400.00
01778               1.20    10200.00
01779               0.80    10200.00
01780               0.40    10000.00
01781               1.20    10000.00
01782               1.00    10000.00
01783               1.00     9800.00
01784               0.40     9600.00
01785               1.00     9600.00
01786               1.00     9400.00
01787               0.60     9400.00
01788               1.20     9200.00
01789               1.00     9200.00
01790               0.60     9200.00
01791               1.20     9200.00
01792               1.20     8800.00
01793               0.40     8800.00
01794               0.80     8800.00
01795               1.00     8600.00
01796               1.00     8600.00
01797               1.00     8400.00
01798               0.80     8200.00
01799               1.00     8000.00
01800               1.00     8000.00
01801               0.60     8000.00
01802               0.60     7600.00
01803               0.60     7600.00
01804               0.80     7600.00
01805               0.60     7400.00
01806               0.60     7200.00
01807               0.80     7000.00
01808               0.40     7000.00
01809               0.40     6800.00
01810               1.00     6800.00
01811               0.60     6400.00
01812               0.20     6400.00
01813               0.60     6400.00
01814               0.60     6200.00
01815               0.40     6000.00
01816               0.60     6000.00
01817               0.20     5800.00
01818               0.20     5600.00
01819               0.60     5400.00
01820               0.40     5200.00
01821               0.20     5200.00
01822               0.40     5000.00
01823               0.40     4800.00
01824               0.20     4600.00
01825               0.20     4400.00
01826               0.20     4200.00
01827               0.20     4200.00
01828               0.40     4200.00
01829               0.40     3800.00
01830              -0.40     3800.00
01831              -0.20     3600.00
01832               0.40     3400.00
01833               0.40     3200.00
01834              -0.60     3200.00
01835               0.20     2800.00
01836               0.60     2800.00
01837              -0.60     2600.00
01838              -0.20     2400.00
01839               0.60     2200.00
01840              -1.00     2200.00
01841              -0.60     2000.00
01842               0.60     1800.00
01843               0.20     1600.00
01844              -1.20     1400.00
01845              -0.60     1400.00
01846               0.60     1200.00
01847              -0.60      800.00
01848              -1.20      800.00
01849               0.40      600.00
01850              -0.20      400.00
01851              -1.20      200.00
01852              -0.20        0.00
01853               0.40        0.00
01854              -0.60     -200.00
01855               0.40     -400.00
01856               1.80     -600.00
01857              -1.00     -600.00
01858              -1.80     -800.00
01859               0.60    -1000.00
01860               0.20    -1200.00
01861              -1.20    -1200.00
01862               8.00    -1600.00
01863              25.00    -2000.00
01864             -25.00    -2000.00
01865             -25.00    -2200.00
01866             -12.40    -2000.00
01867              25.00    -2400.00
01868              25.00    -2800.00
01869             -25.00    -2600.00
01870              23.80    -2600.00
01871              25.00    -3200.00
01872             -25.00    -3200.00
01873             -25.00    -2800.00
01874              25.00    -3600.00
01875              25.00    -3600.00
01876             -25.00    -3600.00
01877              25.00    -4200.00
01878              25.00    -4000.00
01879             -25.00    -4400.00
01880              17.60    -4400.00
01881               8.20    -4400.00
01882              25.00    -4800.00
01883             -25.00    -4800.00
01884             -25.00    -5000.00
01885              25.00    -5400.00
01886             -25.00    -5200.00
01887             -25.00    -5600.00
01888              25.00    -6000.00
01889             -17.20    -5600.00
01890             -25.00    -6000.00
01891              25.00    -6000.00
01892              25.00    -6400.00
01893             -25.00    -6400.00
01894             -24.00    -6400.00
01895              25.00    -6800.00
01896             -19.00    -6800.00
01897             -25.00    -7200.00
01898              25.00    -7200.00
01899              12.40    -7200.00
01900             -25.00    -7400.00
01901              -5.40    -7400.00
01902              25.00    -7600.00
01903             -15.40    -7800.00
01904             -25.00    -8000.00
01905              25.00    -8200.00
01906               2.20    -8000.00
01907             -25.00    -8200.00
01908               9.00    -8400.00
01909              18.00    -8400.00
01910             -18.80    -8600.00
01911             -12.20    -8800.00
01912              22.20    -8800.00
01913              -8.00    -8800.00
01914             -18.20    -9000.00
01915              14.80    -9000.00
01916               4.60    -9200.00
01917             -18.80    -9200.00
01918               2.80    -9600.00
01919              12.40    -9600.00
01920             -14.20    -9800.00
01921              -6.20    -9800.00
01922              12.40    -9800.00
01923              -4.20    -9800.00
01924             -12.20   -10000.00
01925               6.80   -10000.00
01926               3.40   -10200.00
01927             -12.40   -10200.00
01928               0.60   -10400.00
01929               6.20   -10400.00
01930              -6.80   -10600.00
01931              -5.80   -10600.00
01932               5.20   -10600.00
01933               0.20   -10600.00
01934             -10.00   -10800.00
01935               1.00   -10800.00
01936               5.20   -10800.00
01937              -7.40   -10800.00
01938              -4.20   -11200.00
01939               4.40   -11000.00
01940              -2.80   -11200.00
01941              -6.40   -11000.00
01942               1.60   -11200.00
01943               1.20   -11000.00
01944              -6.60   -11200.00
01945              -1.40   -11200.00
01946               3.40   -11400.00
01947              -4.60   -11200.00
01948              -4.40   -11400.00
01949               2.00   -11400.00
01950              -0.60   -11400.00
01951              -5.20   -11400.00
01952              -1.40   -11600.00
01953               1.40   -11400.00
01954              -3.60   -11400.00
01955              -3.40   -11400.00
01956               0.60   -11400.00
01957              -1.80   -11400.00
01958              -4.20   -11400.00
01959              -1.00   -11600.00
01960              -0.20   -11400.00
01961              -3.40   -11600.00
01962              -2.80   -11400.00
01963               0.40   -11600.00
01964              -2.20   -11400.00
01965              -3.20   -11600.00
01966              -1.00   -11400.00
01967              -1.40   -11400.00
01968              -2.80   -11400.00
01969              -1.40   -11400.00
01970              -1.20   -11400.00
01971              -2.80   -11400.00
01972              -2.20   -11400.00
01973              -1.00   -11000.00
01974              -2.00   -11200.00
01975              -2.60   -11000.00
01976              -1.80   -11000.00
01977              -1.20   -11200.00
01978              -1.80   -11000.00
01979              -2.80   -11000.00
01980              -1.40   -10800.00
01981              -1.80   -10800.00
01982              -1.40   -10800.00
01983              -1.40   -10800.00
01984              -2.00   -10800.00
01985              -1.80   -10600.00
01986              -1.20   -10600.00
01987              -1.80   -10400.00
01988              -1.80   -10400.00
01989              -1.80   -10400.00
01990              -1.80   -10400.00
01991              -1.20   -10400.00
01992              -1.80   -10200.00
01993              -1.80   -10200.00
01994              -1.60   -10000.00
01995              -1.20   -10000.00
01996              -1.80    -9800.00
01997              -1.60    -9800.00
01998              -1.20    -9600.00
01999              -1.80    -9600.00
02000              -1.40    -9600.00
02001              -1.40    -9400.00
02002              -1.80    -9200.00
02003              -1.40    -9200.00
02004              -1.00    -9000.00
02005              -2.00    -8800.00
02006              -1.20    -9000.00
02007              -1.40    -8800.00
02008              -1.40    -8800.00
02009              -1.60    -8600.00
02010              -0.60    -8400.00
02011              -1.80    -8400.00
02012              -1.00    -8200.00
02013              -1.00    -8200.00
02014              -1.40    -8000.00
02015              -1.20    -8000.00
02016              -1.60    -7600.00
02017              -1.80    -7600.00
02018              -1.00    -7400.00
02019              -1.00    -7400.00
02020              -1.40    -7200.00
02021              -1.20    -7200.00
02022              -1.20    -6800.00
02023              -1.20    -6800.00
02024              -1.20    -6800.00
02025              -1.80    -6600.00
02026              -1.20    -6400.00
02027              -1.00    -6400.00
02028              -0.60    -6400.00
02029              -2.00    -6000.00
02030              -1.00    -5800.00
02031              -1.20    -5800.00
02032              -1.20    -5600.00
02033              -1.20    -5600.00
02034              -1.20    -5200.00
02035              -1.20    -5000.00
02036              -1.00    -5000.00
02037              -1.20    -4600.00
02038              -0.80    -4600.00
02039              -1.00    -4400.00
02040              -1.20    -4400.00
02041              -0.60    -4200.00
02042              -1.40    -4000.00
02043              -1.20    -4000.00
02044              -1.00    -3600.00
02045              -1.00    -3600.00
02046              -0.60    -3200.00
02047              -0.60    -3200.00
02048              -1.20    -2800.00
02049              -0.60    -3000.00
02050               0.40    -2600.00
02051              -2.20    -2600.00
02052              -1.00    -2400.00
02053               0.40    -2200.00
02054              -2.20    -2000.00
02055              -0.20    -2000.00
02056               0.60    -1600.00
02057              -1.40    -1800.00
02058              -0.60    -1400.00
02059               0.60    -1200.00
02060              -0.60    -1000.00
02061              -0.80    -1000.00
02062               0.20     -800.00
02063              -0.20     -400.00
02064              -0.60     -400.00
02065               0.20     -200.00
02066              -0.40     -200.00
02067              -1.00        0.00
02068               0.60      200.00
02069               1.40      400.00
02070               0.20      600.00
02071              -0.60      600.00
02072               0.20      800.00
02073               0.60     1200.00
02074               0.00     1400.00
02075               0.20     1200.00
02076               6.60     1800.00
02077              18.20     2000.00
02078              -9.40     2000.00
02079             -25.00     2200.00
02080             -13.20     2000.00
02081              24.40     2400.00
02082              25.00     2800.00
02083             -25.00     2600.00
02084             -25.00     3000.00
02085              25.00     3200.00
02086              25.00     3000.00
02087             -25.00     3400.00
02088              25.00     3600.00
02089              25.00     3600.00
02090             -25.00     3800.00
02091              25.00     4200.00
02092              25.00     4000.00
02093             -25.00     4200.00
02094             -15.00     4600.00
02095              25.00     4600.00
02096              18.60     4800.00
02097             -25.00     5200.00
02098             -25.00     5000.00
02099              25.00     5200.00
02100               2.60     5600.00
02101             -25.00     5600.00
02102              25.00     5800.00
02103              25.00     6000.00
02104             -25.00     6200.00
02105              -9.80     6000.00
02106              25.00     6400.00
02107             -12.60     6600.00
02108             -25.00     6600.00
02109              25.00     6600.00
02110              14.80     7000.00
02111             -25.00     7000.00
02112              11.60     7000.00
02113              25.00     7400.00
02114             -23.00     7600.00
02115             -14.00     7600.00
02116              25.00     7800.00
02117              -0.40     7800.00
02118             -25.00     8200.00
02119              14.80     8000.00
02120              16.60     8200.00
02121             -18.60     8400.00
02122              -2.60     8400.00
02123              20.20     8400.00
02124              -6.00     8600.00
02125             -12.00     8600.00
02126              13.60     8800.00
02127               5.40     9000.00
02128             -13.20     9000.00
02129               5.40     9200.00
02130              12.00     9200.00
02131              -9.00     9400.00
02132              -3.40     9400.00
02133              13.00     9600.00
02134              -1.80     9600.00
02135              -8.20     9600.00
02136               9.00    10000.00
02137               5.20    10000.00
02138              -7.00    10000.00
02139               2.20    10000.00
02140               7.80    10400.00
02141              -3.60    10200.00
02142              -2.20    10200.00
02143               7.00    10400.00
02144               1.40    10400.00
02145              -3.80    10600.00
02146               3.00    10800.00
02147               5.40    10800.00
02148              -3.00    10800.00
02149              -1.00    10800.00
02150               5.80    10800.00
02151               1.20    11000.00
02152              -2.20    11000.00
02153               2.60    11000.00
02154               2.80    11200.00
02155              -1.20    11000.00
02156               0.60    11200.00
02157               2.80    11200.00
02158               0.60    11400.00
02159              -0.60    11200.00
02160               1.80    11200.00
02161               3.40    11200.00
02162               0.00    11200.00
02163              -1.40    11400.00
02164               3.40    11400.00
02165               2.60    11200.00
02166              -1.40    11400.00
02167               1.80    11600.00
02168               3.60    11400.00
02169              -0.60    11400.00
02170               0.20    11600.00
02171               2.00    11600.00
02172               1.20    11400.00
02173               0.40    11400.00
02174               2.20    11600.00
02175               1.20    11600.00
02176              -0.20    11400.00
02177               2.20    11400.00
02178               1.80    11600.00
02179               0.40    11600.00
02180               2.00    11600.00
02181               1.00    11400.00
02182               1.80    11400.00
02183               1.20    11200.00
02184              -0.60    11400.00
02185               3.60    11600.00
02186               1.40    11200.00
02187               1.20    11000.00
02188              -2.20    11200.00
02189               8.00    11200.00
02190              -7.40    11200.00
02191              -1.80    11000.00
02192               9.20    11000.00
02193              -4.40    11200.00
02194              11.00    11000.00
02195              -1.00    11000.00
02196              -0.40    10800.00
02197               0.00    10800.00
02198               0.60    10800.00
02199              -1.00    10800.00
02200              -1.00    10600.00
02201               2.00    10800.00
02202               6.60    10600.00
02203               0.60    10400.00
02204               2.40    10400.00
02205               5.00    10200.00
02206              -4.60    10200.00
02207              -2.20    10000.00
02208              -1.20    10000.00
02209               2.00    10000.00
02210               3.60    10000.00
02211               4.00     9800.00
02212               2.00     9600.00
02213               2.00     9600.00
02214              -0.80     9400.00
02215              -1.80     9400.00
02216               1.00     9400.00
02217              -1.00     9200.00
02218               2.40     9000.00
02219              -0.20     9000.00
02220               3.40     9000.00
02221               3.00     8800.00
02222               0.00     8600.00
02223              -1.40     8600.00
02224               0.20     8400.00
02225              -1.00     8400.00
02226               0.20     8400.00
02227               3.00     8200.00
02228               0.60     8000.00
02229               0.40     7800.00
02230               1.20     7800.00
02231               1.40     7600.00
02232              -0.20     7400.00
02233               0.40     7200.00
02234              -1.40     7200.00
02235               0.20     7000.00
02236               2.00     7000.00
02237               0.20     6800.00
02238               1.80     6400.00
02239               1.00     6600.00
02240              -0.20     6400.00
02241              -0.20     6200.00
02242               1.00     6000.00
02243               0.20     6000.00
02244              -0.40     5600.00
02245               0.40     5800.00
02246               1.20     5600.00
02247               0.20     5400.00
02248               0.20     5200.00
02249               1.00     5200.00
02250              -0.40     5000.00
02251              -0.60     4600.00
02252               0.40     4600.00
02253               0.40     4400.00
02254              -0.40     4400.00
02255               1.00     4200.00
02256               1.00     4000.00
02257              -0.60     3800.00
02258               0.40     3600.00
02259               0.60     3600.00
02260              -0.40     3200.00
02261              -0.20     3200.00
02262               0.40     3000.00
02263               0.20     3000.00
02264               0.40     2800.00
02265               0.40     2600.00
02266               0.40     2400.00
02267              -0.40     2200.00
02268              -0.20     2000.00
02269              -0.40     1800.00
02270               0.20     1600.00
02271              -0.20     1400.00
02272              -0.40     1400.00
02273               1.00     1200.00
02274              -0.20      800.00
02275              -0.40      600.00
02276              -0.60      800.00
02277               0.00      400.00
02278              -1.00      400.00
02279              -0.20      200.00
02280              -0.40        0.00
02281              -0.40     -200.00
02282               0.40     -400.00
02283               1.20     -400.00
02284              -0.60     -600.00
02285              -0.60     -800.00
02286              -0.60     -800.00
02287              -0.20    -1000.00
02288              -0.20    -1200.00
02289               1.80    -1400.00
02290              23.00    -1800.00
02291              -1.60    -2000.00
02292             -25.00    -2400.00
02293             -21.40    -2200.00
02294              25.00    -2000.00
02295              25.00    -2400.00
02296             -25.00    -2800.00
02297             -25.00    -2400.00
02298              25.00    -3200.00
02299              25.00    -3400.00
02300             -25.00    -3000.00
02301              25.00    -3400.00
02302              25.00    -3800.00
02303             -25.00    -3400.00
02304              -9.20    -3800.00
02305              25.00    -4200.00
02306             -25.00    -4200.00
02307               1.40    -4400.00
02308               5.00    -4400.00
02309              25.00    -4600.00
02310              -3.00    -5000.00
02311             -25.00    -4600.00
02312              25.00    -5200.00
02313              25.00    -5200.00
02314             -25.00    -5600.00
02315              25.00    -5800.00
02316              25.00    -5600.00
02317             -25.00    -6000.00
02318               0.40    -6200.00
02319              25.00    -6200.00
02320             -12.60    -6400.00
02321             -25.00    -6400.00
02322              25.00    -6600.00
02323              25.00    -6800.00
02324             -25.00    -6800.00
02325               9.60    -7400.00
02326              25.00    -7200.00
02327             -21.40    -7200.00
02328             -23.60    -7600.00
02329              25.00    -7600.00
02330              13.80    -7800.00
02331             -25.00    -7800.00
02332              10.60    -8000.00
02333              25.00    -8200.00
02334             -25.00    -8000.00
02335              -8.20    -8400.00
02336              22.20    -8400.00
02337              -2.80    -8600.00
02338             -24.20    -8800.00
02339              13.20    -8800.00
02340              11.60    -8800.00
02341             -23.60    -9000.00
02342               2.60    -9200.00
02343              15.00    -9200.00
02344             -13.40    -9200.00
02345              -9.60    -9600.00
02346              14.20    -9600.00
02347              -3.80    -9600.00
02348             -15.20    -9800.00
02349               8.40   -10000.00
02350               5.20    -9800.00
02351             -13.20   -10000.00
02352              -1.80   -10000.00
02353               9.60   -10200.00
02354              -9.20   -10200.00
02355              -7.00   -10400.00
02356               7.80   -10400.00
02357              -2.20   -10400.00
02358              -9.40   -10600.00
02359               1.80   -10600.00
02360               4.80   -10600.00
02361              -8.60   -10800.00
02362              -5.00   -10800.00
02363               6.60   -10800.00
02364              -3.60   -11000.00
02365              -8.00   -10800.00
02366               3.40   -11000.00
02367               0.60   -11000.00
02368              -7.60   -11000.00
02369              -1.20   -11200.00
02370               3.00   -11000.00
02371              -5.00   -11200.00
02372              -5.80   -11400.00
02373               3.40   -11000.00
02374              -1.00   -11200.00
02375              -7.00   -11200.00
02376               0.20   -11400.00
02377               2.00   -11400.00
02378              -5.00   -11400.00
02379              -4.40   -11400.00
02380               1.80   -11400.00
02381              -2.00   -11400.00
02382              -4.60   -11400.00
02383               0.40   -11400.00
02384              -0.60   -11600.00
02385              -4.20   -11400.00
02386              -1.60   -11400.00
02387              -0.20   -11600.00
02388              -2.80   -11400.00
02389              -3.20   -11600.00
02390               0.20   -11400.00
02391              -1.20   -11400.00
02392              -3.40   -11400.00
02393              -1.40   -11600.00
02394              -1.20   -11400.00
02395              -2.20   -11400.00
02396              -1.80   -11600.00
02397              -1.20   -11400.00
02398              -1.80   -11400.00
02399              -2.60   -11000.00
02400              -1.40   -11400.00
02401              -1.20   -11400.00
02402              -2.20   -11000.00
02403              -2.20   -11200.00
02404              -1.20   -11200.00
02405              -1.40   -11000.00
02406              -2.20   -11200.00
02407              -1.80   -11000.00
02408              -1.40   -11000.00
02409              -2.20   -10800.00
02410              -1.20   -10800.00
02411              -2.00   -10800.00
02412              -2.20   -10800.00
02413              -1.20   -10800.00
02414              -1.80   -10600.00
02415              -1.80   -10600.00
02416              -1.60   -10400.00
02417              -1.80   -10400.00
02418              -1.80   -10200.00
02419              -1.40   -10200.00
02420              -2.00   -10200.00
02421              -2.00   -10000.00
02422              -1.60   -10000.00
02423              -1.20    -9800.00
02424              -2.00    -9800.00
02425              -2.20    -9800.00
02426              -1.80    -9600.00
02427              -1.20    -9600.00
02428              -1.60    -9600.00
02429              -2.20    -9200.00
02430              -1.80    -9200.00
02431              -1.20    -9200.00
02432              -1.20    -9200.00
02433              -2.00    -9000.00
02434              -1.20    -8800.00
02435              -1.80    -8800.00
02436              -1.40    -8800.00
02437              -1.20    -8600.00
02438              -1.20    -8400.00
02439              -2.00    -8200.00
02440              -1.00    -8200.00
02441              -1.00    -8000.00
02442              -1.80    -7800.00
02443              -1.40    -7800.00
02444              -1.20    -7600.00
02445              -1.40    -7600.00
02446              -1.20    -7400.00
02447              -1.20    -7400.00
02448              -1.40    -7200.00
02449              -1.00    -7000.00
02450              -1.00    -6800.00
02451              -1.20    -6600.00
02452              -0.60    -6800.00
02453              -1.40    -6400.00
02454              -1.40    -6400.00
02455              -0.60    -6200.00
02456              -0.80    -6000.00
02457              -1.00    -6000.00
02458              -1.00    -5800.00
02459              -0.60    -5600.00
02460              -1.00    -5400.00
02461              -1.00    -5400.00
02462              -1.20    -5000.00
02463              -0.60    -5000.00
02464              -1.00    -5000.00
02465              -0.80    -4600.00
02466              -0.60    -4400.00
02467              -1.20    -4400.00
02468              -0.60    -4200.00
02469              -0.60    -4200.00
02470              -1.00    -4000.00
02471              -1.00    -3600.00
02472              -0.60    -3600.00
02473              -0.60    -3400.00
02474              -0.60    -3200.00
02475              -1.00    -3200.00
02476              -0.60    -3200.00
02477              -0.40    -2800.00
02478              -0.60    -2800.00
02479              -1.00    -2400.00
02480              -0.80    -2400.00
02481              -0.60    -2200.00
02482              -0.60    -2000.00
02483              -0.40    -1800.00
02484              -0.60    -1600.00
02485              -0.80    -1600.00
02486              -0.40    -1200.00
02487              -0.40    -1000.00
02488              -0.80    -1000.00
02489              -0.60     -800.00
02490              -0.60     -600.00
02491              -0.40     -400.00
02492              -0.40     -400.00
02493              -0.40     -200.00
02494              -0.20        0.00
02495              -0.20      200.00
02496               0.20      400.00
02497               1.80      400.00
02498              -0.40      800.00
02499              -1.40      800.00
02500               1.20     1000.00
02501               1.00     1200.00
02502              -1.20     1400.00
02503               3.00     1600.00
02504              14.60     1800.00
02505               7.60     2000.00
02506             -25.00     2200.00
02507             -22.40     2000.00
02508               2.20     2200.00
02509              25.00     2600.00
02510               9.40     2800.00
02511             -25.00     2800.00
02512              25.00     3200.00
02513              25.00     3200.00
02514             -25.00     3000.00
02515             -25.00     3600.00
02516              25.00     3400.00
02517             -25.00     3600.00
02518             -25.00     4200.00
02519              25.00     4000.00
02520             -10.20     4000.00
02521             -25.00     4400.00
02522              20.60     4400.00
02523              25.00     4800.00
02524              -5.20     5000.00
02525             -25.00     5200.00
02526              25.00     5200.00
02527              25.00     5400.00
02528             -25.00     5600.00
02529             -12.60     5800.00
02530              25.00     5800.00
02531             -21.40     6200.00
02532             -25.00     6200.00
02533              25.00     6400.00
02534              25.00     6400.00
02535             -25.00     6600.00
02536               6.80     6800.00
02537              25.00     6800.00
02538             -25.00     7000.00
02539             -18.60     7200.00
02540              25.00     7200.00
02541              -0.40     7400.00
02542             -25.00     7600.00
02543              17.40     7600.00
02544              21.20     7800.00
02545             -25.00     8200.00
02546              -4.60     8000.00
02547              24.40     8200.00
02548              -6.80     8400.00
02549             -15.00     8400.00
02550              15.00     8400.00
02551               9.00     8600.00
02552             -16.20     8800.00
02553               2.20     8600.00
02554              15.60     8800.00
02555              -9.20     9200.00
02556              -7.80     9200.00
02557              15.60     9200.00
02558               1.00     9400.00
02559             -13.20     9400.00
02560               9.40     9600.00
02561               8.60     9600.00
02562             -11.80     9800.00
02563               1.00     9800.00
02564              12.20     9800.00
02565              -4.40    10200.00
02566              -5.20    10200.00
02567               9.20    10200.00
02568               1.40    10200.00
02569              -6.20    10400.00
02570               4.40    10400.00
02571               5.40    10400.00
02572              -3.80    10600.00
02573              -0.40    10600.00
02574               6.60    10600.00
02575               0.20    10800.00
02576              -3.80    10800.00
02577               4.60    10800.00
02578               4.40    11000.00
02579              -3.80    11000.00
02580               0.40    11000.00
02581               5.80    11000.00
02582              -1.00    11200.00
02583              -1.20    11200.00
02584               4.60    11200.00
02585               1.80    11200.00
02586              -1.80    11200.00
02587               2.60    11400.00
02588               3.60    11200.00
02589              -1.00    11400.00
02590               0.20    11200.00
02591               3.80    11400.00
02592               1.00    11600.00
02593              -1.00    11600.00
02594               2.20    11600.00
02595               2.40    11600.00
02596               0.00    11600.00
02597               1.40    11600.00
02598               2.80    11600.00
02599               0.40    11600.00
02600               0.60    11600.00
02601               2.60    11600.00
02602               1.40    11600.00
02603               0.00    11600.00
02604               1.80    11600.00
02605               2.20    11600.00
02606               0.40    11400.00
02607               1.00    11600.00
02608               1.40    11400.00
02609               1.20    11400.00
02610               1.40    11400.00
02611               1.80    11400.00
02612               1.20    11600.00
02613               0.40    11600.00
02614               1.40    11200.00
02615               2.00    11200.00
02616               1.00    11200.00
02617               0.40    11000.00
02618               1.00    11200.00
02619               1.20    11200.00
02620               1.20    11000.00
02621               1.00    11000.00
02622               1.80    10800.00
02623               1.00    10800.00
02624               1.20    10800.00
02625               1.20    10800.00
02626               0.60    10800.00
02627               1.00    10600.00
02628               1.60    10600.00
02629               0.60    10400.00
02630               1.00    10400.00
02631               1.20    10400.00
02632               1.00    10400.00
02633               1.00    10000.00
02634               1.00    10200.00
02635               1.00    10000.00
02636               0.80    10000.00
02637               1.20    10000.00
02638               1.40     9800.00
02639               0.40     9600.00
02640               0.80     9600.00
02641               1.20     9400.00
02642               0.40     9400.00
02643               0.80     9400.00
02644               1.40     9200.00
02645               0.60     9200.00
02646               1.00     9000.00
02647               1.60     9000.00
02648               1.00     8800.00
02649               0.60     8600.00
02650               1.00     8400.00
02651               1.00     8600.00
02652               1.00     8600.00
02653               0.60     8400.00
02654               0.40     8000.00
02655               1.20     8000.00
02656               0.60     8000.00
02657               0.60     7800.00
02658               0.80     7800.00
02659               0.60     7600.00
02660               1.00     7200.00
02661               1.00     7200.00
02662               0.40     7200.00
02663               0.40     6800.00
02664               0.60     7000.00
02665               1.00     6600.00
02666               0.40     6400.00
02667               0.40     6200.00
02668               0.40     6200.00
02669               0.40     6200.00
02670               0.20     6000.00
02671               0.60     5800.00
02672               0.40     5800.00
02673               0.20     5600.00
02674               1.00     5400.00
02675               0.00     5200.00
02676               0.00     5200.00
02677               0.40     4800.00
02678               0.40     4800.00
02679              -0.40     4600.00
02680               0.40     4400.00
02681               0.20     4200.00
02682              -0.40     4000.00
02683               0.40     4000.00
02684               0.20     4000.00
02685               0.20     3600.00
02686               0.00     3600.00
02687              -0.40     3400.00
02688               0.20     3200.00
02689               0.20     3000.00
02690              -0.20     2800.00
02691              -0.20     2800.00
02692               0.20     2600.00
02693              -0.40     2400.00
02694               0.20     2200.00
02695              -0.60     2000.00
02696              -0.60     2000.00
02697               0.40     1800.00
02698              -0.60     1600.00
02699              -1.00     1600.00
02700               1.00     1200.00
02701              -0.40     1200.00
02702              -1.20      800.00
02703               0.40      600.00
02704              -0.40      600.00
02705              -1.40      400.00
02706               0.40      400.00
02707               0.80        0.00
02708              -1.80        0.00
02709               0.20     -200.00
02710               2.00     -400.00
02711               0.40     -400.00
02712              -2.00     -600.00
02713               0.20     -800.00
02714               0.40    -1000.00
02715              -1.00    -1400.00
02716              -0.20    -1200.00
02717              11.60    -1400.00
02718              21.80    -2000.00
02719             -25.00    -2000.00
02720             -25.00    -2400.00
02721              -3.80    -2000.00
02722              25.00    -2400.00
02723              16.60    -2800.00
02724             -25.00    -2400.00
02725              25.00    -2600.00
02726              25.00    -3400.00
02727             -25.00    -3200.00
02728             -25.00    -3200.00
02729              25.00    -3800.00
02730              13.20    -3600.00
02731             -25.00    -3600.00
02732              25.00    -4200.00
02733              -6.00    -4000.00
02734             -25.00    -4400.00
02735              13.80    -4600.00
02736              15.00    -4400.00
02737              25.00    -5000.00
02738             -25.00    -4800.00
02739               7.40    -5000.00
02740              25.00    -5400.00
02741             -25.00    -5200.00
02742             -25.00    -5600.00
02743              25.00    -5800.00
02744             -25.00    -5800.00
02745             -25.00    -6000.00
02746              25.00    -6000.00
02747              25.00    -6400.00
02748             -25.00    -6600.00
02749              -6.00    -6600.00
02750              25.00    -6800.00
02751             -25.00    -6600.00
02752             -25.00    -7200.00
02753              25.00    -7200.00
02754               1.80    -7200.00
02755             -25.00    -7600.00
02756               3.40    -7600.00
02757              25.00    -7800.00
02758             -25.00    -7800.00
02759             -21.00    -8000.00
02760              25.00    -8200.00
02761              -7.60    -8200.00
02762             -25.00    -8400.00
02763              14.00    -8400.00
02764              14.00    -8400.00
02765             -22.60    -8600.00
02766              -5.40    -8800.00
02767              22.20    -9000.00
02768             -13.40    -9000.00
02769             -13.40    -9200.00
02770              16.60    -9000.00
02771              -0.60    -9200.00
02772             -17.80    -9400.00
02773               7.40    -9600.00
02774               8.80    -9600.00
02775             -16.20    -9600.00
02776              -1.80    -9800.00
02777              12.20    -9800.00
02778              -7.40   -10000.00
02779             -10.20   -10000.00
02780               9.00   -10200.00
02781               0.40   -10200.00
02782             -12.40   -10400.00
02783               3.60   -10400.00
02784               5.00   -10400.00
02785              -8.40   -10400.00
02786              -4.20   -10400.00
02787               6.20   -10800.00
02788              -2.20   -10800.00
02789              -9.20   -10800.00
02790               3.60   -10800.00
02791               3.00   -10800.00
02792              -8.40   -10800.00
02793              -1.80   -11000.00
02794               4.20   -10800.00
02795              -4.40   -11000.00
02796              -5.20   -11000.00
02797               2.80   -11000.00
02798              -0.40   -11200.00
02799              -7.20   -11200.00
02800               0.20   -11200.00
02801               2.20   -11200.00
02802              -6.00   -11400.00
02803              -3.20   -11200.00
02804               2.20   -11400.00
02805              -2.00   -11400.00
02806              -5.20   -11400.00
02807              -0.40   -11600.00
02808               0.20   -11400.00
02809              -4.00   -11600.00
02810              -2.20   -11400.00
02811               0.20   -11400.00
02812              -2.40   -11600.00
02813              -3.60   -11400.00
02814              -0.60   -11400.00
02815              -0.60   -11600.00
02816              -3.60   -11600.00
02817              -2.20   -11600.00
02818              -0.20   -11400.00
02819              -2.40   -11600.00
02820              -2.80   -11600.00
02821              -1.40   -11400.00
02822              -1.40   -11400.00
02823              -2.20   -11600.00
02824              -1.80   -11400.00
02825              -1.40   -11400.00
02826              -2.00   -11400.00
02827              -2.00   -11200.00
02828              -1.20   -11000.00
02829              -1.40   -11200.00
02830              -2.20   -11000.00
02831              -1.80   -11200.00
02832              -1.00   -11000.00
02833              -2.00   -11000.00
02834              -2.40   -11000.00
02835              -1.20   -10800.00
02836              -1.80   -10800.00
02837              -2.00   -10800.00
02838              -1.40   -10800.00
02839              -1.80   -10800.00
02840              -1.40   -10600.00
02841              -1.40   -10600.00
02842              -1.80   -10600.00
02843              -1.40   -10400.00
02844              -1.80   -10400.00
02845              -1.40   -10400.00
02846              -1.60   -10200.00
02847              -1.80   -10000.00
02848              -1.40   -10000.00
02849              -1.60   -10000.00
02850              -1.20   -10000.00
02851              -1.40    -9800.00
02852              -1.80    -9800.00
02853              -1.60    -9600.00
02854              -1.40    -9600.00
02855              -1.20    -9600.00
02856              -1.80    -9400.00
02857              -1.80    -9400.00
02858              -1.20    -9200.00
02859              -1.20    -9000.00
02860              -2.00    -9000.00
02861              -1.00    -9000.00
02862              -1.60    -8800.00
02863              -1.40    -8600.00
02864              -1.40    -8600.00
02865              -1.00    -8400.00
02866              -1.80    -8400.00
02867              -1.60    -8200.00
02868              -1.20    -8000.00
02869              -1.20    -8000.00
02870              -1.80    -8000.00
02871              -1.80    -7800.00
02872              -1.20    -7600.00
02873              -1.00    -7600.00
02874              -1.40    -7200.00
02875              -1.40    -7200.00
02876              -1.20    -7000.00
02877              -1.20    -7000.00
02878              -1.40    -6800.00
02879              -1.40    -6600.00
02880              -1.20    -6600.00
02881              -1.40    -6400.00
02882              -1.20    -6400.00
02883              -0.60    -6200.00
02884              -1.20    -5800.00
02885              -1.40    -5800.00
02886              -1.00    -5800.00
02887              -1.20    -5600.00
02888              -1.20    -5400.00
02889              -1.20    -5200.00
02890              -1.00    -5000.00
02891              -1.00    -5000.00
02892              -1.20    -4800.00
02893              -0.60    -4400.00
02894              -1.20    -4400.00
02895              -1.00    -4200.00
02896              -0.60    -4200.00
02897              -0.60    -4000.00
02898              -1.20    -4000.00
02899              -0.80    -3600.00
02900              -0.60    -3400.00
02901              -0.60    -3400.00
02902              -1.00    -3200.00
02903              -1.00    -3000.00
02904              -0.60    -2800.00
02905              -0.60    -2800.00
02906              -0.60    -2400.00
02907              -0.60    -2400.00
02908              -0.60    -2200.00
02909              -0.60    -2000.00
02910              -0.40    -2000.00
02911              -0.40    -1800.00
02912              -0.60    -1600.00
02913              -0.40    -1200.00
02914              -0.60    -1200.00
02915              -0.40    -1000.00
02916              -0.40     -800.00
02917              -0.60     -600.00
02918              -0.40     -400.00
02919               0.00     -400.00
02920              -0.40     -200.00
02921              -0.40        0.00
02922              -0.40      200.00
02923               0.40      400.00
02924               1.40      400.00
02925               0.20      600.00
02926              -1.20      600.00
02927               0.60     1000.00
02928               1.00     1200.00
02929              -0.60     1200.00
02930               0.60     1400.00
02931               8.40     1800.00
02932              17.20     2000.00
02933             -16.60     2000.00
02934             -25.00     2200.00
02935              -9.60     2000.00
02936              25.00     2400.00
02937              25.00     2800.00
02938             -25.00     2600.00
02939             -25.00     3000.00
02940              25.00     3200.00
02941              -2.20     3200.00
02942             -25.00     3400.00
02943              25.00     3600.00
02944              25.00     3600.00
02945             -25.00     4000.00
02946              25.00     4000.00
02947              25.00     4200.00
02948             -25.00     4400.00
02949              -3.00     4600.00
02950              25.00     4600.00
02951              14.00     4800.00
02952             -25.00     5000.00
02953             -12.40     5200.00
02954              25.00     5200.00
02955             -20.80     5600.00
02956             -25.00     5600.00
02957              25.00     5600.00
02958              25.00     6000.00
02959             -25.00     6200.00
02960               6.20     6200.00
02961              25.00     6400.00
02962             -25.00     6400.00
02963             -25.00     6600.00
02964              25.00     6800.00
02965               2.60     7000.00
02966             -25.00     7000.00
02967              21.80     7200.00
02968              25.00     7200.00
02969             -25.00     7600.00
02970              -6.00     7800.00
02971              25.00     7600.00
02972              -8.80     7800.00
02973             -22.20     8200.00
02974              20.20     8200.00
02975              10.60     8400.00
02976             -19.80     8400.00
02977               3.00     8600.00
02978              18.60     8600.00
02979              -9.80     8600.00
02980              -9.40     8800.00
02981              16.40     8800.00
02982               1.80     9000.00
02983             -13.80     9200.00
02984               9.40     9200.00
02985              10.60     9400.00
02986             -11.80     9400.00
02987               0.20     9600.00
02988              13.40     9600.00
02989              -5.40    10000.00
02990              -6.00     9800.00
02991              11.40    10000.00
02992               2.20    10000.00
02993              -7.40    10000.00
02994               4.60    10200.00
02995               6.60    10200.00
02996              -4.60    10200.00
02997              -1.00    10200.00
02998               7.40    10400.00
02999               0.00    10400.00
03000              -4.20    10400.00
03001               5.00    10600.00
03002               4.40    10800.00
03003              -5.00    10800.00
03004               1.00    10800.00
03005               6.60    10800.00
03006              -1.80    11000.00
03007              -2.00    11000.00
03008               4.60    11000.00
03009               1.20    11000.00
03010              -1.80    11000.00
03011               3.00    11200.00
03012               2.00    11200.00
03013              -0.60    11200.00
03014               1.20    11200.00
03015               2.60    11200.00
03016               1.00    11200.00
03017              -0.40    11600.00
03018               1.40    11400.00
03019               2.60    11400.00
03020               0.40    11400.00
03021              -0.20    11600.00
03022               2.80    11600.00
03023               1.80    11400.00
03024              -0.40    11600.00
03025               1.80    11400.00
03026               2.00    11600.00
03027               0.00    11600.00
03028               1.80    11600.00
03029               3.00    11600.00
03030              -0.20    11600.00
03031               0.20    11600.00
03032               3.00    11400.00
03033               0.60    11600.00
03034               0.20    11600.00
03035               2.40    11600.00
03036               1.40    11400.00
03037               0.20    11400.00
03038               1.80    11400.00
03039               1.80    11200.00
03040               0.60    11400.00
03041               1.20    11200.00
03042               1.60    11200.00
03043               1.00    11200.00
03044               0.60    11200.00
03045               1.20    11000.00
03046               2.00    11200.00
03047               1.80    11000.00
03048               0.40    11000.00
03049               1.60    11000.00
03050               1.20    10800.00
03051               0.20    10800.00
03052               1.40    10800.00
03053               1.40    10800.00
03054               0.00    10600.00
03055               1.40    10800.00
03056               1.80    10400.00
03057               0.60    10400.00
03058               0.60    10400.00
03059               2.00    10400.00
03060               1.20    10200.00
03061               0.40    10200.00
03062               1.20    10000.00
03063               0.80    10000.00
03064               0.60     9800.00
03065               1.20     9600.00
03066               0.60     9600.00
03067               0.60     9600.00
03068               1.00     9400.00
03069               0.80     9400.00
03070               0.80     9400.00
03071               1.20     9200.00
03072               0.20     9200.00
03073               0.60     9200.00
03074               2.00     8800.00
03075               0.20     8800.00
03076              -0.20     8800.00
03077               2.00     8600.00
03078               0.40     8400.00
03079               0.00     8400.00
03080               1.40     8400.00
03081               0.40     8400.00
03082              -0.20     8000.00
03083               1.00     7800.00
03084               1.00     8000.00
03085               0.20     7800.00
03086               0.20     7600.00
03087               1.00     7600.00
03088               0.60     7200.00
03089               0.40     7200.00
03090               0.60     7000.00
03091               0.60     6800.00
03092               0.40     6800.00
03093               0.60     6600.00
03094               0.60     6400.00
03095               0.00     6400.00
03096               0.40     6200.00
03097               1.00     6000.00
03098               0.20     6000.00
03099               0.20     5800.00
03100               0.60     5600.00
03101               0.20     5400.00
03102               0.20     5400.00
03103               0.80     5200.00
03104               0.40     5200.00
03105               0.20     4800.00
03106               0.60     4800.00
03107               0.40     4600.00
03108              -0.20     4400.00
03109               0.40     4400.00
03110               1.00     4000.00
03111              -0.20     3800.00
03112               0.20     3800.00
03113               0.60     3600.00
03114              -0.20     3400.00
03115               0.20     3200.00
03116               0.60     3200.00
03117              -0.20     2800.00
03118              -0.20     2800.00
03119               0.40     2800.00
03120               0.20     2400.00
03121              -0.20     2400.00
03122              -0.20     2200.00
03123               0.20     2000.00
03124              -0.20     1800.00
03125              -0.20     1600.00
03126               0.20     1400.00
03127              -0.20     1400.00
03128              -0.40     1000.00
03129               0.00     1200.00
03130              -0.40      800.00
03131              -0.40      600.00
03132              -0.40      400.00
03133              -0.60      200.00
03134               0.20        0.00
03135               0.20        0.00
03136              -1.20     -200.00
03137               0.40     -400.00
03138               1.80     -600.00
03139              -1.20     -800.00
03140              -1.00     -800.00
03141               0.60    -1000.00
03142              -0.40    -1200.00
03143              -1.00    -1400.00
03144               3.60    -1600.00
03145              25.00    -1800.00
03146             -12.40    -2000.00
03147             -25.00    -2200.00
03148             -19.00    -2000.00
03149              25.00    -2000.00
03150              25.00    -2600.00
03151             -25.00    -2800.00
03152             -25.00    -2400.00
03153              25.00    -3200.00
03154              25.00    -3400.00
03155             -25.00    -3000.00
03156              25.00    -3600.00
03157              25.00    -3600.00
03158             -25.00    -3600.00
03159              25.00    -4000.00
03160              25.00    -4000.00
03161             -25.00    -4200.00
03162              12.20    -4400.00
03163               4.60    -4400.00
03164              25.00    -4600.00
03165             -25.00    -5000.00
03166             -25.00    -5000.00
03167              25.00    -5200.00
03168              15.80    -5400.00
03169             -25.00    -5400.00
03170              25.00    -5800.00
03171              25.00    -5800.00
03172             -25.00    -6000.00
03173              18.60    -6200.00
03174              25.00    -6400.00
03175             -25.00    -6400.00
03176             -25.00    -6400.00
03177              25.00    -6800.00
03178              14.60    -6800.00
03179             -25.00    -7000.00
03180              23.20    -7400.00
03181              25.00    -7200.00
03182             -25.00    -7200.00
03183             -18.00    -7600.00
03184              25.00    -7400.00
03185               3.60    -7800.00
03186             -25.00    -7800.00
03187              20.40    -8000.00
03188              18.20    -8200.00
03189             -25.00    -8200.00
03190              -1.80    -8400.00
03191              21.80    -8600.00
03192              -9.40    -8800.00
03193             -21.20    -8800.00
03194              18.20    -9000.00
03195               4.20    -8800.00
03196             -23.40    -9200.00
03197               8.20    -9000.00
03198              11.80    -9200.00
03199             -16.60    -9400.00
03200              -5.20    -9400.00
03201              14.80    -9600.00
03202              -8.40    -9600.00
03203             -13.00    -9800.00
03204              10.60   -10000.00
03205               2.00    -9800.00
03206             -13.80   -10000.00
03207               1.40   -10000.00
03208               8.20   -10200.00
03209             -11.40   -10200.00
03210              -4.40   -10400.00
03211               8.20   -10400.00
03212              -4.20   -10400.00
03213              -9.00   -10600.00
03214               3.60   -10600.00
03215               3.40   -10800.00
03216              -9.80   -10800.00
03217              -2.60   -10800.00
03218               6.60   -10800.00
03219              -5.20   -10800.00
03220              -6.80   -11200.00
03221               4.20   -10800.00
03222              -0.40   -11000.00
03223              -7.00   -11200.00
03224              -0.40   -11000.00
03225               2.60   -11000.00
03226              -5.40   -11200.00
03227              -3.80   -11000.00
03228               3.20   -11200.00
03229              -2.20   -11400.00
03230              -6.00   -11400.00
03231               0.60   -11400.00
03232               1.00   -11400.00
03233              -4.60   -11400.00
03234              -3.00   -11400.00
03235               1.80   -11400.00
03236              -2.20   -11400.00
03237              -4.20   -11400.00
03238               0.20   -11400.00
03239              -0.60   -11400.00
03240              -3.80   -11400.00
03241              -2.00   -11400.00
03242               0.40   -11600.00
03243              -2.20   -11600.00
03244              -3.00   -11400.00
03245              -0.60   -11600.00
03246              -1.00   -11600.00
03247              -3.40   -11400.00
03248              -1.80   -11400.00
03249              -0.60   -11400.00
03250              -2.00   -11600.00
03251              -2.20   -11400.00
03252              -0.60   -11400.00
03253              -2.20   -11200.00
03254              -2.40   -11400.00
03255              -0.60   -11200.00
03256              -2.00   -11000.00
03257              -2.20   -11200.00
03258              -1.20   -11000.00
03259              -2.00   -11000.00
03260              -1.80   -11200.00
03261              -1.40   -11000.00
03262              -2.60   -11000.00
03263              -2.00   -11000.00
03264              -1.20   -10800.00
03265              -1.80   -10800.00
03266              -2.80   -10800.00
03267              -1.40   -10600.00
03268              -1.40   -10600.00
03269              -2.60   -10400.00
03270              -1.20   -10600.00
03271              -1.40   -10400.00
03272              -2.20   -10400.00
03273              -1.40   -10400.00
03274              -1.40   -10400.00
03275              -2.20   -10200.00
03276              -2.00   -10000.00
03277              -1.20   -10000.00
03278              -1.60    -9800.00
03279              -2.00    -9800.00
03280              -1.40    -9600.00
03281              -1.80    -9600.00
03282              -1.40    -9600.00
03283              -1.40    -9600.00
03284              -1.40    -9400.00
03285              -2.00    -9200.00
03286              -1.20    -9200.00
03287              -1.80    -9000.00
03288              -1.40    -9000.00
03289              -1.60    -8800.00
03290              -1.40    -8800.00
03291              -1.40    -8800.00
03292              -1.20    -8400.00
03293              -1.60    -8400.00
03294              -1.40    -8200.00
03295              -1.20    -8200.00
03296              -1.00    -8000.00
03297              -1.20    -7800.00
03298              -1.60    -7600.00
03299              -1.20    -7600.00
03300              -1.00    -7400.00
03301              -1.20    -7400.00
03302              -1.20    -7200.00
03303              -1.20    -7200.00
03304              -1.20    -7000.00
03305              -1.00    -6800.00
03306              -1.20    -6800.00
03307              -1.00    -6600.00
03308              -1.20    -6400.00
03309              -1.20    -6400.00
03310              -0.60    -6200.00
03311              -1.00    -5800.00
03312              -1.40    -6000.00
03313              -1.00    -5800.00
03314              -0.60    -5600.00
03315              -1.20    -5600.00
03316              -1.20    -5200.00
03317              -0.60    -5200.00
03318              -1.00    -5000.00
03319              -0.60    -4600.00
03320              -1.00    -4600.00
03321              -0.60    -4400.00
03322              -0.60    -4400.00
03323              -1.20    -4200.00
03324              -0.60    -4000.00
03325              -0.40    -4000.00
03326              -1.20    -4000.00
03327              -1.20    -3600.00
03328               0.00    -3600.00
03329              -1.00    -3400.00
03330              -1.40    -3200.00
03331              -0.40    -2800.00
03332              -0.60    -2800.00
03333              -1.20    -2600.00
03334              -0.60    -2400.00
03335              -0.40    -2400.00
03336              -1.00    -2000.00
03337              -0.80    -2000.00
03338               0.00    -1800.00
03339              -1.00    -1600.00
03340              -1.00    -1600.00
03341              -0.20    -1200.00
03342              -0.60    -1200.00
03343              -0.60     -800.00
03344              -0.40     -800.00
03345              -0.60     -800.00
03346              -0.60     -600.00
03347              -0.20     -200.00
03348              -0.20     -200.00
03349              -0.80        0.00
03350               0.40      200.00
03351               1.00      400.00
03352               1.00      400.00
03353              -0.60      600.00
03354               0.00      800.00
03355               0.60     1000.00
03356               0.00     1200.00
03357              -0.20     1400.00
03358               4.20     1600.00
03359              15.80     1800.00
03360               2.20     2000.00
03361             -25.00     2200.00
03362             -20.20     2200.00
03363               9.40     2200.00
03364              25.00     2600.00
03365             -12.60     2800.00
03366             -25.00     2800.00
03367              25.00     3200.00
03368              25.00     3000.00
03369             -25.00     3200.00
03370              11.60     3600.00
03371              25.00     3600.00
03372             -25.00     3600.00
03373             -24.40     4400.00
03374              25.00     4000.00
03375             -25.00     4200.00
03376             -25.00     4600.00
03377              24.40     4600.00
03378              24.40     4800.00
03379             -14.40     5000.00
03380             -25.00     5200.00
03381              25.00     5200.00
03382              25.00     5600.00
03383             -25.00     5600.00
03384               6.80     6000.00
03385              25.00     6000.00
03386             -25.00     6200.00
03387             -25.00     6200.00
03388              25.00     6200.00
03389              11.60     6400.00
03390             -25.00     6800.00
03391              19.80     6800.00
03392              25.00     6800.00
03393             -25.00     7000.00
03394              -7.40     7000.00
03395              25.00     7200.00
03396              -9.80     7600.00
03397             -25.00     7400.00
03398              23.60     7600.00
03399              14.80     7800.00
03400             -25.00     8000.00
03401               2.60     8200.00
03402              24.40     8200.00
03403             -12.60     8400.00
03404             -12.60     8400.00
03405              19.60     8400.00
03406               3.60     8800.00
03407             -18.00     8800.00
03408               7.80     8800.00
03409              13.40     8800.00
03410             -13.80     9000.00
03411              -2.00     9200.00
03412              16.40     9200.00
03413              -5.00     9200.00
03414             -10.20     9400.00
03415              13.00     9600.00
03416               4.40     9600.00
03417             -12.20     9600.00
03418               6.00     9800.00
03419              10.20    10000.00
03420              -7.80    10000.00
03421              -1.80    10000.00
03422              10.20    10200.00
03423              -2.60    10200.00
03424              -5.00    10400.00
03425               7.80    10400.00
03426               2.60    10400.00
03427              -5.00    10800.00
03428               3.00    10600.00
03429               5.40    10800.00
03430              -1.40    10800.00
03431              -2.20    10800.00
03432               5.00    10800.00
03433               2.80    11000.00
03434              -3.40    11000.00
03435               2.40    11000.00
03436               4.40    11200.00
03437              -1.80    11000.00
03438              -0.20    11000.00
03439               4.60    11200.00
03440               0.60    11200.00
03441              -1.40    11200.00
03442               3.40    11200.00
03443               3.40    11200.00
03444              -1.20    11600.00
03445               0.40    11400.00
03446               3.80    11600.00
03447               0.80    11200.00
03448              -0.60    11400.00
03449               2.20    11600.00
03450               2.00    11400.00
03451               0.20    11400.00
03452               1.00    11600.00
03453               2.40    11600.00
03454               0.60    11600.00
03455               0.40    11600.00
03456               2.00    11600.00
03457               1.60    11400.00
03458              -0.20    11600.00
03459               1.40    11400.00
03460               2.60    11200.00
03461               0.40    11600.00
03462               0.40    11600.00
03463               1.80    11600.00
03464               1.40    11400.00
03465               0.60    11400.00
03466               1.20    11200.00
03467               1.40    11400.00
03468               0.80    11200.00
03469               1.40    11200.00
03470               1.40    11200.00
03471               1.40    11000.00
03472               0.60    11200.00
03473               1.00    11000.00
03474               1.20    11000.00
03475               1.40    10800.00
03476               0.60    11000.00
03477               1.80    10800.00
03478               1.40    11000.00
03479               1.00    10800.00
03480               1.40    10800.00
03481               1.20    10600.00
03482               0.60    10600.00
03483               1.40    10400.00
03484               1.20    10400.00
03485               1.00    10400.00
03486               0.80    10400.00
03487               1.00    10200.00
03488               1.40    10200.00
03489               1.00    10200.00
03490               0.60    10000.00
03491               1.60     9800.00
03492               1.20     9800.00
03493               0.60     9800.00
03494               1.20     9600.00
03495               1.00     9600.00
03496               0.60     9400.00
03497               1.40     9400.00
03498               1.00     9200.00
03499               0.60     9200.00
03500               1.00     9200.00
03501               1.40     9200.00
03502               0.80     8800.00
03503               0.40     8800.00
03504               1.20     8600.00
03505               1.00     8600.00
03506               1.00     8400.00
03507               1.00     8400.00
03508               1.00     8200.00
03509               0.40     8200.00
03510               1.00     7800.00
03511               1.00     7800.00
03512               0.40     7800.00
03513               1.00     7600.00
03514               0.80     7400.00
03515               0.60     7200.00
03516               0.60     7200.00
03517               0.60     7000.00
03518               0.40     6800.00
03519               0.40     6800.00
03520               0.60     6600.00
03521               0.40     6400.00
03522               0.20     6400.00
03523               0.40     6200.00
03524               0.60     6200.00
03525               0.20     6000.00
03526               0.20     5800.00
03527               0.40     5600.00
03528               0.40     5600.00
03529               0.20     5400.00
03530               0.20     5200.00
03531               0.20     5200.00
03532               0.20     4800.00
03533               0.20     4800.00
03534               0.40     4600.00
03535               0.20     4400.00
03536               0.20     4400.00
03537              -0.20     4000.00
03538               0.20     4000.00
03539               0.40     3800.00
03540              -0.60     3600.00
03541              -0.60     3600.00
03542               1.40     3600.00
03543               0.60     3000.00
03544              -2.40     3000.00
03545              -0.40     3000.00
03546               2.80     2800.00
03547              -0.60     2600.00
03548              -2.60     2200.00
03549               1.80     2200.00
03550               1.40     2200.00
03551              -1.80     2000.00
03552              -0.60     1800.00
03553               1.40     1600.00
03554              -0.40     1400.00
03555              -1.00     1200.00
03556               0.20     1000.00
03557               0.20      800.00
03558              -0.60      800.00
03559              -0.20      600.00
03560               0.20      400.00
03561              -0.60      200.00
03562              -0.20        0.00
03563              -0.20        0.00
03564              -0.40     -200.00
03565               1.00     -400.00
03566               1.20     -400.00
03567              -1.20     -600.00
03568              -0.60     -800.00
03569               0.60    -1000.00
03570              -0.60    -1200.00
03571               0.20    -1400.00
03572              15.60    -1600.00
03573              14.80    -2000.00
03574             -25.00    -2200.00
03575             -25.00    -2200.00
03576               9.80    -2000.00
03577              25.00    -2400.00
03578             -12.40    -2800.00
03579             -25.00    -2400.00
03580              25.00    -2800.00
03581              25.00    -3400.00
03582             -25.00    -3000.00
03583             -25.00    -3200.00
03584              25.00    -3800.00
03585             -25.00    -3600.00
03586             -25.00    -3600.00
03587              25.00    -4200.00
03588             -25.00    -4000.00
03589             -25.00    -4400.00
03590              10.00    -4400.00
03591              21.40    -4600.00
03592              25.00    -5000.00
03593             -25.00    -4800.00
03594              25.00    -5200.00
03595              25.00    -5600.00
03596             -25.00    -5000.00
03597               8.00    -5800.00
03598              25.00    -5800.00
03599             -25.00    -5800.00
03600             -25.00    -6000.00
03601              25.00    -6200.00
03602              13.60    -6400.00
03603             -25.00    -6400.00
03604              12.40    -6800.00
03605              25.00    -6800.00
03606             -25.00    -6800.00
03607             -17.00    -7200.00
03608              25.00    -7200.00
03609              -8.20    -7200.00
03610             -25.00    -7600.00
03611              12.60    -7400.00
03612              25.00    -7800.00
03613             -25.00    -8000.00
03614              -9.80    -8000.00
03615              25.00    -8000.00
03616             -17.00    -8200.00
03617             -19.80    -8400.00
03618              18.60    -8400.00
03619               8.40    -8600.00
03620             -25.00    -8600.00
03621               2.20    -8800.00
03622              19.60    -8800.00
03623             -19.00    -9000.00
03624              -7.60    -9000.00
03625              17.40    -9200.00
03626              -6.00    -9200.00
03627             -15.80    -9400.00
03628              10.80    -9600.00
03629               4.40    -9600.00
03630             -17.00    -9600.00
03631               2.60    -9800.00
03632              10.20    -9800.00
03633             -10.20    -9800.00
03634              -7.00   -10200.00
03635              10.60   -10000.00
03636              -4.00   -10200.00
03637             -11.00   -10400.00
03638               6.20   -10400.00
03639               1.80   -10400.00
03640              -9.20   -10400.00
03641              -1.20   -10600.00
03642               5.80   -10600.00
03643              -5.00   -10800.00
03644              -7.60   -10800.00
03645               4.80   -10800.00
03646               0.60   -10800.00
03647              -8.20   -11000.00
03648              -0.20   -10800.00
03649               2.80   -11200.00
03650              -5.20   -11000.00
03651              -4.20   -11200.00
03652               2.60   -11000.00
03653              -2.00   -11200.00
03654              -6.60   -11200.00
03655               1.00   -11400.00
03656               1.40   -11200.00
03657              -6.20   -11400.00
03658              -2.60   -11400.00
03659               2.00   -11400.00
03660              -2.40   -11400.00
03661              -5.20   -11400.00
03662              -0.20   -11600.00
03663               0.20   -11400.00
03664              -4.40   -11600.00
03665              -1.80   -11600.00
03666               0.20   -11600.00
03667              -3.00   -11600.00
03668              -3.00   -11600.00
03669              -0.40   -11400.00
03670              -1.20   -11600.00
03671              -3.80   -11600.00
03672              -1.40   -11600.00
03673              -0.40   -11600.00
03674              -3.00   -11400.00
03675              -2.20   -11600.00
03676              -1.00   -11400.00
03677              -1.40   -11400.00
03678              -2.20   -11600.00
03679              -1.40   -11400.00
03680              -1.20   -11400.00
03681              -2.20   -11200.00
03682              -2.00   -11400.00
03683              -1.20   -11200.00
03684              -2.00   -11000.00
03685              -2.20   -11200.00
03686              -1.80   -11200.00
03687              -1.20   -11000.00
03688              -1.80   -11000.00
03689              -2.00   -11000.00
03690              -1.20   -11000.00
03691              -1.80   -10800.00
03692              -1.40   -10800.00
03693              -1.40   -10800.00
03694              -2.20   -10800.00
03695              -1.40   -10800.00
03696              -1.40   -10600.00
03697              -1.60   -10600.00
03698              -1.40   -10400.00
03699              -1.40   -10400.00
03700              -1.80   -10400.00
03701              -1.20   -10200.00
03702              -1.20   -10000.00
03703              -2.00    -9800.00
03704              -1.80   -10000.00
03705              -0.60    -9800.00
03706              -1.80    -9800.00
03707              -2.00    -9800.00
03708              -1.00    -9600.00
03709              -1.20    -9600.00
03710              -1.40    -9400.00
03711              -1.40    -9600.00
03712              -2.00    -9200.00
03713              -1.40    -9200.00
03714              -1.80    -9200.00
03715              -1.80    -9000.00
03716              -1.60    -9000.00
03717              -2.00    -8800.00
03718              -1.20    -8600.00
03719              -1.00    -8400.00
03720              -1.80    -8400.00
03721              -1.80    -8200.00
03722              -1.00    -8400.00
03723              -1.40    -8000.00
03724              -1.80    -8000.00
03725              -1.00    -7800.00
03726              -2.00    -7800.00
03727              -2.00    -7600.00
03728              -1.00    -7400.00
03729              -0.60    -7400.00
03730              -2.00    -7200.00
03731              -2.20    -7000.00
03732              -0.40    -6800.00
03733              -1.00    -6800.00
03734              -2.20    -6600.00
03735              -1.00    -6600.00
03736              -0.60    -6200.00
03737              -1.40    -6200.00
03738              -1.20    -6200.00
03739              -0.60    -6000.00
03740              -1.20    -6000.00
03741              -1.20    -5600.00
03742              -1.00    -5400.00
03743              -0.60    -5200.00
03744              -1.20    -5200.00
03745              -1.20    -5000.00
03746              -0.60    -4600.00
03747              -1.20    -4600.00
03748              -1.20    -4600.00
03749              -0.60    -4400.00
03750              -1.00    -4200.00
03751              -1.20    -4200.00
03752              -0.40    -4000.00
03753              -0.60    -3800.00
03754              -1.20    -3600.00
03755              -0.60    -3400.00
03756              -0.40    -3400.00
03757              -1.00    -3200.00
03758              -1.00    -3000.00
03759              -0.40    -2800.00
03760              -0.60    -2600.00
03761              -1.00    -2400.00
03762              -0.60    -2400.00
03763               0.00    -2200.00
03764              -0.60    -2000.00
03765              -0.40    -1800.00
03766               0.20    -1800.00
03767              -0.80    -1600.00
03768              -1.00    -1200.00
03769               0.20    -1200.00
03770              -0.40     -800.00
03771              -1.00     -800.00
03772              -0.40     -600.00
03773              -0.20     -400.00
03774              -0.40     -200.00
03775              -0.20     -200.00
03776              -0.40        0.00
03777              -0.40      200.00
03778               0.40      400.00
03779               1.40      400.00
03780              -0.20      600.00
03781              -1.20      800.00
03782               0.60      800.00
03783               1.00     1000.00
03784              -0.60     1200.00
03785               1.80     1400.00
03786              10.60     1800.00
03787              14.80     2000.00
03788             -22.60     2000.00
03789             -25.00     2200.00
03790              -5.40     2200.00
03791              25.00     2800.00
03792              25.00     2800.00
03793             -25.00     2600.00
03794              -1.40     3200.00
03795              25.00     3200.00
03796             -25.00     3000.00
03797             -25.00     3400.00
03798              25.00     3600.00
03799              16.60     3600.00
03800             -25.00     4000.00
03801              25.00     4000.00
03802              25.00     4000.00
03803             -25.00     4400.00
03804               7.40     4400.00
03805              25.00     4600.00
03806               7.80     4800.00
03807             -25.00     5200.00
03808               3.40     5200.00
03809              25.00     5400.00
03810             -25.00     5600.00
03811             -25.00     5600.00
03812              25.00     5600.00
03813               8.60     6000.00
03814             -25.00     6200.00
03815              21.00     6200.00
03816              25.00     6400.00
03817             -25.00     6600.00
03818             -16.20     6800.00
03819              25.00     6800.00
03820             -11.00     7000.00
03821             -25.00     7200.00
03822              25.00     7200.00
03823              16.40     7200.00
03824             -25.00     7600.00
03825               3.80     7800.00
03826              25.00     7600.00
03827             -17.20     7800.00
03828             -16.60     8000.00
03829              24.60     8200.00
03830               3.60     8400.00
03831             -19.40     8400.00
03832               9.00     8400.00
03833              15.60     8400.00
03834             -13.40     8800.00
03835              -4.40     8800.00
03836              17.20     8800.00
03837              -3.60     8800.00
03838             -11.20     9200.00
03839              12.80     9200.00
03840               6.20     9400.00
03841             -13.00     9400.00
03842               4.20     9400.00
03843              11.80     9600.00
03844              -8.60     9600.00
03845              -3.40     9800.00
03846              12.20     9800.00
03847              -1.00    10000.00
03848              -7.40    10000.00
03849               7.00    10000.00
03850               4.40    10200.00
03851              -6.20    10200.00
03852               1.80    10400.00
03853               6.80    10400.00
03854              -2.80    10400.00
03855              -2.20    10600.00
03856               6.40    10600.00
03857               1.80    10800.00
03858              -4.40    10800.00
03859               2.60    10800.00
03860               5.80    10800.00
03861              -2.80    10800.00
03862              -0.60    11000.00
03863               5.20    11000.00
03864               0.40    11000.00
03865              -2.00    11200.00
03866               3.80    11000.00
03867               2.00    11200.00
03868              -1.80    11200.00
03869               1.80    11200.00
03870               3.60    11400.00
03871               0.00    11200.00
03872              -0.60    11600.00
03873               3.40    11400.00
03874               2.00    11600.00
03875              -0.60    11200.00
03876               1.20    11200.00
03877               3.00    11600.00
03878               0.40    11400.00
03879               0.40    11600.00
03880               2.60    11600.00
03881               1.20    11400.00
03882               0.40    11600.00
03883               2.00    11600.00
03884               2.20    11400.00
03885               0.20    11600.00
03886               0.60    11400.00
03887               2.60    11400.00
03888               1.00    11600.00
03889               1.00    11600.00
03890               1.80    11400.00
03891               1.20    11400.00
03892               1.20    11400.00
03893               1.40    11200.00
03894               1.00    11200.00
03895               1.20    11200.00
03896               1.20    11200.00
03897               1.80    11200.00
03898               1.40    11200.00
03899               0.60    11200.00
03900               1.00    11000.00
03901               1.20    11200.00
03902               2.20    11000.00
03903               0.60    11000.00
03904               1.40    10800.00
03905               2.00    11000.00
03906               1.20    11000.00
03907               0.20    10800.00
03908               1.40    10600.00
03909               1.00    10800.00
03910               0.40    10600.00
03911               1.80    10400.00
03912               1.00    10400.00
03913               0.60    10200.00
03914               1.00    10200.00
03915               1.40    10200.00
03916               0.40    10000.00
03917               0.60    10000.00
03918               1.00    10000.00
03919               1.20     9800.00
03920               1.00    10000.00
03921               0.60     9600.00
03922               1.20     9600.00
03923               0.60     9600.00
03924               1.00     9400.00
03925               1.00     9400.00
03926               0.40     9200.00
03927               1.00     9200.00
03928               1.00     9200.00
03929               0.60     9200.00
03930               0.40     8800.00
03931               0.60     8600.00
03932               0.80     8600.00
03933               0.40     8400.00
03934               0.60     8400.00
03935               0.60     8200.00
03936               0.40     8200.00
03937               0.60     8000.00
03938               1.00     7800.00
03939               0.60     7800.00
03940               0.40     7800.00
03941               0.60     7600.00
03942               0.60     7400.00
03943               0.40     7200.00
03944               0.80     7000.00
03945               0.40     7000.00
03946               0.60     6800.00
03947               0.60     6800.00
03948               0.60     6600.00
03949               0.40     6400.00
03950               0.40     6200.00
03951               1.00     6200.00
03952               0.40     6000.00
03953               0.20     6000.00
03954               0.40     5800.00
03955               0.40     5600.00
03956               0.40     5400.00
03957               0.40     5200.00
03958               0.40     5000.00
03959               0.20     4800.00
03960               0.40     4800.00
03961               0.40     4600.00
03962               0.20     4400.00
03963               0.20     4400.00
03964               0.40     4200.00
03965               0.40     4000.00
03966               0.20     4000.00
03967               0.20     3800.00
03968               0.20     3600.00
03969               0.20     3400.00
03970               0.40     3200.00
03971              -0.20     3000.00
03972              -0.20     3000.00
03973               0.00     2800.00
03974              -0.20     2400.00
03975               0.20     2400.00
03976              -0.20     2200.00
03977              -0.60     2000.00
03978              -0.20     1800.00
03979               0.40     2000.00
03980              -0.20     1600.00
03981              -0.40     1400.00
03982              -0.20     1200.00
03983              -1.00     1200.00
03984              -1.00      800.00
03985              -0.20      600.00
03986              -0.80      400.00
03987              -0.20      400.00
03988               0.60      400.00
03989               0.60      200.00
03990              -0.20        0.00
03991               0.40     -200.00
03992               0.20     -400.00
03993              -0.40     -600.00
03994              -2.00     -800.00
03995              -2.80     -800.00
03996              -0.20    -1000.00
03997               1.00    -1200.00
03998               1.00    -1200.00
03999               7.80    -1400.00
04000              25.00    -1800.00
04001             -21.40    -2000.00
04002             -25.00    -2400.00
04003             -18.20    -2000.00
04004              25.00    -2200.00
04005              25.00    -2800.00
04006             -25.00    -2600.00
04007              -4.40    -2400.00
04008              25.00    -3400.00
04009             -16.40    -3200.00
04010             -25.00    -3000.00
04011              25.00    -3800.00
04012              25.00    -3600.00
04013             -25.00    -3600.00
04014              25.00    -4000.00
04015              25.00    -4000.00
04016             -25.00    -4200.00
04017              19.00    -4600.00
04018               7.60    -4400.00
04019              25.00    -4800.00
04020             -25.00    -4800.00
04021             -25.00    -5000.00
04022              25.00    -5200.00
04023             -25.00    -5200.00
04024             -25.00    -5600.00
04025              25.00    -5800.00
04026               7.00    -5600.00
04027             -25.00    -6200.00
04028              25.00    -6000.00
04029              25.00    -6400.00
04030             -25.00    -6400.00
04031             -25.00    -6400.00
04032              25.00    -6600.00
04033              -5.00    -6800.00
04034             -25.00    -7000.00
04035              25.00    -7200.00
04036              18.20    -7200.00
04037             -25.00    -7400.00
04038             -10.60    -7600.00
04039              25.00    -7600.00
04040              -8.60    -7800.00
04041             -25.00    -8000.00
04042              25.00    -8200.00
04043               8.40    -8200.00
04044             -25.00    -8200.00
04045               4.40    -8400.00
04046              18.00    -8400.00
04047             -14.80    -8600.00
04048             -15.60    -8800.00
04049              19.40    -9000.00
04050              -2.00    -9000.00
04051             -17.40    -9000.00
04052              10.60    -9200.00
04053               5.80    -9200.00
04054             -16.20    -9600.00
04055              -0.40    -9600.00
04056              11.40    -9600.00
04057             -11.40    -9600.00
04058              -7.40    -9800.00
04059              10.80    -9800.00
04060              -2.60    -9800.00
04061             -11.80   -10000.00
04062               5.00   -10200.00
04063               5.00   -10200.00
04064             -12.60   -10400.00
04065              -1.20   -10400.00
04066               6.80   -10400.00
04067              -6.60   -10400.00
04068              -6.60   -10600.00
04069               5.40   -10600.00
04070               1.20   -10600.00
04071             -10.00   -10600.00
04072              -0.20   -10800.00
04073               4.80   -10800.00
04074              -7.20   -10800.00
04075              -4.60   -11000.00
04076               4.20   -11000.00
04077              -2.20   -11200.00
04078              -6.00   -11000.00
04079               1.80   -11200.00
04080               1.00   -11000.00
04081              -6.00   -11200.00
04082              -2.80   -11200.00
04083               2.20   -11400.00
04084              -3.80   -11400.00
04085              -4.40   -11400.00
04086               1.40   -11400.00
04087               0.20   -11400.00
04088              -4.40   -11400.00
04089              -2.20   -11600.00
04090               1.00   -11400.00
04091              -3.00   -11400.00
04092              -3.80   -11600.00
04093               0.20   -11400.00
04094              -0.60   -11600.00
04095              -3.60   -11600.00
04096              -1.40   -11600.00
04097               1.20   -11400.00
04098              -4.00   -11600.00
04099              -4.20   -11400.00
04100               1.20   -11600.00
04101              -2.60   -11600.00
04102              -3.60   -11600.00
04103               0.20   -11400.00
04104              -2.20   -11400.00
04105              -1.20   -11400.00
04106              -1.80   -11400.00
04107              -2.20   -11400.00
04108              -1.80   -11400.00
04109              -2.20   -11400.00
04110              -1.40   -11400.00
04111              -2.00   -11200.00
04112              -1.20   -11000.00
04113              -2.80   -11000.00
04114              -1.20   -11200.00
04115              -0.60   -11000.00
04116              -4.60   -10800.00
04117              -0.60   -11000.00
04118              -1.20   -10800.00
04119              -2.20   -10800.00
04120              -1.20   -10800.00
04121              -2.20   -10600.00
04122              -1.20   -10600.00
04123              -2.00   -10600.00
04124              -2.60   -10600.00
04125              -1.00   -10400.00
04126              -2.00   -10400.00
04127              -3.00   -10400.00
04128              -0.60   -10400.00
04129              -1.00   -10200.00
04130              -3.40   -10000.00
04131              -1.20   -10000.00
04132              -0.20   -10000.00
04133              -2.80    -9800.00
04134              -2.00    -9800.00
04135              -0.40    -9800.00
04136              -2.80    -9600.00
04137              -1.80    -9600.00
04138               0.20    -9600.00
04139              -2.00    -9400.00
04140              -2.60    -9200.00
04141               0.20    -9000.00
04142              -2.20    -9000.00
04143              -2.20    -9000.00
04144              -1.20    -8800.00
04145              -1.00    -8800.00
04146              -2.20    -8600.00
04147              -1.00    -8400.00
04148              -1.20    -8400.00
04149              -1.80    -8200.00
04150              -1.20    -8200.00
04151              -0.20    -8000.00
04152              -1.20    -8000.00
04153              -2.00    -7800.00
04154              -1.20    -7600.00
04155              -0.80    -7400.00
04156              -1.60    -7400.00
04157              -1.20    -7200.00
04158              -0.60    -7200.00
04159              -0.60    -7000.00
04160              -1.20    -6800.00
04161              -1.40    -6800.00
04162              -1.20    -6600.00
04163              -1.00    -6400.00
04164              -1.40    -6400.00
04165              -0.60    -6000.00
04166               0.40    -6000.00
04167              -1.40    -5800.00
04168              -2.00    -5800.00
04169               0.40    -5600.00
04170              -1.20    -5400.00
04171              -2.60    -5200.00
04172               0.20    -5000.00
04173              -0.60    -5000.00
04174              -1.80    -4800.00
04175              -0.80    -4600.00
04176              -0.80    -4400.00
04177              -1.20    -4400.00
04178              -1.20    -4200.00
04179              -1.00    -4000.00
04180              -0.40    -4000.00
04181              -1.40    -3800.00
04182              -1.00    -3600.00
04183               0.40    -3400.00
04184              -0.40    -3200.00
04185              -3.20    -3200.00
04186              -0.60    -2800.00
04187               1.00    -2800.00
04188              -1.80    -2600.00
04189              -1.00    -2400.00
04190               0.20    -2200.00
04191              -1.20    -2000.00
04192              -1.40    -2000.00
04193               0.20    -1800.00
04194              -0.20    -1600.00
04195              -1.40    -1600.00
04196              -0.20    -1200.00
04197               0.60    -1200.00
04198              -0.60    -1000.00
04199              -2.20     -800.00
04200              -0.20     -400.00
04201               1.20     -400.00
04202              -0.80     -200.00
04203              -0.40        0.00
04204               0.60      200.00
04205              -0.40      200.00
04206               0.40      400.00
04207               2.00      600.00
04208              -1.20      600.00
04209              -1.20      800.00
04210               2.00     1000.00
04211               0.20     1200.00
04212              -0.60     1400.00
04213               6.60     1600.00
04214              17.80     2000.00
04215              -5.80     2000.00
04216             -25.00     2200.00
04217             -15.00     2200.00
04218              18.00     2200.00
04219              25.00     2800.00
04220             -25.00     2400.00
04221             -25.00     3000.00
04222              25.00     3200.00
04223              25.00     3000.00
04224             -25.00     3400.00
04225              25.00     3600.00
04226              25.00     3600.00
04227             -25.00     3600.00
04228               7.60     4200.00
04229              25.00     4000.00
04230             -25.00     4200.00
04231             -24.40     4600.00
04232              25.00     4400.00
04233              22.00     4800.00
04234             -25.00     4800.00
04235             -25.00     5200.00
04236              25.00     5200.00
04237              15.80     5400.00
04238             -25.00     5600.00
04239              25.00     5600.00
04240              25.00     5800.00
04241             -25.00     6200.00
04242             -19.40     6200.00
04243              25.00     6400.00
04244              -4.40     6400.00
04245             -25.00     6600.00
04246              25.00     6400.00
04247              22.60     6800.00
04248             -25.00     7000.00
04249               5.20     7200.00
04250              25.00     7200.00
04251             -19.40     7600.00
04252             -18.60     7600.00
04253              25.00     7800.00
04254               5.20     7800.00
04255             -25.00     7800.00
04256              10.60     8000.00
04257              20.00     8200.00
04258             -17.80     8400.00
04259              -6.20     8400.00
04260              21.00     8600.00
04261              -2.20     8600.00
04262             -15.00     8800.00
04263              12.60     8800.00
04264               9.20     9200.00
04265             -15.00     9000.00
04266               2.80     9200.00
04267              14.20     9200.00
04268              -8.80     9400.00
04269              -6.00     9400.00
04270              14.20     9400.00
04271              -0.60     9600.00
04272              -9.80     9800.00
04273               8.80    10000.00
04274               6.20    10000.00
04275              -7.60    10200.00
04276               2.00    10000.00
04277               8.40    10200.00
04278              -3.60    10200.00
04279              -2.60    10400.00
04280               7.00    10400.00
04281               1.40    10400.00
04282              -4.20    10400.00
04283               3.20    10600.00
04284               5.40    10800.00
04285              -3.00    10800.00
04286              -1.20    10800.00
04287               6.60    10800.00
04288               1.00    11000.00
04289              -3.00    11000.00
04290               4.20    11000.00
04291               3.40    11200.00
04292              -2.60    11000.00
04293               1.60    11200.00
04294               4.20    11200.00
04295              -1.00    11200.00
04296              -0.40    11200.00
04297               4.20    11200.00
04298               1.40    11200.00
04299              -1.40    11400.00
04300               1.80    11400.00
04301               3.00    11400.00
04302              -0.20    11400.00
04303              -0.20    11400.00
04304               2.80    11600.00
04305               1.20    11600.00
04306               0.20    11600.00
04307               1.40    11400.00
04308               1.60    11600.00
04309               0.40    11600.00
04310               1.20    11600.00
04311               2.00    11400.00
04312               1.00    11600.00
04313               0.40    11600.00
04314               1.80    11400.00
04315               1.20    11600.00
04316               0.60    11400.00
04317               1.00    11600.00
04318               1.60    11600.00
04319               1.00    11400.00
04320               1.00    11200.00
04321               1.40    11200.00
04322               1.00    11200.00
04323               1.00    11200.00
04324               1.20    11200.00
04325               1.80    11200.00
04326               1.40    11200.00
04327               0.60    11200.00
04328               1.00    11000.00
04329               1.60    11200.00
04330               0.80    11000.00
04331               0.40    11000.00
04332               1.40    11000.00
04333               1.20    10800.00
04334               0.40    10800.00
04335               1.80    10800.00
04336               0.60    10600.00
04337               1.00    10400.00
04338               1.80    10400.00
04339               1.20    10400.00
04340               0.60    10400.00
04341               1.20    10400.00
04342               1.00    10200.00
04343               1.20    10200.00
04344               1.20    10200.00
04345               0.40    10000.00
04346               1.20    10000.00
04347               1.80     9800.00
04348               1.00     9600.00
04349               0.60     9600.00
04350               1.20     9400.00
04351               1.20     9600.00
04352               0.60     9400.00
04353               1.20     9400.00
04354               0.80     9200.00
04355               1.00     9000.00
04356               1.20     8800.00
04357               1.00     8800.00
04358               0.60     8800.00
04359               1.00     8800.00
04360               1.20     8400.00
04361               0.80     8400.00
04362               0.40     8400.00
04363               0.80     8200.00
04364               0.40     8000.00
04365               0.80     7800.00
04366               0.60     8200.00
04367               0.40     7800.00
04368               0.40     7600.00
04369               1.00     7400.00
04370               0.60     7200.00
04371               0.80     7200.00
04372               0.40     7000.00
04373               0.20     7000.00
04374               1.00     6800.00
04375               0.60     6600.00
04376              -0.40     6400.00
04377               0.60     6400.00
04378               0.60     6200.00
04379              -0.40     6000.00
04380               0.60     6000.00
04381               0.80     6000.00
04382              -0.20     5600.00
04383               0.40     5600.00
04384               1.00     5400.00
04385               0.20     5200.00
04386               0.20     5000.00
04387               0.40     4800.00
04388              -0.60     4800.00
04389               0.20     4600.00
04390               1.20     4400.00
04391               0.20     4200.00
04392               0.20     4000.00
04393               0.40     4000.00
04394               0.20     3800.00
04395              -0.40     3600.00
04396               0.20     3600.00
04397               0.40     3200.00
04398               0.20     3200.00
04399               0.20     3000.00
04400              -0.20     3000.00
04401              -0.20     2800.00
04402               0.20     2400.00
04403              -0.60     2400.00
04404               0.60     2200.00
04405               1.80     2000.00
04406              -0.60     2000.00
04407              -1.00     1600.00
04408               0.40     1600.00
04409              -0.60     1400.00
04410              -0.60     1200.00
04411               0.80     1200.00
04412               0.40      800.00
04413               0.40      600.00
04414              -0.80      600.00
04415              -1.00      400.00
04416               1.00        0.00
04417              -0.60        0.00
04418              -1.20     -200.00
04419               1.40     -200.00
04420               1.80     -400.00
04421              -1.00     -400.00
04422              -1.20     -800.00
04423               0.80     -800.00
04424              -0.60    -1000.00
04425              -1.00    -1200.00
04426               2.20    -1400.00
04427              20.20    -1600.00
04428               4.40    -2000.00
04429             -25.00    -2200.00
04430             -23.00    -2400.00
04431              25.00    -2000.00
04432              25.00    -2400.00
04433             -25.00    -2800.00
04434             -25.00    -2400.00
04435              25.00    -3200.00
04436              25.00    -3200.00
04437             -25.00    -3200.00
04438              20.20    -3400.00
04439              25.00    -3800.00
04440             -25.00    -3600.00
04441             -25.00    -3800.00
04442              25.00    -4200.00
04443             -25.00    -4200.00
04444              -9.20    -4400.00
04445               6.00    -4400.00
04446              25.00    -4600.00
04447              10.60    -5000.00
04448             -25.00    -4800.00
04449              25.00    -5200.00
04450              25.00    -5400.00
04451             -25.00    -5400.00
04452              25.00    -5800.00
04453              25.00    -5800.00
04454             -25.00    -6000.00
04455             -12.40    -6000.00
04456              25.00    -6200.00
04457              -2.20    -6400.00
04458             -25.00    -6400.00
04459              25.00    -6800.00
04460              25.00    -6800.00
04461             -25.00    -6800.00
04462              -0.20    -7200.00
04463              25.00    -7200.00
04464             -17.80    -7200.00
04465             -25.00    -7600.00
04466              21.40    -7600.00
04467              19.80    -7800.00
04468             -25.00    -7600.00
04469               3.20    -8000.00
04470              25.00    -8200.00
04471             -24.20    -8000.00
04472             -12.40    -8400.00
04473              21.60    -8400.00
04474               1.00    -8600.00
04475             -25.00    -8600.00
04476               9.40    -8800.00
04477              14.60    -9000.00
04478             -22.20    -9000.00
04479              -1.00    -9200.00
04480              16.40    -9200.00
04481             -10.80    -9200.00
04482             -12.20    -9400.00
04483              13.40    -9600.00
04484              -0.60    -9600.00
04485             -16.20    -9600.00
04486               6.40    -9800.00
04487               7.40    -9800.00
04488             -12.40   -10000.00
04489              -3.80   -10000.00
04490              10.20   -10200.00
04491              -6.80   -10000.00
04492              -8.80   -10400.00
04493               7.40   -10400.00
04494              -0.20   -10400.00
04495              -9.80   -10400.00
04496               0.20   -10600.00
04497               5.80   -10600.00
04498              -7.40   -10800.00
04499              -6.20   -10800.00
04500               6.20   -11000.00
04501              -1.80   -10800.00
04502              -8.40   -10800.00
04503               1.80   -11200.00
04504               2.00   -11000.00
04505              -6.60   -11000.00
04506              -2.60   -11000.00
04507               3.40   -11200.00
04508              -3.40   -11200.00
04509              -6.00   -11400.00
04510               2.40   -11200.00
04511              -0.20   -11400.00
04512              -6.60   -11400.00
04513              -1.00   -11200.00
04514               1.80   -11400.00
04515              -3.80   -11400.00
04516              -4.40   -11400.00
04517               0.60   -11400.00
04518              -0.60   -11600.00
04519              -4.40   -11600.00
04520              -1.20   -11400.00
04521               0.40   -11600.00
04522              -3.60   -11400.00
04523              -2.40   -11600.00
04524               0.20   -11600.00
04525              -1.40   -11400.00
04526              -3.80   -11600.00
04527              -1.20   -11400.00
04528              -0.60   -11600.00
04529              -3.00   -11600.00
04530              -2.00   -11400.00
04531              -0.40   -11400.00
04532              -2.20   -11400.00
04533              -2.00   -11400.00
04534              -1.40   -11400.00
04535              -1.40   -11000.00
04536              -2.40   -11400.00
04537              -1.20   -11000.00
04538              -1.00   -11400.00
04539              -2.00   -11200.00
04540              -1.80   -11200.00
04541              -1.40   -11200.00
04542              -1.20   -11000.00
04543              -2.20   -11000.00
04544              -1.80   -11000.00
04545              -1.00   -10800.00
04546              -1.80   -10800.00
04547              -1.80   -10800.00
04548              -1.80   -10800.00
04549              -1.80   -10600.00
04550              -1.40   -10600.00
04551              -1.40   -10400.00
04552              -1.40   -10600.00
04553              -1.40   -10400.00
04554              -1.40   -10400.00
04555              -1.20   -10200.00
04556              -1.80   -10200.00
04557              -1.80   -10000.00
04558              -1.40   -10000.00
04559              -1.60   -10000.00
04560              -1.20    -9800.00
04561              -1.60    -9800.00
04562              -2.00    -9800.00
04563              -1.80    -9600.00
04564              -1.20    -9600.00
04565              -1.20    -9600.00
04566              -2.00    -9600.00
04567              -2.00    -9200.00
04568              -1.00    -9200.00
04569              -1.60    -9000.00
04570              -2.20    -8800.00
04571              -1.20    -9000.00
04572              -1.40    -8800.00
04573              -1.80    -8800.00
04574              -1.20    -8400.00
04575              -1.40    -8400.00
04576              -2.00    -8400.00
04577              -1.20    -8200.00
04578              -1.20    -8000.00
04579              -1.20    -8000.00
04580              -1.60    -7800.00
04581              -1.80    -7600.00
04582              -0.60    -7400.00
04583              -1.20    -7400.00
04584              -1.80    -7400.00
04585              -1.00    -7200.00
04586              -0.60    -7000.00
04587              -2.00    -6800.00
04588              -1.00    -6800.00
04589              -0.60    -6600.00
04590              -2.00    -6400.00
04591              -1.40    -6400.00
04592              -0.20    -6200.00
04593              -1.20    -6000.00
04594              -2.00    -5800.00
04595              -0.60    -5800.00
04596              -0.60    -5600.00
04597              -1.80    -5600.00
04598              -1.00    -5200.00
04599              -0.40    -5200.00
04600              -1.20    -5000.00
04601              -1.20    -4800.00
04602              -0.60    -4600.00
04603              -1.20    -4400.00
04604              -1.20    -4400.00
04605              -1.00    -4200.00
04606              -0.20    -4000.00
04607              -0.60    -4000.00
04608              -1.20    -3600.00
04609              -0.60    -3600.00
04610              -0.20    -3400.00
04611              -1.20    -3400.00
04612              -0.60    -3200.00
04613              -0.20    -3200.00
04614              -0.60    -2800.00
04615              -1.20    -2600.00
04616               0.20    -2600.00
04617              -0.60    -2400.00
04618              -1.00    -2000.00
04619              -0.20    -2000.00
04620               0.20    -1800.00
04621              -1.00    -1600.00
04622              -0.80    -1600.00
04623              -0.20    -1400.00
04624              -0.60    -1400.00
04625              -1.20    -1000.00
04626              -0.60    -1000.00
04627              -0.40     -800.00
04628              -0.60     -400.00
04629               0.20     -400.00
04630              -0.20     -200.00
04631              -0.60        0.00
04632              -0.40        0.00
04633               0.60      400.00
04634               1.20      400.00
04635              -0.60      600.00
04636              -1.20      800.00
04637               1.00      800.00
04638               0.40     1200.00
04639              -0.80     1200.00
04640               2.40     1400.00
04641              13.00     1800.00
04642              11.00     2000.00
04643             -25.00     2200.00
04644             -25.00     2200.00
04645              -0.80     2200.00
04646              25.00     2400.00
04647              19.00     2800.00
04648             -25.00     2600.00
04649              25.00     3200.00
04650              25.00     3200.00
04651             -25.00     3000.00
04652             -25.00     3600.00
04653              25.00     3600.00
04654             -24.60     3600.00
04655             -25.00     4200.00
04656              25.00     4000.00
04657               5.00     4200.00
04658             -25.00     4400.00
04659              16.40     4600.00
04660              25.00     4600.00
04661               0.20     4800.00
04662             -25.00     5200.00
04663              20.60     5400.00
04664              25.00     5400.00
04665             -25.00     5600.00
04666             -24.40     5800.00
04667              25.00     5800.00
04668             -11.00     6000.00
04669             -25.00     6000.00
04670              25.00     6200.00
04671              25.00     6400.00
04672             -25.00     6600.00
04673              -1.80     6800.00
04674              25.00     6800.00
04675             -23.00     7000.00
04676             -24.60     7000.00
04677              25.00     7200.00
04678               6.60     7400.00
04679             -25.00     7600.00
04680              12.20     7800.00
04681              25.00     7800.00
04682             -22.20     8000.00
04683              -9.40     8200.00
04684              25.00     8200.00
04685              -3.00     8400.00
04686             -17.40     8400.00
04687              13.20     8400.00
04688              11.80     8600.00
04689             -16.20     8600.00
04690               0.20     8800.00
04691              16.40     8800.00
04692              -7.60     8800.00
04693              -8.40     9200.00
04694              14.60     9200.00
04695               2.60     9400.00
04696             -12.60     9600.00
04697               7.40     9400.00
04698               9.80     9600.00
04699             -10.60     9600.00
04700              -0.40     9800.00
04701              12.20     9800.00
04702              -3.60    10200.00
04703              -6.00    10000.00
04704               9.00    10200.00
04705               2.00    10200.00
04706              -6.20    10400.00
04707               4.20    10400.00
04708               6.00    10400.00
04709              -3.80    10600.00
04710              -0.60    10600.00
04711               6.60    10800.00
04712               0.40    10800.00
04713              -4.20    10800.00
04714               3.60    10800.00
04715               5.00    10800.00
04716              -3.40    10800.00
04717               0.40    11000.00
04718               5.40    11200.00
04719              -0.60    11000.00
04720              -1.60    11000.00
04721               4.40    11200.00
04722               1.40    11200.00
04723              -2.00    11200.00
04724               2.60    11400.00
04725               3.40    11200.00
04726              -0.80    11200.00
04727               0.00    11200.00
04728               3.60    11200.00
04729               1.40    11600.00
04730              -0.60    11600.00
04731               1.80    11400.00
04732               2.60    11600.00
04733               0.40    11400.00
04734               1.00    11400.00
04735               2.80    11600.00
04736               1.00    11400.00
04737               0.20    11400.00
04738               2.40    11600.00
04739               2.00    11600.00
04740               0.20    11400.00
04741               1.40    11600.00
04742               2.60    11400.00
04743               1.00    11600.00
04744               0.80    11600.00
04745               2.00    11400.00
04746               1.60    11200.00
04747               0.80    11400.00
04748               1.60    11200.00
04749               1.80    11400.00
04750               0.60    11400.00
04751               1.80    11200.00
04752               1.80    11200.00
04753               0.80    11200.00
04754               0.40    11200.00
04755               1.20    11000.00
04756               1.20    11200.00
04757               2.00    10800.00
04758               0.40    11000.00
04759               1.40    11000.00
04760               1.40    10800.00
04761               1.00    10800.00
04762               0.60    10800.00
04763               1.00    10800.00
04764               0.60    10600.00
04765               1.20    10400.00
04766               1.20    10600.00
04767               1.20    10400.00
04768               0.80    10200.00
04769               1.00    10400.00
04770               1.80    10200.00
04771               0.60    10000.00
04772               0.40    10200.00
04773               1.40     9800.00
04774               0.80    10000.00
04775               0.40     9800.00
04776               1.20     9600.00
04777               1.00     9600.00
04778               0.40     9400.00
04779               1.20     9400.00
04780               1.00     9400.00
04781               0.20     9200.00
04782               0.60     9200.00
04783               1.80     9000.00
04784               0.80     9000.00
04785               1.00     8800.00
04786               1.20     8600.00
04787               0.60     8400.00
04788               0.20     8400.00
04789               1.20     8400.00
04790               1.00     8400.00
04791               0.20     8000.00
04792               0.60     8000.00
04793               1.40     7800.00
04794               0.40     7800.00
04795               0.20     7600.00
04796               1.40     7400.00
04797               0.60     7200.00
04798               0.20     7200.00
04799               1.00     7200.00
04800               0.80     7000.00
04801               0.40     6800.00
04802               0.40     6600.00
04803               1.00     6600.00
04804               1.00     6400.00
04805               0.20     6200.00
04806               0.40     6000.00
04807               1.00     6000.00
04808               0.20     6000.00
04809               0.40     5600.00
04810               0.60     5600.00
04811               0.60     5400.00
04812               0.40     5200.00
04813               0.40     5200.00
04814               0.20     4800.00
04815               0.20     4800.00
04816               0.40     4600.00
04817               0.40     4600.00
04818               0.20     4400.00
04819               0.20     4000.00
04820               0.40     4000.00
04821               0.40     3800.00
04822              -0.20     3600.00
04823               0.20     3600.00
04824              -0.40     3200.00
04825               0.40     3200.00
04826               0.60     3200.00
04827              -1.00     3000.00
04828               0.20     2800.00
04829               1.00     2600.00
04830              -1.20     2400.00
04831               0.60     2400.00
04832               0.40     2200.00
04833              -1.00     2000.00
04834              -0.20     1800.00
04835               0.60     1800.00
04836              -1.20     1400.00
04837              -0.60     1200.00
04838               0.40     1000.00
04839               0.20      800.00
04840              -1.20      800.00
04841              -0.40      600.00
04842               0.40      400.00
04843              -0.60      200.00
04844              -0.60        0.00
04845              -0.20     -200.00
04846               0.20     -400.00
04847              -0.60     -400.00
04848               1.40     -400.00
04849              -0.20     -800.00
04850              -2.20     -800.00
04851               0.20    -1000.00
04852               1.00    -1200.00
04853              -1.20    -1400.00
04854               8.40    -1400.00
04855              25.00    -1800.00
04856             -25.00    -2200.00
04857             -25.00    -2400.00
04858              -9.60    -2000.00
04859              25.00    -2400.00
04860              25.00    -2800.00
04861             -25.00    -2600.00
04862              25.00    -2600.00
04863              25.00    -3200.00
04864             -25.00    -3200.00
04865             -25.00    -3200.00
04866              25.00    -4000.00
04867              25.00    -3600.00
04868             -25.00    -3600.00
04869              25.00    -4200.00
04870              21.00    -4000.00
04871             -25.00    -4200.00
04872              17.00    -4600.00
04873              11.40    -4400.00
04874              25.00    -5000.00
04875             -25.00    -4800.00
04876             -14.00    -5000.00
04877              25.00    -5200.00
04878             -25.00    -5200.00
04879             -25.00    -5600.00
04880              25.00    -5800.00
04881             -25.00    -5800.00
04882             -25.00    -6200.00
04883              25.00    -6200.00
04884              25.00    -6400.00
04885             -25.00    -6600.00
04886             -18.40    -6600.00
04887              25.00    -6800.00
04888             -25.00    -6800.00
04889             -25.00    -7200.00
04890              25.00    -7200.00
04891               9.00    -7200.00
04892             -25.00    -7400.00
04893              -1.80    -7600.00
04894              25.00    -7800.00
04895             -20.40    -7800.00
04896             -25.00    -8000.00
04897              25.00    -8200.00
04898              -2.00    -8200.00
04899             -25.00    -8200.00
04900              11.20    -8400.00
04901              17.00    -8400.00
04902             -20.40    -8600.00
04903              -9.80    -8800.00
04904              22.60    -9000.00
04905              -9.80    -9000.00
04906             -16.60    -9000.00
04907              15.60    -9200.00
04908               2.80    -9200.00
04909             -18.60    -9400.00
04910               4.40    -9600.00
04911              11.20    -9600.00
04912             -15.40    -9600.00
04913              -4.60    -9800.00
04914              12.60    -9800.00
04915              -5.60    -9800.00
04916             -12.00   -10000.00
04917               8.20   -10200.00
04918               2.00   -10000.00
04919             -13.20   -10400.00
04920               2.60   -10400.00
04921               5.80   -10400.00
04922              -8.40   -10400.00
04923              -4.40   -10400.00
04924               5.80   -10600.00
04925              -1.20   -10800.00
04926              -9.40   -10800.00
04927               2.00   -10800.00
04928               4.40   -10800.00
04929              -7.80   -11000.00
04930              -3.60   -11000.00
04931               5.20   -11200.00
04932              -3.40   -11000.00
04933              -6.60   -11000.00
04934               3.00   -11200.00
04935               0.80   -11200.00
04936              -7.80   -11200.00
04937              -0.60   -11200.00
04938               4.20   -11000.00
04939              -6.60   -11400.00
04940              -4.40   -11400.00
04941               3.60   -11400.00
04942              -2.20   -11400.00
04943              -5.60   -11400.00
04944               0.60   -11400.00
04945               0.40   -11400.00
04946              -5.20   -11600.00
04947              -1.80   -11400.00
04948               0.60   -11400.00
04949              -3.40   -11400.00
04950              -3.00   -11600.00
04951               0.40   -11600.00
04952              -1.80   -11600.00
04953              -4.40   -11400.00
04954              -1.20   -11600.00
04955              -0.20   -11400.00
04956              -2.80   -11400.00
04957              -2.20   -11600.00
04958              -1.20   -11400.00
04959              -1.60   -11400.00
04960              -2.80   -11400.00
04961              -1.80   -11400.00
04962              -1.20   -11400.00
04963              -2.80   -11000.00
04964              -1.80   -11200.00
04965              -0.60   -11400.00
04966              -2.60   -11000.00
04967              -2.20   -11200.00
04968              -1.20   -11200.00
04969              -1.40   -11200.00
04970              -2.20   -10800.00
04971              -1.80   -11000.00
04972              -1.60   -11000.00
04973              -2.20   -10800.00
04974              -1.40   -10800.00
04975              -1.20   -10800.00
04976              -2.80   -10800.00
04977              -1.80   -10800.00
04978              -0.60   -10600.00
04979              -2.00   -10600.00
04980              -2.20   -10400.00
04981              -0.80   -10400.00
04982              -2.00   -10200.00
04983              -2.00   -10400.00
04984              -0.60   -10400.00
04985              -1.80   -10000.00
04986              -2.20   -10000.00
04987              -1.00    -9800.00
04988              -1.20    -9800.00
04989              -2.20    -9800.00
04990              -1.20    -9600.00
04991              -1.20    -9600.00
04992              -1.60    -9600.00
04993              -1.80    -9400.00
04994              -1.80    -9200.00
04995              -1.20    -9200.00
04996              -1.00    -9000.00
04997              -2.00    -9000.00
04998              -1.00    -8800.00
04999              -1.40    -8800.00
05000              -1.80    -8800.00
