Unit:(mV)
                     CH1         CH2
Frequency              ? 233.992 kHz
00001              -2.80     9800.00
00002              -4.40    10000.00
00003               6.00    10000.00
00004               1.20    10200.00
00005              -4.20    10200.00
00006               3.40    10200.00
00007               3.80    10400.00
00008              -2.60    10400.00
00009              -0.20    10400.00
00010               3.80    10800.00
00011               0.40    10800.00
00012              -2.60    10800.00
00013               1.80    10800.00
00014               3.60    10800.00
00015              -1.00    10800.00
00016              -0.60    10800.00
00017               2.80    11000.00
00018               1.00    11000.00
00019              -1.60    11000.00
00020               2.20    11200.00
00021               2.00    11000.00
00022              -1.20    11200.00
00023               1.40    11200.00
00024               2.60    11200.00
00025              -0.60    11200.00
00026              -0.40    11200.00
00027               1.80    11200.00
00028               1.20    11200.00
00029               0.20    11200.00
00030               0.60    11400.00
00031               1.00    11400.00
00032               1.00    11400.00
00033               0.20    11600.00
00034               0.40    11600.00
00035               1.00    11200.00
00036               0.40    11200.00
00037               0.60    11600.00
00038               1.40    11600.00
00039               0.60    11400.00
00040               0.00    11200.00
00041               1.00    11400.00
00042               1.20    11200.00
00043               0.20    11200.00
00044               0.40    11200.00
00045               1.00    11200.00
00046               0.60    11400.00
00047               0.40    11200.00
00048               0.40    11200.00
00049               0.80    11200.00
00050               0.40    11200.00
00051               0.20    11200.00
00052               1.40    11000.00
00053               0.40    11200.00
00054               0.40    11000.00
00055               1.20    11000.00
00056               1.00    11000.00
00057               0.00    11000.00
00058               0.40    10800.00
00059               0.80    10800.00
00060               1.00    10800.00
00061               0.40    10800.00
00062               0.60    10600.00
00063               0.40    10400.00
00064               0.80    10400.00
00065               1.00    10400.00
00066               0.40    10200.00
00067               0.60    10400.00
00068               1.00    10000.00
00069               0.40    10200.00
00070               0.60    10200.00
00071               0.60    10000.00
00072               0.20    10000.00
00073               0.40     9800.00
00074               1.20     9600.00
00075               0.40     9600.00
00076               0.40     9400.00
00077               1.00     9600.00
00078               0.60     9400.00
00079               0.40     9200.00
00080               0.60     9200.00
00081               0.40     9200.00
00082               0.40     8800.00
00083               0.60     9000.00
00084               0.40     8800.00
00085               0.40     8600.00
00086               0.40     8600.00
00087               0.60     8400.00
00088               0.40     8400.00
00089               0.40     8000.00
00090               0.20     8200.00
00091               0.20     8000.00
00092               0.60     8000.00
00093               0.20     7800.00
00094               0.20     7600.00
00095               0.40     7400.00
00096               0.20     7200.00
00097               0.40     7200.00
00098               0.40     7000.00
00099               0.00     7000.00
00100               0.40     6800.00
00101               0.40     6800.00
00102               0.00     6400.00
00103               0.20     6400.00
00104               0.40     6200.00
00105              -0.20     6200.00
00106               0.00     6000.00
00107               0.40     5800.00
00108              -0.20     5600.00
00109              -0.20     5600.00
00110               0.60     5400.00
00111               0.20     5200.00
00112              -0.40     5200.00
00113               0.20     5000.00
00114               0.20     4800.00
00115               0.00     4600.00
00116               0.00     4400.00
00117               0.00     4400.00
00118               0.20     4200.00
00119              -0.40     4000.00
00120              -0.20     3800.00
00121               0.60     3800.00
00122              -0.40     3600.00
00123              -0.60     3400.00
00124               1.00     3200.00
00125               0.20     3000.00
00126              -1.20     3000.00
00127               0.80     2800.00
00128               0.80     2800.00
00129              -1.20     2400.00
00130               0.20     2400.00
00131               1.00     2200.00
00132              -0.80     2000.00
00133              -0.80     1600.00
00134               0.80     1600.00
00135               0.20     1600.00
00136              -1.00     1200.00
00137               0.00     1000.00
00138               0.60      800.00
00139              -0.20      800.00
00140              -1.00      600.00
00141              -0.20      400.00
00142               0.60      400.00
00143              -1.00        0.00
00144              -1.00     -200.00
00145               1.00     -200.00
00146               0.60     -400.00
00147               1.00     -400.00
00148              -0.60     -600.00
00149              -1.00    -1000.00
00150               0.80    -1000.00
00151               0.20    -1000.00
00152              -1.00    -1200.00
00153               5.80    -1400.00
00154              25.00    -1800.00
00155             -19.40    -2000.00
00156             -25.00    -2200.00
00157             -17.00    -2000.00
00158              25.00    -2200.00
00159              25.00    -2600.00
00160             -25.00    -2600.00
00161              -9.40    -2400.00
00162              25.00    -3200.00
00163             -10.80    -3200.00
00164             -25.00    -3000.00
00165              25.00    -3600.00
00166              25.00    -3600.00
00167             -25.00    -3600.00
00168              25.00    -4000.00
00169              25.00    -4200.00
00170             -25.00    -4200.00
00171              25.00    -4400.00
00172               3.00    -4600.00
00173              12.00    -4600.00
00174             -22.60    -4800.00
00175             -25.00    -4800.00
00176              25.00    -5400.00
00177             -17.60    -5200.00
00178             -25.00    -5600.00
00179              25.00    -5800.00
00180              11.40    -5600.00
00181             -25.00    -6000.00
00182              17.40    -6000.00
00183              25.00    -6000.00
00184             -25.00    -6400.00
00185             -25.00    -6600.00
00186              25.00    -6800.00
00187              -1.80    -6800.00
00188             -25.00    -7000.00
00189              25.00    -7200.00
00190              14.20    -7000.00
00191             -25.00    -7400.00
00192               3.80    -7600.00
00193              24.60    -7600.00
00194             -17.20    -7800.00
00195             -17.40    -8000.00
00196              24.60    -8000.00
00197              -5.00    -8000.00
00198             -15.80    -8200.00
00199               9.80    -8400.00
00200               5.40    -8200.00
00201              -9.80    -8400.00
00202              -6.20    -8600.00
00203              11.40    -8800.00
00204              -4.40    -8800.00
00205             -11.00    -9000.00
00206              10.60    -9000.00
00207               0.80    -9200.00
00208             -12.40    -9200.00
00209               4.20    -9400.00
00210               6.80    -9400.00
00211             -11.80    -9600.00
00212              -1.20    -9800.00
00213               9.20    -9800.00
00214              -6.20    -9800.00
00215              -6.80   -10000.00
00216               6.20   -10000.00
00217               0.20   -10000.00
00218              -9.20   -10000.00
00219               3.00   -10000.00
00220               3.00   -10200.00
00221              -7.00   -10400.00
00222              -1.60   -10400.00
00223               3.60   -10600.00
00224              -1.40   -10600.00
00225              -6.00   -10600.00
00226               0.60   -10600.00
00227               2.20   -10800.00
00228              -5.20   -10800.00
00229              -2.20   -10800.00
00230               2.00   -10800.00
00231              -2.40   -10800.00
00232              -3.40   -10800.00
00233               0.60   -11000.00
00234              -0.60   -11200.00
00235              -4.00   -11200.00
00236              -1.20   -11200.00
00237               1.20   -11200.00
00238              -3.00   -11200.00
00239              -2.60   -11000.00
00240               0.20   -11200.00
00241              -1.40   -11400.00
00242              -2.00   -11400.00
00243              -2.00   -11000.00
00244              -1.00   -11400.00
00245              -1.00   -11400.00
00246              -2.00   -11400.00
00247              -1.80   -11400.00
00248              -1.00   -11400.00
00249              -1.20   -11400.00
00250              -2.20   -11400.00
00251              -0.60   -11400.00
00252              -0.80   -11400.00
00253              -2.60   -11600.00
00254              -1.00   -11400.00
00255              -0.20   -11400.00
00256              -1.60   -11400.00
00257              -2.00   -11400.00
00258              -0.60   -11400.00
00259              -0.80   -11400.00
00260              -1.80   -11400.00
00261              -1.80   -11200.00
00262              -1.20   -11000.00
00263              -1.40   -11400.00
00264              -1.20   -11000.00
00265              -1.00   -11000.00
00266              -1.20   -11200.00
00267              -1.60   -11000.00
00268              -1.20   -11200.00
00269              -0.60   -11000.00
00270              -1.60   -10800.00
00271              -2.00   -11000.00
00272              -1.00   -10800.00
00273              -0.40   -10800.00
00274              -1.20   -10600.00
00275              -2.00   -10600.00
00276              -0.60   -10600.00
00277              -0.60   -10400.00
00278              -2.20   -10400.00
00279              -0.80   -10400.00
00280              -0.60   -10400.00
00281              -1.40   -10400.00
00282              -1.40   -10200.00
00283              -0.40   -10000.00
00284              -1.20   -10000.00
00285              -1.80    -9800.00
00286              -0.60   -10000.00
00287              -0.60    -9800.00
00288              -2.00    -9800.00
00289              -1.20    -9600.00
00290              -1.00    -9600.00
00291              -1.20    -9400.00
00292              -1.40    -9400.00
00293              -1.00    -9400.00
00294              -1.20    -9000.00
00295              -0.60    -9200.00
00296              -2.00    -9000.00
00297              -1.00    -8800.00
00298              -1.20    -8800.00
00299              -1.20    -8600.00
00300              -1.20    -8400.00
00301              -0.40    -8400.00
00302              -1.40    -8200.00
00303              -1.20    -8200.00
00304              -0.80    -8000.00
00305              -1.00    -8000.00
00306              -1.20    -8000.00
00307              -1.40    -7600.00
00308              -1.00    -7400.00
00309              -0.60    -7400.00
00310              -1.00    -7400.00
00311              -1.20    -7200.00
00312              -1.00    -7000.00
00313              -1.00    -6800.00
00314              -1.00    -6800.00
00315              -0.60    -6600.00
00316              -1.00    -6600.00
00317              -1.00    -6400.00
00318              -0.60    -6200.00
00319              -0.40    -6000.00
00320              -1.00    -6000.00
00321              -1.00    -5800.00
00322              -0.60    -5600.00
00323              -0.60    -5600.00
00324              -1.20    -5200.00
00325              -0.60    -5200.00
00326              -0.60    -5000.00
00327              -0.60    -5000.00
00328              -0.60    -4600.00
00329              -0.40    -4600.00
00330              -0.60    -4400.00
00331              -0.60    -4200.00
00332              -0.20    -4200.00
00333              -0.60    -4000.00
00334              -0.40    -4000.00
00335              -0.60    -3600.00
00336              -0.60    -3400.00
00337              -0.20    -3200.00
00338              -0.40    -3200.00
00339              -1.00    -3200.00
00340              -0.40    -2800.00
00341              -0.20    -2600.00
00342              -0.20    -2600.00
00343              -0.80    -2400.00
00344              -0.20    -2400.00
00345              -0.20    -2000.00
00346              -1.20    -2000.00
00347               0.40    -1800.00
00348              -0.60    -1600.00
00349              -1.00    -1200.00
00350               0.20    -1200.00
00351              -0.80    -1000.00
00352              -0.20     -800.00
00353              -0.20     -800.00
00354              -1.20     -800.00
00355               0.00     -200.00
00356               0.60     -200.00
00357              -1.40        0.00
00358              -1.20        0.00
00359               1.20      200.00
00360               0.40      400.00
00361               0.20      600.00
00362              -0.20      600.00
00363              -0.40      800.00
00364               0.20     1200.00
00365               0.40     1200.00
00366              -0.20     1400.00
00367               5.20     1600.00
00368              17.40     1800.00
00369              -5.00     2000.00
00370             -25.00     2000.00
00371             -15.80     2200.00
00372              18.60     2200.00
00373              25.00     2600.00
00374             -25.00     2400.00
00375             -25.00     3000.00
00376              25.00     3000.00
00377              25.00     3000.00
00378             -25.00     3200.00
00379              25.00     3600.00
00380              25.00     3600.00
00381             -25.00     3600.00
00382              16.20     4000.00
00383              25.00     4000.00
00384             -25.00     4400.00
00385             -15.00     4400.00
00386              25.00     4400.00
00387               6.60     4600.00
00388             -20.00     5000.00
00389             -22.40     5200.00
00390              25.00     5200.00
00391              18.00     5400.00
00392             -25.00     5600.00
00393              13.40     5600.00
00394              25.00     6000.00
00395             -25.00     6200.00
00396             -25.00     6200.00
00397              25.00     6400.00
00398               7.20     6400.00
00399             -25.00     6400.00
00400              25.00     6600.00
00401              25.00     6800.00
00402             -25.00     7000.00
00403               5.80     7200.00
00404              25.00     7200.00
00405             -25.00     7600.00
00406             -14.00     7400.00
00407              25.00     7600.00
00408              -4.00     7600.00
00409             -21.60     8000.00
00410              15.00     7800.00
00411               9.00     8200.00
00412             -13.00     8400.00
00413               0.80     8400.00
00414              10.80     8400.00
00415              -3.00     8600.00
00416              -7.40     8600.00
00417               6.80     8800.00
00418               4.60     8800.00
00419              -8.60     9000.00
00420               2.20     9200.00
00421               9.00     9200.00
00422              -6.00     9400.00
00423              -3.60     9400.00
00424               9.80     9600.00
00425              -1.60     9600.00
00426              -6.80     9600.00
00427               7.40     9800.00
00428               3.40    10000.00
00429              -6.60     9800.00
00430               2.20    10000.00
00431               5.20    10000.00
00432              -3.80    10000.00
00433              -0.60    10200.00
00434               5.20    10400.00
00435              -0.60    10400.00
00436              -2.60    10400.00
00437               2.80    10400.00
00438               2.80    10400.00
00439              -2.80    10600.00
00440              -0.40    10600.00
00441               4.20    10800.00
00442               0.20    10800.00
00443              -2.20    10800.00
00444               2.60    11000.00
00445               2.20    11000.00
00446              -1.80    11000.00
00447               0.40    11000.00
00448               3.00    11200.00
00449              -0.40    11000.00
00450              -0.60    11200.00
00451               3.00    11200.00
00452               0.60    11200.00
00453              -0.60    11200.00
00454               1.20    11200.00
00455               1.80    11200.00
00456               0.40    11400.00
00457               0.60    11400.00
00458               1.00    11400.00
00459               1.00    11400.00
00460               1.40    11600.00
00461               0.60    11200.00
00462               0.40    11600.00
00463               1.80    11400.00
00464               1.00    11600.00
00465               0.40    11400.00
00466               1.40    11200.00
00467               0.80    11600.00
00468               0.60    11200.00
00469               1.20    11600.00
00470               1.20    11400.00
00471               0.80    11200.00
00472               0.40    11200.00
00473               1.80    11200.00
00474               0.40    11200.00
00475               0.60    11200.00
00476               1.00    11200.00
00477               0.20    11200.00
00478               1.60    11200.00
00479               1.20    11200.00
00480               0.80    11000.00
00481               1.40    11000.00
00482               0.20    11000.00
00483               0.20    10800.00
00484               2.00    10800.00
00485              -0.20    10800.00
00486               0.40    10800.00
00487               2.00    10800.00
00488               0.40    10600.00
00489               0.00    10800.00
00490               1.20    10600.00
00491               0.60    10400.00
00492               0.20    10400.00
00493               1.00    10200.00
00494               1.00    10200.00
00495               0.20    10200.00
00496               1.00    10000.00
00497               0.80    10000.00
00498               0.60    10000.00
00499               0.40     9800.00
00500               0.40     9800.00
00501               0.60     9600.00
00502               0.60     9600.00
00503               0.00     9600.00
00504               1.00     9400.00
00505               0.60     9400.00
00506               0.40     9400.00
00507               0.60     9200.00
00508               0.20     9200.00
00509               0.20     9000.00
00510               0.60     8800.00
00511               1.00     8800.00
00512               0.60     8800.00
00513               0.20     8600.00
00514               0.40     8600.00
00515               1.00     8400.00
00516              -0.20     8400.00
00517               0.20     8200.00
00518               1.00     8000.00
00519               0.40     8000.00
00520               0.40     7800.00
00521               1.00     7800.00
00522               0.20     7600.00
00523               0.40     7400.00
00524               0.40     7200.00
00525               0.60     7200.00
00526               0.40     7000.00
00527               0.20     6800.00
00528               0.40     6800.00
00529               0.40     6400.00
00530               0.40     6400.00
00531               0.40     6400.00
00532               0.40     6200.00
00533               0.40     6000.00
00534               0.40     5800.00
00535               0.40     5600.00
00536               0.40     5600.00
00537               0.20     5600.00
00538               0.20     5200.00
00539              -0.20     5200.00
00540              -0.20     4800.00
00541               0.40     4800.00
00542               0.60     4600.00
00543               0.40     4600.00
00544               0.20     4400.00
00545               0.20     4200.00
00546               0.20     4000.00
00547              -0.20     4000.00
00548              -0.20     3800.00
00549               0.20     3600.00
00550              -0.20     3400.00
00551              -0.20     3400.00
00552               0.00     3200.00
00553              -0.20     2800.00
00554              -0.60     2800.00
00555               0.00     2600.00
00556               0.40     2400.00
00557              -0.60     2200.00
00558               0.00     2200.00
00559               0.20     2000.00
00560              -0.60     1800.00
00561              -0.20     1600.00
00562               0.40     1600.00
00563              -1.00     1400.00
00564              -0.60     1200.00
00565               0.40      800.00
00566              -0.40      800.00
00567              -0.60      600.00
00568               0.20      600.00
00569              -0.20      400.00
00570              -0.60        0.00
00571              -0.20        0.00
00572              -0.60     -200.00
00573              -0.20     -400.00
00574               1.20     -400.00
00575               0.40     -600.00
00576              -1.40     -800.00
00577              -0.20     -800.00
00578               0.60    -1200.00
00579              -0.40    -1200.00
00580               1.20    -1400.00
00581              21.20    -1600.00
00582               2.60    -2000.00
00583             -25.00    -2200.00
00584             -23.00    -2200.00
00585              25.00    -2000.00
00586              25.00    -2400.00
00587             -25.00    -2800.00
00588             -25.00    -2400.00
00589              25.00    -3000.00
00590              25.00    -3400.00
00591             -25.00    -3200.00
00592              25.00    -3400.00
00593              25.00    -3600.00
00594             -25.00    -3400.00
00595             -25.00    -3800.00
00596              25.00    -4200.00
00597             -25.00    -4000.00
00598               2.60    -4400.00
00599              25.00    -4400.00
00600              -1.20    -4600.00
00601               9.20    -4800.00
00602             -25.00    -4600.00
00603              25.00    -5200.00
00604              25.00    -5200.00
00605             -25.00    -5400.00
00606              25.00    -5800.00
00607              25.00    -5600.00
00608             -25.00    -5800.00
00609             -14.60    -6200.00
00610              25.00    -6000.00
00611               3.80    -6400.00
00612             -25.00    -6400.00
00613              25.00    -6600.00
00614              25.00    -6800.00
00615             -25.00    -6800.00
00616               9.20    -7200.00
00617              25.00    -7200.00
00618             -25.00    -7200.00
00619             -12.60    -7600.00
00620              25.00    -7600.00
00621              -0.40    -7800.00
00622             -25.00    -7600.00
00623              15.40    -8000.00
00624              10.00    -8000.00
00625             -20.40    -8200.00
00626               3.60    -8400.00
00627               8.80    -8200.00
00628              -4.60    -8400.00
00629             -10.40    -8800.00
00630               6.80    -8800.00
00631               4.20    -8800.00
00632             -13.60    -9000.00
00633               4.40    -9200.00
00634               7.40    -9200.00
00635             -10.60    -9200.00
00636              -3.00    -9200.00
00637               9.80    -9400.00
00638              -6.20    -9600.00
00639              -9.00    -9600.00
00640               8.60    -9600.00
00641              -0.20    -9800.00
00642              -9.40   -10000.00
00643               2.40   -10000.00
00644               4.20   -10000.00
00645              -8.60   -10000.00
00646              -1.40   -10400.00
00647               5.80   -10400.00
00648              -4.40   -10400.00
00649              -4.20   -10400.00
00650               2.20   -10400.00
00651               0.40   -10600.00
00652              -5.40   -10600.00
00653              -1.60   -10600.00
00654               3.40   -10800.00
00655              -2.60   -10800.00
00656              -3.40   -10800.00
00657               1.80   -10800.00
00658              -0.60   -10800.00
00659              -3.60   -11000.00
00660              -0.40   -11000.00
00661               0.60   -11200.00
00662              -2.80   -11000.00
00663              -2.20   -11200.00
00664               1.00   -11200.00
00665              -1.20   -11200.00
00666              -3.00   -11000.00
00667              -0.20   -11200.00
00668              -0.40   -11200.00
00669              -1.60   -11400.00
00670              -2.20   -11400.00
00671              -0.60   -11400.00
00672              -0.40   -11400.00
00673              -1.80   -11400.00
00674              -1.20   -11400.00
00675              -1.20   -11400.00
00676              -0.60   -11400.00
00677              -2.20   -11400.00
00678              -1.20   -11400.00
00679               0.20   -11400.00
00680              -2.00   -11600.00
00681              -2.20   -11400.00
00682              -0.20   -11400.00
00683              -1.20   -11400.00
00684              -2.40   -11400.00
00685              -1.20   -11400.00
00686              -0.60   -11200.00
00687              -1.40   -11400.00
00688              -2.20   -11400.00
00689              -0.60   -11400.00
00690              -1.00   -11200.00
00691              -1.80   -11200.00
00692              -1.00   -11000.00
00693              -1.20   -11000.00
00694              -1.60   -11000.00
00695              -1.20   -11000.00
00696              -1.20   -11000.00
00697              -1.20   -11000.00
00698              -1.80   -10800.00
00699              -1.40   -10800.00
00700              -0.60   -10800.00
00701              -1.00   -10800.00
00702              -2.20   -10600.00
00703              -1.20   -10800.00
00704              -0.40   -10600.00
00705              -1.80   -10400.00
00706              -1.40   -10400.00
00707              -0.40   -10400.00
00708              -1.40   -10400.00
00709              -2.00   -10400.00
00710              -0.20   -10000.00
00711              -1.20   -10000.00
00712              -2.00   -10000.00
00713              -1.00   -10000.00
00714              -0.60    -9800.00
00715              -1.80    -9800.00
00716              -1.20    -9600.00
00717              -0.60    -9600.00
00718              -1.00    -9400.00
00719              -1.00    -9600.00
00720              -1.00    -9400.00
00721              -1.20    -9200.00
00722              -0.60    -9200.00
00723              -1.20    -9000.00
00724              -1.20    -8800.00
00725              -1.00    -8800.00
00726              -1.00    -8800.00
00727              -1.00    -8600.00
00728              -0.60    -8400.00
00729              -0.60    -8400.00
00730              -1.20    -8200.00
00731              -1.00    -8200.00
00732              -0.60    -8000.00
00733              -1.00    -8000.00
00734              -1.20    -7800.00
00735              -1.20    -7600.00
00736              -1.00    -7400.00
00737              -0.60    -7400.00
00738              -0.60    -7200.00
00739              -1.00    -7200.00
00740              -0.40    -7000.00
00741              -0.80    -6800.00
00742              -1.40    -6600.00
00743               0.00    -6600.00
00744              -0.60    -6400.00
00745              -1.80    -6400.00
00746               0.20    -6200.00
00747              -0.60    -6000.00
00748              -2.20    -5800.00
00749              -0.60    -5800.00
00750               0.20    -5600.00
00751              -1.80    -5600.00
00752              -1.00    -5200.00
00753               0.20    -5000.00
00754              -1.00    -5000.00
00755              -2.00    -4800.00
00756              -0.20    -4600.00
00757              -0.60    -4400.00
00758              -1.80    -4400.00
00759              -0.60    -4200.00
00760               0.20    -4000.00
00761              -1.20    -4000.00
00762              -1.00    -3800.00
00763              -0.40    -3600.00
00764              -0.60    -3400.00
00765              -0.60    -3200.00
00766              -0.60    -3200.00
00767              -0.60    -3000.00
00768              -0.80    -2800.00
00769              -0.60    -2600.00
00770              -0.60    -2400.00
00771              -0.60    -2400.00
00772              -0.40    -2200.00
00773              -0.20    -2000.00
00774              -0.20    -2000.00
00775              -0.60    -1800.00
00776              -0.60    -1400.00
00777              -0.40    -1200.00
00778              -0.60    -1200.00
00779              -0.40    -1000.00
00780              -0.40     -800.00
00781              -0.60     -800.00
00782              -0.40     -400.00
00783               0.20     -200.00
00784              -0.40     -200.00
00785              -0.60        0.00
00786              -0.20        0.00
00787               1.00      400.00
00788               1.20      400.00
00789              -0.60      600.00
00790              -0.40      800.00
00791               1.00     1000.00
00792               0.00     1200.00
00793              -0.60     1200.00
00794               3.20     1400.00
00795              13.20     1800.00
00796               9.60     2000.00
00797             -25.00     2200.00
00798             -24.20     2000.00
00799               0.80     2000.00
00800              25.00     2600.00
00801              12.40     2600.00
00802             -25.00     2800.00
00803              25.00     3000.00
00804              25.00     3000.00
00805             -25.00     3000.00
00806             -25.00     3600.00
00807              25.00     3600.00
00808             -25.00     3600.00
00809             -25.00     4000.00
00810              25.00     4000.00
00811             -14.60     4000.00
00812             -25.00     4400.00
00813              25.00     4400.00
00814              16.20     4600.00
00815              -7.80     4800.00
00816             -25.00     5200.00
00817              17.20     4800.00
00818              25.00     5400.00
00819             -25.00     5600.00
00820             -23.20     5600.00
00821              25.00     5600.00
00822              -3.40     6000.00
00823             -25.00     6000.00
00824              25.00     6200.00
00825              25.00     6400.00
00826             -25.00     6400.00
00827              -5.00     6600.00
00828              25.00     6600.00
00829             -25.00     7000.00
00830             -25.00     6800.00
00831              25.00     7000.00
00832              -2.40     7200.00
00833             -25.00     7400.00
00834              22.20     7600.00
00835              15.40     7600.00
00836             -25.00     8000.00
00837               2.60     8000.00
00838              17.80     8200.00
00839              -9.60     8400.00
00840              -6.00     8400.00
00841              10.00     8400.00
00842               2.80     8600.00
00843              -8.20     8600.00
00844               1.40     8600.00
00845               8.40     8800.00
00846              -5.20     8800.00
00847              -3.60     8800.00
00848               9.80     9200.00
00849               0.00     9200.00
00850              -7.60     9200.00
00851               7.20     9400.00
00852               4.60     9600.00
00853              -8.60     9600.00
00854               2.60     9600.00
00855               7.80    10000.00
00856              -4.60     9800.00
00857              -2.00    10000.00
00858               6.80    10000.00
00859              -1.00    10000.00
00860              -3.40    10200.00
00861               4.40    10200.00
00862               2.20    10400.00
00863              -2.80    10400.00
00864               1.20    10400.00
00865               4.20    10600.00
00866              -0.60    10800.00
00867              -2.00    10800.00
00868               2.80    10800.00
00869               2.60    10800.00
00870              -2.00    10800.00
00871               0.80    11000.00
00872               3.00    10800.00
00873              -0.40    11000.00
00874              -0.40    11000.00
00875               2.60    11000.00
00876               0.20    11000.00
00877              -1.00    11200.00
00878               2.00    11000.00
00879               1.60    11200.00
00880              -0.60    11200.00
00881               0.40    11000.00
00882               1.80    11200.00
00883               0.60    11200.00
00884               0.20    11200.00
00885               0.80    11200.00
00886               1.20    11200.00
00887               0.60    11200.00
00888               0.40    11400.00
00889               0.60    11200.00
00890               0.60    11200.00
00891               0.40    11600.00
00892               0.60    11400.00
00893               1.20    11400.00
00894               0.40    11600.00
00895               0.20    11400.00
00896               1.20    11200.00
00897               1.00    11200.00
00898               0.40    11200.00
00899               0.60    11200.00
00900               1.00    11600.00
00901               0.60    11200.00
00902               0.60    11400.00
00903               0.40    11200.00
00904               1.00    11200.00
00905               1.40    11200.00
00906               0.20    11000.00
00907               0.60    11200.00
00908               0.40    11000.00
00909               0.20    11000.00
00910               0.40    11000.00
00911               2.00    11000.00
00912               0.40    10800.00
00913               0.60    11000.00
00914               0.80    10800.00
00915               1.40    10800.00
00916               0.40    10800.00
00917               0.40    10600.00
00918               1.00    10400.00
00919               1.20    10400.00
00920              -0.60    10400.00
00921               0.40    10400.00
00922               1.80    10200.00
00923               0.40    10200.00
00924               0.60    10200.00
00925               1.00    10000.00
00926               0.40    10000.00
00927               0.40     9800.00
00928               0.60     9800.00
00929               1.00     9600.00
00930               0.40     9600.00
00931               0.80     9600.00
00932               1.00     9400.00
00933               0.20     9200.00
00934               0.20     9200.00
00935               1.00     9200.00
00936               0.00     9200.00
00937               0.60     8800.00
00938               1.40     8800.00
00939               0.20     8600.00
00940               0.40     8600.00
00941               0.20     8600.00
00942               0.40     8400.00
00943               0.40     8400.00
00944              -0.40     8000.00
00945              -0.20     8200.00
00946               1.80     7800.00
00947               0.20     7800.00
00948              -1.00     7600.00
00949               0.60     7600.00
00950               1.00     7400.00
00951              -1.20     7200.00
00952               0.40     7000.00
00953               1.80     7200.00
00954              -0.40     7000.00
00955              -1.00     6800.00
00956               1.40     6800.00
00957               0.40     6600.00
00958              -1.20     6400.00
00959               0.80     6200.00
00960               1.40     6200.00
00961              -0.40     6000.00
00962              -1.00     5800.00
00963               0.60     5600.00
00964               0.40     5400.00
00965              -0.60     5400.00
00966               0.00     5200.00
00967               1.00     5200.00
00968               0.20     5000.00
00969              -0.40     4600.00
00970               0.20     4600.00
00971               0.20     4400.00
00972              -0.60     4200.00
00973               0.00     4000.00
00974               1.00     4000.00
00975              -0.20     3800.00
00976              -0.60     3600.00
00977               0.40     3600.00
00978               0.20     3400.00
00979              -0.60     3200.00
00980               0.20     3200.00
00981               0.20     2800.00
00982              -0.40     2800.00
00983               0.60     2600.00
00984               0.40     2400.00
00985              -0.40     2200.00
00986              -0.40     2000.00
00987               0.20     2000.00
00988               0.20     1600.00
00989               0.20     1600.00
00990               0.20     1400.00
00991               0.00     1200.00
00992              -0.20     1000.00
00993              -0.60      800.00
00994              -0.60      800.00
00995               0.20      600.00
00996               0.20      400.00
00997              -0.60      400.00
00998               0.40        0.00
00999              -0.40        0.00
01000              -0.60     -400.00
01001               1.20     -400.00
01002               1.20     -600.00
01003              -1.20     -800.00
01004              -0.60     -800.00
01005               1.00    -1000.00
01006              -0.20    -1200.00
01007              -0.60    -1400.00
01008              11.60    -1600.00
01009              21.80    -2000.00
01010             -25.00    -2000.00
01011             -25.00    -2400.00
01012              -2.20    -1800.00
01013              25.00    -2400.00
01014              14.00    -2800.00
01015             -25.00    -2400.00
01016              25.00    -2600.00
01017              25.00    -3200.00
01018             -25.00    -3200.00
01019             -25.00    -3200.00
01020              25.00    -3600.00
01021              15.40    -3400.00
01022             -25.00    -3600.00
01023              25.00    -4000.00
01024               8.20    -4200.00
01025             -25.00    -4400.00
01026              25.00    -4600.00
01027              -3.80    -4400.00
01028              19.40    -4800.00
01029             -25.00    -4800.00
01030              -1.80    -5200.00
01031              25.00    -5400.00
01032             -25.00    -5400.00
01033             -25.00    -5800.00
01034              25.00    -5800.00
01035             -25.00    -5600.00
01036             -25.00    -6000.00
01037              25.00    -6000.00
01038              25.00    -6400.00
01039             -25.00    -6600.00
01040             -11.40    -6600.00
01041              25.00    -6800.00
01042             -25.00    -6600.00
01043             -25.00    -7200.00
01044              25.00    -7200.00
01045              -9.40    -7200.00
01046             -25.00    -7400.00
01047              17.00    -7400.00
01048              16.60    -7600.00
01049             -25.00    -7800.00
01050              -2.40    -8000.00
01051              23.00    -8000.00
01052             -16.00    -8200.00
01053              -6.80    -8400.00
01054              11.40    -8400.00
01055               0.40    -8400.00
01056             -10.80    -8800.00
01057              -0.40    -8800.00
01058              10.80    -8800.00
01059             -10.80    -8800.00
01060              -4.60    -9000.00
01061              11.60    -9200.00
01062              -5.20    -9200.00
01063             -10.20    -9200.00
01064               9.00    -9400.00
01065               2.20    -9600.00
01066             -13.40    -9600.00
01067               3.80    -9600.00
01068               6.80    -9800.00
01069              -9.40   -10000.00
01070              -3.60   -10000.00
01071               7.60   -10000.00
01072              -4.60   -10000.00
01073              -7.80   -10200.00
01074               5.80   -10400.00
01075              -0.20   -10400.00
01076              -6.80   -10400.00
01077               0.40   -10400.00
01078               3.00   -10600.00
01079              -3.60   -10800.00
01080              -5.20   -10800.00
01081               2.60   -10800.00
01082               0.20   -10800.00
01083              -4.60   -10800.00
01084              -0.20   -11000.00
01085               0.80   -10800.00
01086              -3.00   -11000.00
01087              -2.20   -11000.00
01088               0.60   -11000.00
01089              -1.80   -11200.00
01090              -3.80   -11000.00
01091              -0.20   -11000.00
01092               0.20   -11200.00
01093              -3.40   -11000.00
01094              -1.80   -11200.00
01095               0.20   -11200.00
01096              -1.40   -11400.00
01097              -2.20   -11400.00
01098              -1.40   -11000.00
01099              -0.60   -11400.00
01100              -1.00   -11200.00
01101              -1.40   -11400.00
01102              -2.20   -11400.00
01103              -1.00   -11400.00
01104              -1.00   -11400.00
01105              -2.80   -11400.00
01106              -0.60   -11400.00
01107              -0.60   -11400.00
01108              -2.20   -11400.00
01109              -1.00   -11400.00
01110              -0.40   -11400.00
01111              -1.40   -11400.00
01112              -2.00   -11400.00
01113              -1.20   -11200.00
01114              -0.40   -11400.00
01115              -1.00   -11000.00
01116              -2.20   -11200.00
01117              -1.00   -11400.00
01118              -0.60   -11000.00
01119              -2.20   -11200.00
01120              -1.00   -11000.00
01121              -0.40   -11000.00
01122              -1.80   -11000.00
01123              -1.40   -11000.00
01124              -0.40   -11000.00
01125              -2.00   -11000.00
01126              -2.00   -10800.00
01127              -0.20   -10800.00
01128              -0.40   -10800.00
01129              -2.20   -10600.00
01130              -1.60   -10600.00
01131               0.20   -10600.00
01132              -1.80   -10400.00
01133              -2.40   -10400.00
01134               0.40   -10400.00
01135              -0.80   -10400.00
01136              -3.00   -10200.00
01137              -0.40   -10000.00
01138              -0.20   -10000.00
01139              -3.00   -10000.00
01140              -1.80   -10000.00
01141               0.60   -10000.00
01142              -2.00    -9800.00
01143              -2.40    -9800.00
01144               0.00    -9600.00
01145              -1.00    -9600.00
01146              -2.20    -9400.00
01147              -0.60    -9200.00
01148              -0.60    -9200.00
01149              -1.80    -9200.00
01150              -0.60    -8800.00
01151              -1.40    -9000.00
01152              -1.00    -8800.00
01153              -1.80    -8800.00
01154              -1.20    -8800.00
01155              -1.20    -8600.00
01156              -0.60    -8400.00
01157              -1.20    -8400.00
01158              -0.80    -8200.00
01159              -0.20    -8000.00
01160              -1.00    -8000.00
01161              -1.80    -8000.00
01162              -1.80    -7600.00
01163              -1.20    -7600.00
01164              -1.00    -7400.00
01165              -0.80    -7400.00
01166              -0.40    -7200.00
01167              -0.60    -7200.00
01168              -0.60    -6800.00
01169              -1.20    -6800.00
01170              -1.00    -6600.00
01171              -1.40    -6400.00
01172              -1.00    -6400.00
01173              -0.40    -6200.00
01174              -0.60    -6000.00
01175              -0.60    -6000.00
01176              -0.60    -6000.00
01177              -0.60    -5600.00
01178              -1.00    -5600.00
01179              -1.00    -5200.00
01180              -1.00    -5200.00
01181              -0.60    -5000.00
01182              -0.60    -4800.00
01183              -0.40    -4600.00
01184              -0.40    -4400.00
01185              -0.60    -4400.00
01186              -0.60    -4400.00
01187              -0.60    -4200.00
01188              -0.60    -4000.00
01189              -0.60    -3800.00
01190              -0.40    -3600.00
01191              -0.60    -3600.00
01192              -0.20    -3400.00
01193              -0.40    -3200.00
01194              -1.20    -3200.00
01195              -0.60    -2800.00
01196               0.00    -2800.00
01197              -0.60    -2600.00
01198              -0.60    -2400.00
01199              -0.40    -2400.00
01200              -0.60    -2000.00
01201              -0.60    -2000.00
01202              -0.40    -1800.00
01203              -0.60    -1800.00
01204              -0.80    -1600.00
01205               0.40    -1200.00
01206              -0.60    -1000.00
01207              -0.60    -1000.00
01208              -0.60     -800.00
01209              -0.40     -400.00
01210              -0.40     -200.00
01211              -0.60     -200.00
01212              -0.20        0.00
01213              -0.40        0.00
01214               0.40      400.00
01215               1.60      400.00
01216              -0.40      600.00
01217              -1.40      600.00
01218               0.40      800.00
01219               1.00      800.00
01220              -0.40     1200.00
01221               1.00     1400.00
01222               8.40     1600.00
01223              17.20     2000.00
01224             -17.80     2000.00
01225             -25.00     2000.00
01226              -9.40     2000.00
01227              25.00     2400.00
01228              25.00     2800.00
01229             -25.00     2400.00
01230             -25.00     3000.00
01231              25.00     3200.00
01232             -11.40     3000.00
01233             -25.00     3400.00
01234              25.00     3400.00
01235              25.00     3400.00
01236             -25.00     4000.00
01237              25.00     4000.00
01238              25.00     4000.00
01239             -25.00     4400.00
01240              11.40     4600.00
01241              25.00     4600.00
01242              -0.60     4800.00
01243             -25.00     5200.00
01244              -8.00     5000.00
01245              25.00     5400.00
01246             -13.00     5600.00
01247             -25.00     5600.00
01248              25.00     5600.00
01249              25.00     6000.00
01250             -25.00     6000.00
01251              -5.00     6200.00
01252              25.00     6400.00
01253             -20.20     6400.00
01254             -25.00     6400.00
01255              25.00     6800.00
01256               4.20     6800.00
01257             -25.00     7000.00
01258              25.00     7200.00
01259              23.00     7200.00
01260             -25.00     7200.00
01261               3.00     7400.00
01262              25.00     7800.00
01263             -17.20     7800.00
01264             -12.40     7800.00
01265              19.60     8000.00
01266               0.20     8400.00
01267             -11.80     8200.00
01268               5.80     8400.00
01269               8.40     8600.00
01270              -6.80     8600.00
01271              -4.00     8600.00
01272               8.80     8800.00
01273               0.20     8800.00
01274              -8.20     9000.00
01275               6.60     9000.00
01276               6.00     9200.00
01277              -9.00     9400.00
01278               1.00     9400.00
01279               9.20     9400.00
01280              -6.00     9600.00
01281              -3.60     9600.00
01282               9.00     9800.00
01283              -0.40     9800.00
01284              -5.80    10000.00
01285               5.20    10000.00
01286               2.60    10200.00
01287              -4.60    10200.00
01288               1.80    10200.00
01289               4.60    10400.00
01290              -2.20    10400.00
01291              -1.00    10400.00
01292               3.80    10600.00
01293               1.00    10600.00
01294              -2.60    10600.00
01295               1.40    10800.00
01296               3.60    10800.00
01297              -0.60    10800.00
01298              -1.00    11000.00
01299               3.00    11000.00
01300               0.60    11000.00
01301              -1.20    11000.00
01302               2.00    11000.00
01303               1.60    11000.00
01304              -1.00    11200.00
01305               1.20    11200.00
01306               2.60    11200.00
01307               0.20    11200.00
01308              -0.20    11200.00
01309               1.60    11200.00
01310               1.40    11200.00
01311               0.40    11400.00
01312               0.40    11200.00
01313               1.00    11400.00
01314               1.20    11400.00
01315               0.40    11400.00
01316               0.60    11400.00
01317               1.00    11600.00
01318               1.20    11400.00
01319               1.00    11400.00
01320               1.20    11600.00
01321               0.40    11400.00
01322               0.60    11200.00
01323               1.40    11400.00
01324               0.40    11400.00
01325               1.00    11600.00
01326               1.20    11200.00
01327               0.20    11200.00
01328               1.00    11200.00
01329               1.80    11200.00
01330              -0.40    11200.00
01331               0.20    11200.00
01332               1.80    11000.00
01333               0.00    11200.00
01334               0.20    11000.00
01335               1.80    11200.00
01336               0.80    11000.00
01337               0.20    10800.00
01338               1.60    11000.00
01339               0.60    11000.00
01340              -0.40    10800.00
01341               0.80    10800.00
01342               1.60    10800.00
01343              -0.20    10600.00
01344               0.20    10600.00
01345               1.20    10600.00
01346               0.40    10400.00
01347               0.20    10400.00
01348               1.00    10400.00
01349               0.20    10200.00
01350               0.60    10200.00
01351               0.20    10200.00
01352               1.00    10000.00
01353               1.00    10000.00
01354              -1.00     9800.00
01355               1.20    10000.00
01356               1.80     9800.00
01357              -1.00     9600.00
01358               0.60     9600.00
01359               2.20     9600.00
01360              -0.60     9400.00
01361              -0.20     9200.00
01362               2.20     9200.00
01363              -0.20     9000.00
01364              -0.20     8800.00
01365               1.40     8800.00
01366               0.40     8600.00
01367               0.20     8600.00
01368               0.60     8600.00
01369               0.60     8400.00
01370               0.60     8400.00
01371               0.40     8200.00
01372               0.40     8000.00
01373               0.40     8000.00
01374               1.00     8200.00
01375               0.20     7800.00
01376               0.20     7600.00
01377               0.40     7600.00
01378               0.20     7200.00
01379               0.80     7200.00
01380               0.80     7000.00
01381              -1.00     6800.00
01382               0.60     6800.00
01383               1.40     6800.00
01384              -0.40     6400.00
01385              -0.20     6400.00
01386               1.80     6400.00
01387               0.20     6000.00
01388              -0.60     6000.00
01389               1.00     6000.00
01390               1.00     5800.00
01391              -1.00     5600.00
01392               0.60     5400.00
01393               1.20     5200.00
01394              -0.60     5200.00
01395              -0.20     4800.00
01396               1.00     4600.00
01397              -0.20     4400.00
01398              -0.40     4400.00
01399               0.20     4400.00
01400               0.40     4000.00
01401              -0.40     4000.00
01402               0.20     4000.00
01403               0.40     3800.00
01404              -0.20     3600.00
01405              -0.40     3400.00
01406              -0.20     3200.00
01407               0.20     3000.00
01408              -0.40     3000.00
01409              -0.40     2800.00
01410               0.20     2600.00
01411              -0.20     2400.00
01412              -0.60     2400.00
01413              -0.20     2000.00
01414              -0.20     1800.00
01415              -0.60     1600.00
01416              -0.20     1600.00
01417               0.20     1400.00
01418              -0.40     1200.00
01419              -0.60     1200.00
01420               0.20      800.00
01421              -0.20      600.00
01422              -0.60      600.00
01423              -0.40      400.00
01424              -0.40      200.00
01425               0.00        0.00
01426              -0.40        0.00
01427              -0.20     -200.00
01428               0.40     -200.00
01429               1.20     -400.00
01430              -0.60     -800.00
01431              -1.80     -800.00
01432               0.80     -800.00
01433               0.40    -1000.00
01434              -1.20    -1400.00
01435               5.20    -1600.00
01436              25.00    -1800.00
01437             -16.60    -2000.00
01438             -25.00    -2200.00
01439             -17.40    -2200.00
01440              25.00    -2400.00
01441              25.00    -2600.00
01442             -25.00    -2800.00
01443             -25.00    -2400.00
01444              25.00    -3200.00
01445               9.80    -3400.00
01446             -25.00    -2800.00
01447              25.00    -3800.00
01448              25.00    -3600.00
01449             -25.00    -3600.00
01450              25.00    -4000.00
01451              25.00    -4200.00
01452             -25.00    -4200.00
01453              25.00    -4400.00
01454               7.40    -4800.00
01455               8.60    -4600.00
01456             -15.20    -4800.00
01457             -25.00    -5000.00
01458              25.00    -5200.00
01459              -2.40    -5200.00
01460             -25.00    -5400.00
01461              25.00    -5800.00
01462              23.00    -5600.00
01463             -25.00    -6000.00
01464              11.00    -6000.00
01465              25.00    -6000.00
01466             -23.00    -6400.00
01467             -25.00    -6400.00
01468              25.00    -6800.00
01469               7.80    -6600.00
01470             -25.00    -6800.00
01471              25.00    -7400.00
01472              19.00    -7200.00
01473             -25.00    -7400.00
01474               1.20    -7400.00
01475              24.60    -7600.00
01476             -14.60    -7800.00
01477             -19.40    -8000.00
01478              23.60    -8000.00
01479              -2.60    -8000.00
01480             -17.20    -8200.00
01481               9.00    -8400.00
01482               5.40    -8400.00
01483              -8.60    -8600.00
01484              -7.60    -8800.00
01485              10.00    -8800.00
01486              -2.80    -8800.00
01487             -12.40    -9000.00
01488               9.80    -9000.00
01489               2.40    -9000.00
01490             -12.80    -9200.00
01491               3.60    -9400.00
01492               7.40    -9600.00
01493             -11.60    -9600.00
01494              -2.60    -9600.00
01495               9.00    -9800.00
01496              -5.20    -9800.00
01497              -7.40   -10000.00
01498               5.80   -10000.00
01499               1.00   -10000.00
01500              -9.20   -10000.00
01501               2.60   -10000.00
01502               4.00   -10400.00
01503              -6.80   -10400.00
01504              -2.40   -10400.00
01505               3.40   -10600.00
01506              -1.20   -10600.00
01507              -5.60   -10600.00
01508               1.00   -10600.00
01509               3.00   -10800.00
01510              -4.60   -10800.00
01511              -2.20   -10800.00
01512               2.00   -11000.00
01513              -2.20   -10800.00
01514              -3.00   -11000.00
01515               1.00   -11000.00
01516               0.20   -11200.00
01517              -3.00   -11200.00
01518              -1.20   -11000.00
01519               0.80   -11200.00
01520              -2.80   -11200.00
01521              -2.60   -11400.00
01522               0.20   -11200.00
01523              -0.60   -11400.00
01524              -1.40   -11400.00
01525              -1.80   -11400.00
01526              -0.20   -11400.00
01527              -1.20   -11400.00
01528              -2.00   -11400.00
01529              -1.20   -11400.00
01530              -1.20   -11400.00
01531              -1.40   -11400.00
01532              -1.80   -11400.00
01533              -0.80   -11400.00
01534              -1.20   -11400.00
01535              -2.20   -11400.00
01536              -1.20   -11400.00
01537              -0.60   -11600.00
01538              -2.00   -11600.00
01539              -1.80   -11400.00
01540              -1.20   -11400.00
01541              -0.80   -11400.00
01542              -1.40   -11200.00
01543              -2.00   -11400.00
01544              -1.60   -11000.00
01545              -1.00   -11200.00
01546              -1.20   -11400.00
01547              -1.20   -11400.00
01548              -1.00   -11000.00
01549              -1.40   -11200.00
01550              -1.80   -11000.00
01551              -1.00   -11200.00
01552              -1.40   -10800.00
01553              -2.00   -11000.00
01554              -1.00   -10800.00
01555              -0.40   -10800.00
01556              -1.00   -10800.00
01557              -2.20   -10600.00
01558              -1.20   -10600.00
01559              -0.60   -10600.00
01560              -2.00   -10600.00
01561              -1.20   -10400.00
01562              -0.60   -10400.00
01563              -1.20   -10200.00
01564              -1.40   -10000.00
01565              -0.40   -10000.00
01566              -1.20   -10000.00
01567              -1.80   -10000.00
01568              -0.40   -10000.00
01569              -0.60    -9800.00
01570              -1.80    -9800.00
01571              -1.00    -9600.00
01572              -1.40    -9600.00
01573              -1.20    -9600.00
01574              -0.80    -9200.00
01575              -1.00    -9400.00
01576              -1.00    -9200.00
01577              -0.40    -9200.00
01578              -1.80    -9000.00
01579              -1.00    -8800.00
01580              -1.40    -8800.00
01581              -1.00    -8800.00
01582              -1.20    -8400.00
01583              -0.60    -8600.00
01584              -0.60    -8400.00
01585              -1.20    -8200.00
01586              -1.20    -8000.00
01587              -0.40    -8000.00
01588              -1.00    -7600.00
01589              -1.80    -7800.00
01590              -1.00    -7600.00
01591              -0.60    -7400.00
01592              -1.40    -7200.00
01593              -1.20    -7200.00
01594              -1.00    -7200.00
01595              -1.20    -6800.00
01596              -0.80    -6800.00
01597              -1.00    -6600.00
01598              -1.00    -6600.00
01599              -1.40    -6400.00
01600              -1.00    -6200.00
01601              -0.40    -6400.00
01602              -0.80    -6000.00
01603              -1.20    -6000.00
01604              -0.60    -5800.00
01605              -0.60    -5600.00
01606              -1.20    -5600.00
01607              -1.00    -5400.00
01608              -1.00    -5000.00
01609              -1.00    -5000.00
01610              -1.00    -4600.00
01611              -0.60    -4600.00
01612              -1.00    -4400.00
01613              -1.00    -4400.00
01614              -0.60    -4200.00
01615              -0.60    -4000.00
01616              -1.00    -4000.00
01617              -0.60    -3600.00
01618              -0.40    -3600.00
01619              -0.40    -3400.00
01620              -0.40    -3200.00
01621              -0.60    -3200.00
01622              -0.60    -2800.00
01623              -0.60    -2800.00
01624              -0.60    -2600.00
01625              -1.00    -2600.00
01626              -0.60    -2400.00
01627              -0.60    -2200.00
01628              -0.40    -2000.00
01629              -0.20    -1800.00
01630              -0.60    -1800.00
01631              -0.60    -1600.00
01632              -0.40    -1200.00
01633              -0.20    -1200.00
01634              -0.40     -800.00
01635              -0.60     -800.00
01636              -0.60     -800.00
01637               0.00     -400.00
01638              -0.20     -400.00
01639              -0.40     -200.00
01640              -0.60        0.00
01641               0.20      200.00
01642               1.00      400.00
01643               1.00      600.00
01644              -1.00      400.00
01645              -0.20      800.00
01646               0.60      800.00
01647              -0.20     1200.00
01648              -0.20     1200.00
01649               5.20     1600.00
01650              17.00     1800.00
01651              -1.40     2000.00
01652             -25.00     2000.00
01653             -17.40     2000.00
01654              13.40     2200.00
01655              25.00     2800.00
01656             -25.00     2800.00
01657             -25.00     2800.00
01658              25.00     3000.00
01659              25.00     3000.00
01660             -25.00     3200.00
01661              25.00     3600.00
01662              25.00     3400.00
01663             -25.00     3600.00
01664              -1.00     4000.00
01665              25.00     3800.00
01666             -25.00     4000.00
01667             -22.20     4600.00
01668              25.00     4400.00
01669               8.40     4600.00
01670             -17.20     4800.00
01671             -25.00     5000.00
01672              25.00     5200.00
01673              25.00     5400.00
01674             -25.00     5600.00
01675               5.20     5600.00
01676              25.00     5800.00
01677             -25.00     6000.00
01678             -25.00     6200.00
01679              25.00     6200.00
01680              14.40     6400.00
01681             -25.00     6400.00
01682              22.60     6400.00
01683              25.00     6800.00
01684             -25.00     7000.00
01685              -0.60     7000.00
01686              25.00     7200.00
01687             -21.80     7200.00
01688             -17.80     7600.00
01689              25.00     7600.00
01690              -0.60     7800.00
01691             -23.00     7800.00
01692              13.00     8000.00
01693              10.80     8000.00
01694             -12.60     8200.00
01695              -0.20     8400.00
01696              10.60     8400.00
01697              -1.80     8600.00
01698              -7.40     8600.00
01699               5.60     8800.00
01700               6.00     9000.00
01701              -7.80     9000.00
01702               1.00     9200.00
01703               9.80     9200.00
01704              -4.60     9200.00
01705              -5.00     9400.00
01706               9.40     9400.00
01707               0.40     9600.00
01708              -8.20     9600.00
01709               6.60     9600.00
01710               5.60     9800.00
01711              -6.60    10000.00
01712               1.20    10000.00
01713               6.80    10000.00
01714              -4.00    10200.00
01715              -1.80    10400.00
01716               6.00    10400.00
01717              -0.20    10200.00
01718              -3.00    10400.00
01719               3.60    10400.00
01720               3.40    10400.00
01721              -3.00    10800.00
01722              -0.20    10800.00
01723               3.60    10800.00
01724              -0.60    10800.00
01725              -0.40    10800.00
01726               3.40    11000.00
01727              -0.60    10800.00
01728              -1.80    11000.00
01729               4.00    11000.00
01730               1.40    11000.00
01731              -3.60    11200.00
01732               1.80    11200.00
01733               4.00    11200.00
01734              -2.00    11200.00
01735              -1.00    11200.00
01736               2.80    11200.00
01737               1.20    11200.00
01738              -0.60    11200.00
01739               0.80    11200.00
01740               1.40    11200.00
01741               0.20    11200.00
01742               0.80    11400.00
01743               0.80    11600.00
01744               0.20    11400.00
01745               1.00    11200.00
01746               1.00    11600.00
01747               0.20    11400.00
01748               1.00    11200.00
01749               0.60    11400.00
01750               1.00    11400.00
01751               1.20    11400.00
01752               0.60    11600.00
01753               0.20    11400.00
01754               0.80    11200.00
01755               0.60    11200.00
01756               0.60    11200.00
01757               0.60    11200.00
01758               0.40    11200.00
01759               1.00    11200.00
01760               0.60    11000.00
01761               0.40    11000.00
01762               1.40    11200.00
01763               1.20    11000.00
01764               0.00    11000.00
01765               1.20    10800.00
01766               1.00    10800.00
01767              -0.20    10800.00
01768               0.40    10800.00
01769               1.40    10800.00
01770               1.00    10800.00
01771               0.20    10800.00
01772               1.00    10600.00
01773               1.20    10400.00
01774               0.20    10400.00
01775               0.40    10400.00
01776               1.40    10400.00
01777               0.60    10200.00
01778              -0.20    10200.00
01779               1.80    10200.00
01780               0.60    10000.00
01781              -0.40     9800.00
01782               1.00    10000.00
01783               1.00     9800.00
01784               0.20     9600.00
01785               0.40     9600.00
01786               0.60     9600.00
01787               1.00     9400.00
01788               0.20     9200.00
01789               0.40     9200.00
01790               0.60     9200.00
01791               0.20     9000.00
01792               0.40     8800.00
01793               0.40     8800.00
01794              -0.20     8600.00
01795               1.20     8600.00
01796               2.00     8400.00
01797              -3.20     8400.00
01798               1.20     8400.00
01799               5.80     8200.00
01800             -13.60     8000.00
01801              11.00     7800.00
01802              -1.60     8000.00
01803               1.60     7600.00
01804               3.00     7600.00
01805               1.00     7400.00
01806              -5.20     7200.00
01807               0.60     7000.00
01808               1.00     7000.00
01809              -6.60     6800.00
01810               5.20     6800.00
01811               5.20     6800.00
01812              -1.80     6400.00
01813               0.80     6400.00
01814               2.60     6200.00
01815              -3.60     6000.00
01816              -1.00     6000.00
01817              -2.20     5800.00
01818              -3.40     5800.00
01819               7.40     5600.00
01820               1.40     5400.00
01821              -2.20     5200.00
01822               1.40     5000.00
01823               2.40     4800.00
01824              -4.60     4600.00
01825              -2.20     4400.00
01826               2.00     4400.00
01827               1.00     4400.00
01828              -1.60     4000.00
01829               2.00     4000.00
01830               3.40     3800.00
01831              -2.20     3600.00
01832              -1.20     3400.00
01833               0.60     3400.00
01834               0.20     3200.00
01835              -0.60     3000.00
01836               0.60     2800.00
01837              -0.40     2800.00
01838               0.00     2400.00
01839               1.20     2200.00
01840               0.40     2200.00
01841              -1.20     2000.00
01842              -0.60     2000.00
01843              -0.40     1600.00
01844              -1.00     1600.00
01845               1.40     1400.00
01846               0.20     1200.00
01847              -1.00     1000.00
01848               0.40      800.00
01849               0.40      600.00
01850              -1.00      400.00
01851              -0.40      200.00
01852               0.80      200.00
01853              -1.00        0.00
01854              -1.20     -200.00
01855               0.40     -200.00
01856               1.20     -400.00
01857               0.20     -800.00
01858              -1.00     -800.00
01859               0.40     -800.00
01860               0.40    -1000.00
01861              -1.00    -1200.00
01862               0.40    -1200.00
01863              19.00    -1600.00
01864               7.00    -2000.00
01865             -25.00    -2200.00
01866             -24.20    -2400.00
01867              24.20    -2000.00
01868              25.00    -2400.00
01869             -25.00    -2800.00
01870             -25.00    -2400.00
01871              25.00    -3000.00
01872              25.00    -3200.00
01873             -25.00    -3200.00
01874               9.80    -3400.00
01875              25.00    -3800.00
01876             -25.00    -3600.00
01877             -25.00    -3800.00
01878              25.00    -4000.00
01879             -25.00    -4200.00
01880             -14.00    -4400.00
01881              25.00    -4400.00
01882              -2.20    -4600.00
01883              13.20    -4800.00
01884             -25.00    -4800.00
01885              25.00    -5200.00
01886              25.00    -5200.00
01887             -25.00    -5200.00
01888              25.00    -5800.00
01889              25.00    -5600.00
01890             -25.00    -6000.00
01891             -21.40    -6000.00
01892              25.00    -6000.00
01893              10.00    -6400.00
01894             -25.00    -6400.00
01895              23.60    -6600.00
01896              25.00    -6800.00
01897             -25.00    -6800.00
01898               2.20    -7200.00
01899              25.00    -7200.00
01900             -25.00    -7200.00
01901             -15.80    -7600.00
01902              24.40    -7400.00
01903               3.60    -7800.00
01904             -25.00    -8000.00
01905              12.40    -8000.00
01906              13.80    -8200.00
01907             -20.60    -8200.00
01908               2.00    -8400.00
01909               9.80    -8400.00
01910              -4.20    -8400.00
01911             -10.60    -8600.00
01912               6.00    -8800.00
01913               5.80    -8800.00
01914             -14.00    -8800.00
01915               3.40    -9000.00
01916               8.40    -9000.00
01917             -10.20    -9200.00
01918              -4.20    -9200.00
01919              10.20    -9400.00
01920              -5.40    -9600.00
01921             -10.00    -9600.00
01922               8.60    -9800.00
01923               0.60   -10000.00
01924              -9.40   -10000.00
01925               1.40   -10000.00
01926               5.20   -10000.00
01927              -8.20   -10000.00
01928              -3.00   -10200.00
01929               6.20   -10400.00
01930              -3.80   -10400.00
01931              -6.00   -10400.00
01932               2.80   -10600.00
01933               1.40   -10600.00
01934              -6.00   -10600.00
01935              -2.20   -10800.00
01936               3.60   -10800.00
01937              -3.00   -10800.00
01938              -4.40   -10800.00
01939               1.80   -10800.00
01940              -0.60   -10800.00
01941              -3.80   -11000.00
01942              -1.00   -11000.00
01943               0.60   -11000.00
01944              -2.80   -11200.00
01945              -2.80   -11000.00
01946               1.00   -11400.00
01947              -1.20   -11400.00
01948              -3.60   -11200.00
01949              -0.80   -11200.00
01950               0.20   -11000.00
01951              -1.80   -11400.00
01952              -2.80   -11200.00
01953              -0.40   -11400.00
01954              -0.20   -11400.00
01955              -2.60   -11400.00
01956              -0.80   -11400.00
01957              -0.60   -11600.00
01958              -2.00   -11400.00
01959              -1.20   -11600.00
01960              -1.20   -11400.00
01961              -1.20   -11600.00
01962              -1.80   -11600.00
01963              -1.20   -11400.00
01964              -1.00   -11600.00
01965              -1.20   -11400.00
01966              -1.40   -11200.00
01967              -1.40   -11200.00
01968              -1.00   -11400.00
01969              -1.00   -11400.00
01970              -1.60   -11400.00
01971              -1.80   -11200.00
01972              -0.60   -11200.00
01973              -1.00   -11000.00
01974              -1.40   -11200.00
01975              -1.20   -11000.00
01976              -1.00   -11000.00
01977              -2.00   -11000.00
01978              -1.00   -11000.00
01979              -0.60   -11000.00
01980              -2.00   -10800.00
01981              -1.60   -10800.00
01982              -0.60   -10800.00
01983              -1.20   -10800.00
01984              -2.00   -10800.00
01985              -1.40   -10600.00
01986              -0.60   -10600.00
01987              -1.40   -10600.00
01988              -1.80   -10400.00
01989              -0.60   -10400.00
01990              -1.00   -10200.00
01991              -2.00   -10400.00
01992              -1.20   -10200.00
01993              -1.00   -10000.00
01994              -2.20   -10000.00
01995              -1.40    -9800.00
01996              -0.40   -10000.00
01997              -1.40    -9800.00
01998              -2.00    -9800.00
01999              -1.40    -9600.00
02000              -0.60    -9400.00
02001              -1.00    -9200.00
02002              -1.60    -9400.00
02003              -1.20    -9200.00
02004              -1.00    -9200.00
02005              -1.80    -9000.00
02006              -1.40    -8800.00
02007              -1.20    -8800.00
02008              -1.40    -8800.00
02009              -1.20    -8600.00
02010              -0.60    -8400.00
02011              -1.20    -8400.00
02012              -1.20    -8200.00
02013              -0.80    -8200.00
02014              -0.60    -8000.00
02015              -1.20    -8000.00
02016              -1.20    -7600.00
02017              -1.40    -7600.00
02018              -0.60    -7600.00
02019              -0.60    -7400.00
02020              -1.00    -7200.00
02021              -1.00    -7200.00
02022              -0.60    -6800.00
02023              -0.80    -6800.00
02024              -1.00    -6600.00
02025              -0.60    -6600.00
02026              -1.40    -6400.00
02027              -1.00    -6400.00
02028              -0.20    -6000.00
02029              -0.60    -6000.00
02030              -1.40    -6000.00
02031              -0.60    -5800.00
02032              -0.20    -5600.00
02033              -1.00    -5600.00
02034              -1.00    -5200.00
02035              -0.40    -5200.00
02036              -0.60    -5000.00
02037              -1.00    -4600.00
02038              -0.80    -4600.00
02039               0.20    -4400.00
02040              -0.60    -4400.00
02041              -1.40    -4200.00
02042               0.00    -4000.00
02043              -0.40    -4000.00
02044              -1.20    -3800.00
02045              -0.60    -3600.00
02046              -0.60    -3400.00
02047              -0.20    -3400.00
02048              -0.40    -3200.00
02049              -1.20    -3000.00
02050              -0.80    -2800.00
02051              -0.40    -2600.00
02052              -0.40    -2400.00
02053              -0.60    -2400.00
02054              -1.00    -2000.00
02055              -0.60    -2000.00
02056               0.20    -1800.00
02057              -0.60    -1800.00
02058              -1.20    -1600.00
02059              -0.20    -1200.00
02060              -0.40    -1200.00
02061              -0.60    -1000.00
02062              -0.40     -800.00
02063              -0.40     -800.00
02064              -0.60     -600.00
02065              -1.00     -400.00
02066              -0.20     -200.00
02067              -0.60        0.00
02068               0.20      200.00
02069               0.40      400.00
02070               1.20      400.00
02071              -0.60      800.00
02072              -1.20      600.00
02073               0.40      800.00
02074               0.60     1200.00
02075              -0.40     1400.00
02076               2.00     1600.00
02077              12.40     1800.00
02078              12.20     2000.00
02079             -25.00     2000.00
02080             -25.00     2000.00
02081              -1.80     2200.00
02082              25.00     2600.00
02083              20.80     2600.00
02084             -25.00     2400.00
02085              25.00     3200.00
02086              25.00     3000.00
02087             -25.00     3200.00
02088             -25.00     3600.00
02089              25.00     3600.00
02090             -25.00     3600.00
02091             -25.00     4200.00
02092              25.00     3800.00
02093              -1.20     4200.00
02094             -25.00     4600.00
02095              25.00     4400.00
02096              19.00     4600.00
02097              -7.00     4800.00
02098             -25.00     5200.00
02099              12.20     5200.00
02100              25.00     5600.00
02101             -25.00     5400.00
02102             -25.00     5600.00
02103              25.00     5800.00
02104               3.60     6000.00
02105             -25.00     6000.00
02106              20.80     6200.00
02107              25.00     6400.00
02108             -25.00     6400.00
02109             -11.80     6600.00
02110              25.00     6800.00
02111             -22.00     7000.00
02112             -25.00     7000.00
02113              25.00     7000.00
02114               3.00     7400.00
02115             -25.00     7400.00
02116              18.60     7600.00
02117              18.60     7600.00
02118             -24.40     7800.00
02119              -0.60     8000.00
02120              18.20     8200.00
02121              -7.60     8200.00
02122              -7.40     8400.00
02123               9.00     8400.00
02124               4.20     8400.00
02125              -8.00     8600.00
02126               0.20     8600.00
02127               8.60     8800.00
02128              -4.40     9000.00
02129              -5.20     9000.00
02130               9.20     9000.00
02131               1.00     9200.00
02132              -9.00     9400.00
02133               5.80     9200.00
02134               5.80     9600.00
02135              -8.20     9600.00
02136               1.20     9600.00
02137               8.40     9800.00
02138              -4.20    10000.00
02139              -2.80    10000.00
02140               6.20    10000.00
02141               0.00    10200.00
02142              -3.60    10200.00
02143               3.80    10400.00
02144               2.60    10400.00
02145              -2.60    10400.00
02146               0.20    10400.00
02147               3.60    10600.00
02148              -0.20    10800.00
02149              -2.00    10800.00
02150               2.20    10800.00
02151               3.20    10800.00
02152              -1.20    10800.00
02153               0.20    11000.00
02154               3.00    10800.00
02155              -0.40    11000.00
02156              -0.40    11200.00
02157               2.60    11200.00
02158               0.80    11000.00
02159              -0.60    11200.00
02160               2.00    11200.00
02161               1.80    11200.00
02162              -0.40    11200.00
02163               0.60    11200.00
02164               1.80    11200.00
02165               1.00    11200.00
02166               0.40    11600.00
02167               0.40    11400.00
02168               1.40    11200.00
02169               1.00    11200.00
02170               0.60    11600.00
02171               1.20    11200.00
02172               0.60    11400.00
02173               1.00    11600.00
02174               1.00    11200.00
02175               0.80    11600.00
02176               0.40    11600.00
02177               0.60    11400.00
02178               1.20    11600.00
02179               0.40    11200.00
02180               0.40    11200.00
02181               1.00    11200.00
02182               0.60    11200.00
02183               0.40    11200.00
02184               1.20    11200.00
02185               0.40    11200.00
02186               0.20    11200.00
02187               1.40    11000.00
02188               0.60    11200.00
02189              -0.20    11000.00
02190               0.40    11200.00
02191               1.00    11000.00
02192               0.40    11000.00
02193               1.40    11000.00
02194               0.40    10800.00
02195               0.60    10800.00
02196               0.60    10800.00
02197               0.80    10800.00
02198               0.40    10800.00
02199               0.40    10600.00
02200               0.40    10600.00
02201               1.20    10400.00
02202               0.40    10200.00
02203               0.40    10400.00
02204               1.20    10200.00
02205               0.20    10200.00
02206               0.40    10000.00
02207               1.00    10000.00
02208               0.40    10000.00
02209               0.40     9800.00
02210               1.00     9800.00
02211               1.00     9600.00
02212              -0.20     9600.00
02213               0.40     9600.00
02214               1.20     9400.00
02215               0.40     9400.00
02216               0.20     9200.00
02217               1.20     9200.00
02218               0.40     9000.00
02219               0.20     9000.00
02220               0.60     8800.00
02221               0.60     8800.00
02222               0.00     8600.00
02223               0.60     8600.00
02224               1.00     8400.00
02225               0.40     8000.00
02226               0.40     8200.00
02227               0.40     8200.00
02228               0.80     8000.00
02229               0.60     7800.00
02230               0.20     7800.00
02231               0.40     7600.00
02232               0.60     7400.00
02233               0.40     7400.00
02234               0.40     7000.00
02235               0.40     7000.00
02236               0.40     7000.00
02237               0.20     6800.00
02238               0.40     6800.00
02239               1.00     6400.00
02240              -0.60     6200.00
02241               0.20     6200.00
02242               0.60     6000.00
02243               0.00     6000.00
02244               0.20     5600.00
02245              -0.20     6000.00
02246               0.20     5600.00
02247               0.40     5400.00
02248               0.20     5200.00
02249              -0.60     5200.00
02250               0.40     5000.00
02251               0.40     4600.00
02252              -0.60     4600.00
02253              -0.40     4400.00
02254               0.60     4200.00
02255              -0.60     4000.00
02256              -0.40     4000.00
02257               0.60     3800.00
02258               0.20     3600.00
02259              -0.80     3600.00
02260               0.40     3400.00
02261               0.40     3200.00
02262              -0.40     3000.00
02263              -0.40     2800.00
02264               0.40     2800.00
02265              -0.40     2400.00
02266              -0.40     2400.00
02267               0.20     2400.00
02268              -0.40     2000.00
02269              -0.40     2000.00
02270               0.60     2000.00
02271              -0.40     1600.00
02272              -0.60     1400.00
02273               0.00     1400.00
02274              -0.60     1200.00
02275              -0.40      800.00
02276               0.40      600.00
02277              -0.40      600.00
02278              -0.60      400.00
02279               0.40      400.00
02280              -0.20        0.00
02281              -1.20        0.00
02282               0.00     -200.00
02283               1.20     -400.00
02284               0.60     -400.00
02285              -1.20     -800.00
02286              -0.40     -800.00
02287               0.60    -1000.00
02288              -0.60    -1200.00
02289              -0.40    -1400.00
02290              10.00    -1600.00
02291              24.00    -1800.00
02292             -25.00    -2000.00
02293             -25.00    -2400.00
02294              -7.20    -2000.00
02295              25.00    -2400.00
02296              25.00    -2800.00
02297             -25.00    -2400.00
02298              25.00    -2600.00
02299              25.00    -3400.00
02300             -25.00    -3200.00
02301             -25.00    -3200.00
02302              25.00    -3600.00
02303              25.00    -3600.00
02304             -25.00    -3600.00
02305              25.00    -4200.00
02306              25.00    -4000.00
02307             -25.00    -4400.00
02308              25.00    -4600.00
02309              -2.60    -4600.00
02310              18.80    -4800.00
02311             -25.00    -4800.00
02312             -13.40    -5200.00
02313              25.00    -5600.00
02314             -25.00    -5400.00
02315             -25.00    -5600.00
02316              25.00    -5600.00
02317             -22.60    -5600.00
02318             -25.00    -6000.00
02319              25.00    -6000.00
02320              25.00    -6200.00
02321             -25.00    -6400.00
02322             -19.80    -6600.00
02323              25.00    -6800.00
02324             -25.00    -6600.00
02325             -25.00    -7200.00
02326              25.00    -7200.00
02327              -5.20    -7000.00
02328             -25.00    -7600.00
02329              14.40    -7400.00
02330              18.20    -7600.00
02331             -25.00    -7600.00
02332              -6.20    -8000.00
02333              23.40    -8000.00
02334             -14.40    -8200.00
02335              -8.40    -8400.00
02336              11.00    -8400.00
02337               1.20    -8400.00
02338             -10.20    -8800.00
02339              -2.00    -8800.00
02340              10.60    -9000.00
02341             -10.00    -8800.00
02342              -6.00    -9000.00
02343              11.60    -9200.00
02344              -4.20    -9200.00
02345             -10.20    -9400.00
02346               7.60    -9400.00
02347               2.80    -9600.00
02348             -12.60    -9600.00
02349               2.60    -9800.00
02350               7.60    -9800.00
02351              -8.40   -10000.00
02352              -4.80   -10000.00
02353               7.80   -10000.00
02354              -3.00   -10200.00
02355              -8.40   -10000.00
02356               5.60   -10400.00
02357               0.20   -10200.00
02358              -6.80   -10400.00
02359               0.60   -10400.00
02360               2.80   -10600.00
02361              -3.40   -10600.00
02362              -3.80   -10600.00
02363               1.60   -10800.00
02364              -0.20   -10800.00
02365              -3.80   -10800.00
02366              -0.60   -11000.00
02367               1.00   -10800.00
02368              -2.20   -10800.00
02369              -2.80   -11000.00
02370               1.00   -11200.00
02371              -1.00   -11200.00
02372              -3.80   -11000.00
02373               0.20   -11200.00
02374               0.60   -11400.00
02375              -4.20   -11200.00
02376              -1.40   -11200.00
02377               0.40   -11400.00
02378              -1.80   -11200.00
02379              -2.20   -11400.00
02380              -1.20   -11400.00
02381              -0.60   -11400.00
02382              -1.20   -11400.00
02383              -2.00   -11400.00
02384              -1.80   -11400.00
02385              -0.60   -11400.00
02386              -1.20   -11400.00
02387              -2.20   -11600.00
02388              -0.40   -11400.00
02389              -1.20   -11400.00
02390              -2.60   -11400.00
02391              -1.00   -11600.00
02392              -0.40   -11400.00
02393              -1.80   -11600.00
02394              -2.20   -11400.00
02395              -0.60   -11400.00
02396              -0.60   -11400.00
02397              -2.20   -11200.00
02398              -1.40   -11200.00
02399              -1.00   -11000.00
02400              -1.00   -11000.00
02401              -1.20   -11200.00
02402              -1.20   -11000.00
02403              -1.20   -11200.00
02404              -1.80   -11000.00
02405              -1.20   -11000.00
02406              -0.60   -11000.00
02407              -2.00   -10800.00
02408              -1.80   -10800.00
02409              -0.80   -10800.00
02410              -0.60   -10800.00
02411              -1.80   -10600.00
02412              -2.00   -10800.00
02413              -0.60   -10600.00
02414              -0.80   -10600.00
02415              -1.80   -10400.00
02416              -0.60   -10400.00
02417              -1.20   -10400.00
02418              -1.40   -10400.00
02419              -1.20   -10400.00
02420              -0.60   -10200.00
02421              -1.40   -10000.00
02422              -1.80   -10000.00
02423              -0.40    -9800.00
02424              -1.00    -9800.00
02425              -1.80    -9800.00
02426              -1.00    -9600.00
02427              -0.80    -9600.00
02428              -1.20    -9400.00
02429              -1.20    -9400.00
02430              -1.00    -9200.00
02431              -0.60    -9200.00
02432              -0.60    -9000.00
02433              -2.00    -9000.00
02434              -0.40    -8800.00
02435              -1.20    -8600.00
02436              -1.40    -8600.00
02437              -0.60    -8400.00
02438              -0.60    -8400.00
02439              -1.40    -8400.00
02440              -1.00    -8200.00
02441              -1.00    -8000.00
02442              -1.20    -8000.00
02443              -1.20    -7800.00
02444              -1.80    -7800.00
02445              -1.00    -7600.00
02446              -0.60    -7400.00
02447              -1.20    -7400.00
02448              -1.00    -7200.00
02449              -0.80    -7000.00
02450              -1.00    -7000.00
02451              -1.20    -6800.00
02452              -0.80    -6600.00
02453              -1.00    -6600.00
02454              -1.60    -6400.00
02455              -0.60    -6200.00
02456              -0.40    -6000.00
02457              -1.40    -6000.00
02458              -1.00    -5800.00
02459              -0.20    -5800.00
02460              -1.20    -5600.00
02461              -1.20    -5200.00
02462              -0.20    -5200.00
02463              -2.00    -5000.00
02464              -0.40    -5000.00
02465              -0.40    -4600.00
02466              -1.40    -4600.00
02467              -0.40    -4400.00
02468              -0.60    -4400.00
02469              -1.20    -4200.00
02470              -0.60    -4200.00
02471              -0.40    -3800.00
02472              -1.00    -3600.00
02473              -1.20    -3600.00
02474               0.40    -3400.00
02475              -1.20    -3200.00
02476              -1.20    -3000.00
02477               0.40    -2800.00
02478              -0.80    -2800.00
02479              -1.20    -2400.00
02480               0.20    -2400.00
02481              -0.60    -2200.00
02482              -1.20    -2000.00
02483              -0.20    -2000.00
02484               0.20    -1800.00
02485              -1.00    -1600.00
02486              -0.80    -1600.00
02487               0.40    -1200.00
02488              -0.60    -1000.00
02489              -0.40    -1000.00
02490              -0.20     -800.00
02491              -0.40     -600.00
02492               0.20     -400.00
02493              -0.60     -200.00
02494               0.20     -200.00
02495              -0.40        0.00
02496              -0.40      200.00
02497               2.00      400.00
02498               0.20      600.00
02499              -1.00      800.00
02500               0.60      800.00
02501               0.00      800.00
02502              -0.60     1200.00
02503               0.40     1200.00
02504               7.60     1600.00
02505              18.20     2000.00
02506             -14.60     2000.00
02507             -25.00     2000.00
02508             -11.00     2000.00
02509              25.00     2400.00
02510              25.00     2400.00
02511             -25.00     2600.00
02512             -25.00     3000.00
02513              25.00     3000.00
02514               8.20     3000.00
02515             -25.00     3200.00
02516              25.00     3600.00
02517              25.00     3600.00
02518             -25.00     3800.00
02519              25.00     4000.00
02520              25.00     4000.00
02521             -25.00     4200.00
02522               4.60     4400.00
02523              25.00     4400.00
02524               1.00     4800.00
02525             -25.00     4800.00
02526             -11.80     5000.00
02527              25.00     5200.00
02528              -5.40     5400.00
02529             -25.00     5400.00
02530              25.00     5600.00
02531              25.00     6000.00
02532             -25.00     6000.00
02533             -11.40     6200.00
02534              25.00     6400.00
02535             -13.40     6400.00
02536             -25.00     6600.00
02537              25.00     6600.00
02538              10.40     6800.00
02539             -25.00     7000.00
02540              22.40     7200.00
02541              25.00     7200.00
02542             -25.00     7600.00
02543              -1.20     7600.00
02544              25.00     7600.00
02545             -14.20     7800.00
02546             -14.60     8000.00
02547              18.20     8200.00
02548               2.60     8200.00
02549             -11.80     8400.00
02550               4.40     8400.00
02551               9.40     8400.00
02552              -5.40     8600.00
02553              -5.00     8600.00
02554               8.60     8800.00
02555               1.40     8800.00
02556              -8.40     8800.00
02557               6.20     9200.00
02558               6.60     9200.00
02559              -8.40     9200.00
02560               0.40     9400.00
02561               9.40     9400.00
02562              -4.80     9600.00
02563              -4.20     9600.00
02564               8.80     9800.00
02565               0.40     9600.00
02566              -5.80    10000.00
02567               5.00    10000.00
02568               3.40    10200.00
02569              -4.60    10200.00
02570               1.40    10200.00
02571               4.40    10400.00
02572              -2.20    10400.00
02573              -1.20    10400.00
02574               3.40    10400.00
02575               1.20    10400.00
02576              -2.20    10800.00
02577               0.60    10600.00
02578               3.60    10800.00
02579              -0.40    10800.00
02580              -1.20    10800.00
02581               2.80    11000.00
02582               1.20    11000.00
02583              -1.40    11000.00
02584               1.80    11200.00
02585               1.80    11000.00
02586              -1.00    11000.00
02587               1.00    11200.00
02588               2.20    11000.00
02589              -0.20    11200.00
02590              -0.40    11200.00
02591               1.20    11200.00
02592               1.20    11200.00
02593               0.40    11200.00
02594               0.20    11400.00
02595               1.00    11200.00
02596               1.20    11400.00
02597               0.60    11200.00
02598               0.60    11400.00
02599               1.00    11400.00
02600               1.00    11400.00
02601               0.60    11200.00
02602               1.20    11200.00
02603               1.20    11200.00
02604               0.40    11200.00
02605               1.00    11200.00
02606               1.20    11400.00
02607               0.40    11400.00
02608               0.60    11400.00
02609               1.00    11200.00
02610               1.00    11200.00
02611               1.20    11200.00
02612               0.80    11200.00
02613               0.60    11200.00
02614               1.20    11200.00
02615               0.60    11200.00
02616               0.60    11200.00
02617               1.40    11000.00
02618               1.00    11000.00
02619               0.40    11000.00
02620               1.40    11000.00
02621               0.40    10800.00
02622               0.00    10800.00
02623               1.00    10800.00
02624               1.20    10800.00
02625               0.40    10800.00
02626               0.40    10600.00
02627               1.00    10400.00
02628               1.20    10600.00
02629               0.60    10400.00
02630               0.80    10400.00
02631               0.80    10400.00
02632               0.40    10000.00
02633               0.40    10000.00
02634               1.00    10000.00
02635               0.60    10000.00
02636               0.20    10000.00
02637               0.60     9600.00
02638               1.00     9600.00
02639               0.20     9600.00
02640               0.20     9400.00
02641               1.00     9400.00
02642               0.60     9200.00
02643               0.20     9200.00
02644               0.60     9200.00
02645               0.60     9200.00
02646              -0.20     9000.00
02647               0.40     8800.00
02648               1.00     8800.00
02649               0.20     8600.00
02650              -0.20     8400.00
02651               0.80     8600.00
02652               0.40     8400.00
02653              -0.20     8200.00
02654               0.40     8200.00
02655               0.00     8000.00
02656              -0.20     7800.00
02657               0.60     7800.00
02658               0.40     7600.00
02659               0.40     7200.00
02660               0.80     7400.00
02661               0.40     7400.00
02662               0.20     7000.00
02663               0.20     7000.00
02664               0.20     6800.00
02665               0.40     6600.00
02666               0.20     6600.00
02667               0.20     6400.00
02668               0.20     6200.00
02669               0.20     6000.00
02670               0.20     6000.00
02671               0.40     6000.00
02672               0.00     5800.00
02673               0.20     5600.00
02674               0.60     5400.00
02675               0.00     5200.00
02676               0.20     5200.00
02677               0.40     4800.00
02678               0.20     4800.00
02679              -0.20     4600.00
02680               0.60     4400.00
02681               0.40     4400.00
02682              -0.20     4200.00
02683               0.20     4000.00
02684               0.40     4000.00
02685              -0.20     3600.00
02686              -0.20     3600.00
02687               0.20     3400.00
02688              -0.20     3200.00
02689               0.20     3200.00
02690              -0.20     2800.00
02691              -0.20     2800.00
02692               0.20     2600.00
02693               0.20     2400.00
02694              -0.40     2200.00
02695               0.40     2200.00
02696              -0.20     2000.00
02697              -0.20     1600.00
02698               0.20     1800.00
02699              -0.20     1400.00
02700              -0.60     1400.00
02701              -0.20     1200.00
02702               0.20      800.00
02703              -0.60      800.00
02704              -0.60      600.00
02705              -0.20      400.00
02706              -0.60      200.00
02707              -0.40        0.00
02708               0.20        0.00
02709              -0.40     -200.00
02710              -0.20     -400.00
02711               1.20     -400.00
02712              -0.40     -600.00
02713              -1.80     -800.00
02714               0.40    -1000.00
02715               0.60    -1000.00
02716              -1.40    -1200.00
02717               3.00    -1600.00
02718              25.00    -1800.00
02719             -11.20    -2000.00
02720             -25.00    -2200.00
02721             -19.20    -2200.00
02722              25.00    -2000.00
02723              25.00    -2800.00
02724             -25.00    -2800.00
02725             -25.00    -2600.00
02726              25.00    -3200.00
02727              25.00    -3200.00
02728             -25.00    -2800.00
02729              25.00    -3600.00
02730              25.00    -3600.00
02731             -25.00    -3400.00
02732              25.00    -4000.00
02733              25.00    -4200.00
02734             -25.00    -4200.00
02735              25.00    -4400.00
02736              11.00    -4400.00
02737               6.40    -4800.00
02738              -7.80    -4800.00
02739             -25.00    -5000.00
02740              25.00    -5200.00
02741              13.00    -5200.00
02742             -25.00    -5400.00
02743              25.00    -5800.00
02744              25.00    -5600.00
02745             -25.00    -6000.00
02746               5.20    -6200.00
02747              25.00    -6000.00
02748             -15.80    -6400.00
02749             -25.00    -6600.00
02750              25.00    -6800.00
02751              17.20    -6800.00
02752             -25.00    -6800.00
02753              25.00    -7200.00
02754              25.00    -7000.00
02755             -25.00    -7200.00
02756              -2.40    -7600.00
02757              25.00    -7600.00
02758             -10.20    -7800.00
02759             -22.00    -8000.00
02760              22.00    -8000.00
02761               1.00    -8200.00
02762             -18.20    -8200.00
02763               7.60    -8400.00
02764               6.80    -8400.00
02765              -7.20    -8600.00
02766              -8.60    -8600.00
02767              10.00    -8800.00
02768              -1.20    -8800.00
02769             -13.00    -9000.00
02770               8.60    -9200.00
02771               3.60    -9200.00
02772             -12.40    -9400.00
02773               1.20    -9400.00
02774               8.60    -9600.00
02775             -10.60    -9600.00
02776              -5.00    -9800.00
02777               9.40    -9800.00
02778              -3.80    -9800.00
02779              -8.40   -10000.00
02780               4.40   -10000.00
02781               2.20   -10000.00
02782              -9.40   -10000.00
02783               1.00   -10400.00
02784               4.60   -10400.00
02785              -6.00   -10400.00
02786              -3.40   -10600.00
02787               3.40   -10600.00
02788              -0.40   -10600.00
02789              -5.80   -10600.00
02790              -0.20   -10600.00
02791               2.60   -10800.00
02792              -3.80   -10800.00
02793              -3.00   -11000.00
02794               1.80   -11000.00
02795              -1.40   -11000.00
02796              -3.40   -11200.00
02797               0.20   -11000.00
02798               0.20   -11200.00
02799              -3.40   -11000.00
02800              -1.80   -11200.00
02801               1.00   -11200.00
02802              -2.00   -11200.00
02803              -2.80   -11000.00
02804               0.20   -11400.00
02805              -0.60   -11400.00
02806              -1.80   -11400.00
02807              -2.20   -11400.00
02808              -0.60   -11600.00
02809              -0.80   -11400.00
02810              -1.80   -11400.00
02811              -1.40   -11400.00
02812              -0.60   -11400.00
02813              -1.20   -11400.00
02814              -2.20   -11400.00
02815              -0.60   -11400.00
02816              -1.00   -11600.00
02817              -2.20   -11400.00
02818              -1.00   -11400.00
02819              -0.60   -11400.00
02820              -1.40   -11400.00
02821              -1.40   -11400.00
02822              -1.40   -11400.00
02823              -1.00   -11400.00
02824              -1.00   -11000.00
02825              -1.40   -11400.00
02826              -1.40   -11400.00
02827              -1.00   -11200.00
02828              -1.00   -11200.00
02829              -1.40   -11000.00
02830              -1.40   -11000.00
02831              -1.20   -11000.00
02832              -1.20   -11000.00
02833              -1.80   -11000.00
02834              -1.60   -10800.00
02835              -1.40   -10800.00
02836              -1.80   -10800.00
02837              -1.20   -10800.00
02838              -1.20   -10600.00
02839              -1.80   -10800.00
02840              -1.00   -10400.00
02841              -1.00   -10600.00
02842              -2.00   -10600.00
02843              -0.60   -10400.00
02844              -1.80   -10400.00
02845              -2.20   -10200.00
02846              -0.20   -10200.00
02847              -0.80   -10000.00
02848              -2.00   -10000.00
02849              -1.20   -10000.00
02850              -0.60   -10000.00
02851              -2.00    -9800.00
02852              -2.60    -9800.00
02853              -0.60    -9600.00
02854              -0.60    -9600.00
02855              -1.20    -9400.00
02856              -1.00    -9200.00
02857              -1.40    -9400.00
02858              -1.40    -9200.00
02859              -1.00    -9200.00
02860              -1.80    -9000.00
02861              -0.60    -9000.00
02862              -1.00    -8800.00
02863              -1.00    -8800.00
02864              -1.00    -8600.00
02865              -1.00    -8400.00
02866              -2.00    -8200.00
02867              -1.80    -8200.00
02868              -1.00    -8000.00
02869               0.20    -8000.00
02870              -0.60    -7800.00
02871              -2.20    -7800.00
02872              -0.60    -7600.00
02873              -0.40    -7600.00
02874              -2.00    -7200.00
02875              -1.00    -7200.00
02876              -0.40    -7000.00
02877              -1.00    -7000.00
02878              -0.60    -6800.00
02879              -0.20    -6800.00
02880              -1.60    -6600.00
02881              -1.20    -6400.00
02882              -0.60    -6200.00
02883              -0.60    -6200.00
02884              -1.20    -6000.00
02885              -0.60    -6000.00
02886              -0.40    -5800.00
02887              -0.60    -5600.00
02888              -0.60    -5600.00
02889              -0.80    -5200.00
02890              -1.00    -5200.00
02891              -0.60    -4800.00
02892              -0.40    -4600.00
02893              -0.60    -4600.00
02894              -1.00    -4600.00
02895              -0.80    -4400.00
02896              -0.60    -4200.00
02897              -0.60    -4000.00
02898              -0.40    -4000.00
02899              -1.00    -3600.00
02900              -0.60    -3600.00
02901              -0.60    -3400.00
02902              -0.60    -3400.00
02903              -0.60    -3200.00
02904              -0.20    -3000.00
02905              -1.00    -2800.00
02906              -0.60    -2600.00
02907               0.40    -2400.00
02908              -1.40    -2400.00
02909              -0.80    -2000.00
02910               0.20    -2000.00
02911              -1.20    -1800.00
02912              -0.60    -1800.00
02913              -0.20    -1600.00
02914              -0.60    -1200.00
02915              -0.20    -1200.00
02916              -0.60    -1000.00
02917              -1.20     -800.00
02918              -0.20     -800.00
02919              -0.20     -400.00
02920              -0.60     -400.00
02921               0.20     -200.00
02922              -0.20        0.00
02923              -0.20      200.00
02924               0.60      200.00
02925               1.20      400.00
02926              -0.80      600.00
02927              -0.60      600.00
02928               1.00     1000.00
02929               0.20     1200.00
02930              -0.40     1400.00
02931               3.80     1800.00
02932              16.40     1800.00
02933               1.60     2000.00
02934             -25.00     2000.00
02935             -18.80     2000.00
02936              10.00     2200.00
02937              25.00     2800.00
02938             -15.40     2400.00
02939             -25.00     2800.00
02940              25.00     3200.00
02941              25.00     3200.00
02942             -25.00     3200.00
02943              18.20     3600.00
02944              25.00     3600.00
02945             -25.00     3600.00
02946             -16.60     4000.00
02947              25.00     4000.00
02948             -25.00     4400.00
02949             -25.00     4400.00
02950              25.00     4400.00
02951              10.80     4600.00
02952             -14.00     4800.00
02953             -25.00     5000.00
02954              25.00     5200.00
02955              25.00     5400.00
02956             -25.00     5600.00
02957              -1.40     5600.00
02958              25.00     5800.00
02959             -23.40     6000.00
02960             -25.00     6200.00
02961              25.00     6200.00
02962              21.20     6400.00
02963             -25.00     6400.00
02964              16.20     6600.00
02965              25.00     6800.00
02966             -25.00     7000.00
02967              -7.00     7000.00
02968              25.00     7200.00
02969             -17.40     7400.00
02970             -22.60     7200.00
02971              25.00     7600.00
02972               4.00     7600.00
02973             -25.00     7800.00
02974              10.20     8200.00
02975              13.60     8200.00
02976             -12.60     8200.00
02977              -2.20     8200.00
02978              10.80     8400.00
02979              -0.60     8600.00
02980              -8.40     8600.00
02981               5.00     8600.00
02982               6.80     8800.00
02983              -7.60     9000.00
02984              -0.40     9000.00
02985               9.80     9200.00
02986              -4.20     9200.00
02987              -6.20     9400.00
02988               9.20     9400.00
02989               1.00     9600.00
02990              -8.20     9600.00
02991               6.00     9800.00
02992               5.20    10000.00
02993              -6.20    10000.00
02994               1.20     9800.00
02995               6.00    10200.00
02996              -3.40    10000.00
02997              -1.60    10200.00
02998               5.20    10400.00
02999               0.20    10400.00
03000              -2.60    10400.00
03001               2.60    10400.00
03002               3.20    10600.00
03003              -1.80    10400.00
03004              -1.00    10800.00
03005               3.80    10800.00
03006               1.20    10800.00
03007              -1.60    10800.00
03008               1.40    11000.00
03009               2.20    10800.00
03010              -1.00    11000.00
03011               0.80    11000.00
03012               3.40    11000.00
03013              -0.60    11200.00
03014              -0.80    11200.00
03015               2.60    11200.00
03016               1.00    11200.00
03017              -0.60    11200.00
03018               1.40    11200.00
03019               1.80    11200.00
03020               1.00    11200.00
03021               0.40    11200.00
03022               0.60    11200.00
03023               1.20    11200.00
03024               0.40    11400.00
03025               0.00    11200.00
03026               1.00    11400.00
03027               1.80    11600.00
03028               0.20    11400.00
03029               1.00    11200.00
03030               2.00    11200.00
03031              -0.60    11400.00
03032               0.20    11200.00
03033               2.60    11400.00
03034              -0.40    11200.00
03035              -0.60    11200.00
03036               2.00    11400.00
03037               0.60    11200.00
03038              -0.40    11200.00
03039               1.40    11200.00
03040               0.60    11200.00
03041              -0.40    11200.00
03042               1.40    11200.00
03043               2.00    11200.00
03044               0.20    11000.00
03045               0.60    11000.00
03046               0.60    11000.00
03047              -0.20    11000.00
03048               0.40    11000.00
03049               0.40    10800.00
03050               0.40    10800.00
03051               1.00    10800.00
03052               1.00    10800.00
03053               0.80    10800.00
03054               0.20    10600.00
03055               0.60    10600.00
03056               1.00    10400.00
03057               0.40    10400.00
03058               0.60    10200.00
03059               1.00    10200.00
03060               0.20    10200.00
03061               0.60    10000.00
03062               1.00    10000.00
03063               0.20    10000.00
03064               0.20     9800.00
03065               1.20     9800.00
03066               1.00     9600.00
03067              -0.20     9400.00
03068               0.60     9400.00
03069               0.60     9400.00
03070               0.20     9200.00
03071               0.40     9200.00
03072               0.80     9200.00
03073               0.40     9200.00
03074               0.60     8800.00
03075               1.00     8800.00
03076               0.40     8800.00
03077               0.20     8600.00
03078               0.20     8400.00
03079               0.80     8400.00
03080               0.40     8200.00
03081               0.40     8200.00
03082               0.60     8000.00
03083               0.60     7800.00
03084               0.40     7600.00
03085               0.20     7600.00
03086               0.40     7400.00
03087               0.60     7600.00
03088               0.40     7200.00
03089               0.20     7200.00
03090               0.60     7000.00
03091               0.40     6800.00
03092              -0.40     6800.00
03093               0.60     6400.00
03094               0.40     6400.00
03095              -0.60     6200.00
03096               0.20     6200.00
03097               0.80     6000.00
03098              -0.20     6000.00
03099              -0.20     5600.00
03100               0.60     5600.00
03101               0.20     5400.00
03102              -0.40     5200.00
03103               0.40     5200.00
03104               0.20     5000.00
03105              -0.40     4800.00
03106               0.60     4800.00
03107               0.20     4400.00
03108              -0.60     4400.00
03109               0.20     4200.00
03110               0.20     4000.00
03111              -0.60     4000.00
03112               0.20     3800.00
03113               0.20     3600.00
03114              -0.60     3600.00
03115               0.20     3200.00
03116               0.40     3200.00
03117              -0.60     3000.00
03118              -0.40     2800.00
03119               0.20     2800.00
03120               0.20     2400.00
03121              -0.20     2400.00
03122              -0.40     2200.00
03123               0.20     2000.00
03124              -0.20     2000.00
03125              -0.60     1800.00
03126              -0.20     1600.00
03127              -0.40     1400.00
03128              -0.40     1200.00
03129              -0.20      800.00
03130               0.20      800.00
03131              -0.20      600.00
03132               0.20      600.00
03133               0.20      400.00
03134              -0.40      200.00
03135              -0.40     -200.00
03136              -0.40     -200.00
03137               0.20     -200.00
03138               0.60     -400.00
03139               0.60     -400.00
03140              -0.60     -800.00
03141              -0.60     -800.00
03142               0.20    -1000.00
03143              -0.20    -1200.00
03144               0.60    -1400.00
03145              17.00    -1600.00
03146              12.20    -2000.00
03147             -25.00    -2000.00
03148             -25.00    -2400.00
03149              17.00    -2000.00
03150              25.00    -2400.00
03151             -25.00    -2800.00
03152             -25.00    -2400.00
03153              25.00    -3000.00
03154              25.00    -3400.00
03155             -25.00    -3200.00
03156             -11.60    -3400.00
03157              25.00    -3600.00
03158             -25.00    -3600.00
03159             -25.00    -3600.00
03160              25.00    -4200.00
03161             -25.00    -4000.00
03162             -25.00    -4400.00
03163              25.00    -4400.00
03164              -2.80    -4600.00
03165              17.20    -4800.00
03166             -25.00    -4600.00
03167              25.00    -5000.00
03168              25.00    -5200.00
03169             -25.00    -5200.00
03170              12.80    -5800.00
03171              25.00    -5800.00
03172             -25.00    -6000.00
03173             -25.00    -6200.00
03174              25.00    -6000.00
03175              17.40    -6400.00
03176             -25.00    -6400.00
03177              13.40    -6600.00
03178              25.00    -6800.00
03179             -25.00    -6800.00
03180              -7.00    -7200.00
03181              25.00    -7200.00
03182             -22.60    -7200.00
03183             -20.20    -7400.00
03184              22.60    -7400.00
03185               8.20    -7800.00
03186             -25.00    -8000.00
03187               7.60    -8000.00
03188              16.60    -8200.00
03189             -19.80    -8200.00
03190              -0.60    -8200.00
03191              10.40    -8400.00
03192              -2.60    -8400.00
03193             -11.40    -8800.00
03194               4.20    -8800.00
03195               7.80    -8800.00
03196             -13.80    -8800.00
03197               1.00    -9000.00
03198               9.80    -9000.00
03199              -9.00    -9200.00
03200              -6.00    -9400.00
03201               9.80    -9600.00
03202              -3.40    -9600.00
03203             -10.80    -9600.00
03204               7.20    -9800.00
03205               2.60    -9800.00
03206              -9.20   -10000.00
03207              -0.20   -10000.00
03208               6.00   -10000.00
03209              -6.80   -10200.00
03210              -4.40   -10400.00
03211               6.00   -10400.00
03212              -2.20   -10400.00
03213              -6.00   -10400.00
03214               1.60   -10400.00
03215               2.00   -10600.00
03216              -4.60   -10600.00
03217              -3.40   -10600.00
03218               3.40   -10800.00
03219              -1.40   -10800.00
03220              -5.00   -10800.00
03221               0.40   -10800.00
03222               0.60   -11000.00
03223              -3.80   -11000.00
03224              -1.40   -11000.00
03225               1.00   -11200.00
03226              -2.60   -11000.00
03227              -2.80   -11200.00
03228               0.80   -11200.00
03229              -1.20   -11400.00
03230              -3.40   -11400.00
03231              -0.40   -11000.00
03232              -0.40   -11400.00
03233              -1.80   -11200.00
03234              -2.20   -11400.00
03235              -1.20   -11400.00
03236              -0.60   -11400.00
03237              -1.40   -11400.00
03238              -1.80   -11400.00
03239              -1.40   -11600.00
03240              -1.00   -11400.00
03241              -1.60   -11400.00
03242              -1.80   -11600.00
03243              -0.60   -11400.00
03244              -1.60   -11400.00
03245              -2.00   -11400.00
03246              -0.60   -11600.00
03247              -1.20   -11600.00
03248              -1.80   -11400.00
03249              -2.00   -11600.00
03250              -0.60   -11400.00
03251              -0.60   -11400.00
03252              -2.00   -11400.00
03253              -1.40   -11400.00
03254              -1.00   -11000.00
03255              -1.40   -11200.00
03256              -1.40   -11200.00
03257              -0.60   -11000.00
03258              -1.00   -11000.00
03259              -2.20   -11000.00
03260              -0.80   -11000.00
03261              -0.40   -11000.00
03262              -2.00   -11000.00
03263              -1.80   -10800.00
03264              -0.20   -10800.00
03265              -0.60   -10800.00
03266              -2.20   -10800.00
03267              -1.20   -10600.00
03268              -0.40   -10600.00
03269              -1.80   -10400.00
03270              -1.40   -10400.00
03271              -0.60   -10400.00
03272              -1.40   -10400.00
03273              -1.20   -10200.00
03274              -0.40   -10000.00
03275              -1.20   -10000.00
03276              -1.80   -10000.00
03277              -1.20   -10000.00
03278              -0.40   -10000.00
03279              -1.40    -9600.00
03280              -1.80    -9800.00
03281              -1.00    -9600.00
03282              -0.40    -9600.00
03283              -1.20    -9600.00
03284              -1.20    -9400.00
03285              -1.40    -9200.00
03286              -1.00    -9200.00
03287              -1.20    -9000.00
03288              -1.40    -9000.00
03289              -1.00    -8800.00
03290              -1.20    -8800.00
03291              -1.20    -8600.00
03292              -0.60    -8400.00
03293              -1.20    -8400.00
03294              -1.80    -8400.00
03295              -1.00    -8200.00
03296              -1.00    -8200.00
03297              -1.40    -8000.00
03298              -1.20    -7600.00
03299              -1.40    -7600.00
03300              -1.00    -7600.00
03301              -1.00    -7400.00
03302              -1.00    -7200.00
03303              -0.60    -7200.00
03304              -1.20    -7000.00
03305              -0.80    -6800.00
03306              -0.60    -6600.00
03307              -1.20    -6600.00
03308              -1.20    -6400.00
03309              -1.00    -6400.00
03310              -0.60    -6200.00
03311              -0.80    -6000.00
03312              -0.60    -6000.00
03313              -1.00    -5800.00
03314              -1.20    -5600.00
03315              -0.40    -5600.00
03316              -0.60    -5200.00
03317              -1.80    -5200.00
03318              -1.00    -5000.00
03319               0.20    -4800.00
03320              -1.00    -4600.00
03321              -1.00    -4600.00
03322              -0.40    -4200.00
03323              -0.60    -4400.00
03324              -0.60    -4200.00
03325              -0.60    -4000.00
03326              -0.60    -3800.00
03327              -0.60    -3600.00
03328              -0.40    -3600.00
03329              -0.20    -3400.00
03330              -0.60    -3200.00
03331              -1.20    -3000.00
03332              -0.40    -2800.00
03333               0.40    -2600.00
03334              -0.60    -2600.00
03335              -1.20    -2400.00
03336              -0.40    -2200.00
03337              -0.20    -2000.00
03338               0.20    -2000.00
03339              -0.20    -1600.00
03340              -1.20    -1600.00
03341              -0.60    -1400.00
03342              -0.20    -1200.00
03343              -0.60    -1000.00
03344              -0.20     -800.00
03345               0.20     -600.00
03346              -0.60     -400.00
03347              -0.40     -400.00
03348               0.40     -200.00
03349              -1.00        0.00
03350              -0.20        0.00
03351               1.00      400.00
03352               0.60      400.00
03353               0.00      600.00
03354              -1.20      600.00
03355              -0.20      800.00
03356               1.00     1000.00
03357              -0.60     1200.00
03358               2.20     1400.00
03359              11.40     1800.00
03360              13.00     1800.00
03361             -24.60     2000.00
03362             -25.00     2000.00
03363              -5.00     2000.00
03364              25.00     2400.00
03365              25.00     2600.00
03366             -25.00     2600.00
03367              20.20     3000.00
03368              25.00     3000.00
03369             -25.00     3000.00
03370             -25.00     3600.00
03371              25.00     3400.00
03372              -7.40     3600.00
03373             -25.00     4000.00
03374              25.00     4000.00
03375              10.20     4000.00
03376             -25.00     4400.00
03377              25.00     4400.00
03378              20.60     4400.00
03379              -5.00     4800.00
03380             -25.00     5000.00
03381               6.00     5200.00
03382              25.00     5400.00
03383             -25.00     5400.00
03384             -25.00     5600.00
03385              25.00     5600.00
03386              10.00     6000.00
03387             -25.00     6000.00
03388              14.60     6200.00
03389              25.00     6400.00
03390             -25.00     6600.00
03391             -17.80     6600.00
03392              25.00     6800.00
03393             -16.40     7000.00
03394             -25.00     7000.00
03395              25.00     7200.00
03396               7.40     7200.00
03397             -25.00     7600.00
03398              17.20     7600.00
03399              21.00     7800.00
03400             -25.00     8000.00
03401              -2.80     7800.00
03402              19.40     8200.00
03403              -6.60     8200.00
03404              -8.00     8400.00
03405               9.20     8400.00
03406               5.40     8400.00
03407              -8.40     8600.00
03408              -0.40     8800.00
03409               9.20     8800.00
03410              -3.60     9000.00
03411              -5.00     9000.00
03412               9.00     9200.00
03413               2.60     9400.00
03414              -9.00     9200.00
03415               4.40     9400.00
03416               6.60     9600.00
03417              -7.60     9600.00
03418              -0.40     9600.00
03419               8.60     9800.00
03420              -2.60    10000.00
03421              -3.80    10000.00
03422               5.80    10000.00
03423               1.00    10200.00
03424              -4.60    10200.00
03425               2.80    10200.00
03426               4.20    10200.00
03427              -2.20    10400.00
03428              -0.40    10400.00
03429               3.80    10600.00
03430               0.20    10800.00
03431              -2.60    10600.00
03432               1.80    10800.00
03433               3.00    10800.00
03434              -1.60    10800.00
03435               0.20    10800.00
03436               3.20    11000.00
03437              -0.40    11000.00
03438              -1.00    11000.00
03439               2.60    11200.00
03440               0.40    11000.00
03441              -1.00    11200.00
03442               2.00    11200.00
03443               2.60    11200.00
03444              -0.60    11200.00
03445               0.20    11200.00
03446               2.20    11200.00
03447               0.80    11200.00
03448              -0.40    11200.00
03449               1.00    11600.00
03450               1.20    11400.00
03451               0.80    11400.00
03452               0.60    11200.00
03453               1.20    11600.00
03454               1.00    11400.00
03455               1.00    11200.00
03456               1.00    11600.00
03457               1.00    11400.00
03458               0.60    11600.00
03459               0.40    11400.00
03460               1.40    11600.00
03461               1.20    11400.00
03462               0.60    11200.00
03463               1.00    11400.00
03464               0.80    11200.00
03465               0.40    11200.00
03466               1.20    11200.00
03467               0.60    11200.00
03468               0.60    11400.00
03469               1.80    11200.00
03470               1.00    11200.00
03471               0.40    11200.00
03472               0.20    11000.00
03473               0.60    11000.00
03474               0.80    10800.00
03475               1.40    11000.00
03476               1.00    11000.00
03477               0.80    10800.00
03478               0.40    10800.00
03479               1.40    10800.00
03480               0.40    10800.00
03481              -0.20    10400.00
03482               0.80    10400.00
03483               1.80    10600.00
03484              -0.20    10400.00
03485               0.40    10200.00
03486               1.20    10200.00
03487               0.20    10000.00
03488               0.40    10200.00
03489               1.40    10000.00
03490               0.60    10000.00
03491               0.20     9600.00
03492               0.60     9600.00
03493               1.00     9600.00
03494               0.00     9600.00
03495              -0.20     9600.00
03496               1.20     9400.00
03497               0.60     9400.00
03498              -0.40     9200.00
03499               0.60     9200.00
03500               1.20     9000.00
03501               0.40     8800.00
03502              -0.20     8800.00
03503               1.00     8800.00
03504               0.20     8800.00
03505              -0.60     8600.00
03506               1.00     8400.00
03507               0.40     8400.00
03508               0.00     8200.00
03509               0.20     8200.00
03510               0.60     8000.00
03511               1.00     7800.00
03512              -0.60     7800.00
03513               0.60     7600.00
03514               0.80     7400.00
03515              -0.20     7200.00
03516               0.20     7200.00
03517               0.60     7000.00
03518               0.20     6800.00
03519              -0.20     7000.00
03520               1.40     6600.00
03521               0.40     6400.00
03522              -0.60     6400.00
03523               0.60     6200.00
03524               0.40     6200.00
03525              -0.60     6000.00
03526               0.60     5800.00
03527               0.40     5800.00
03528              -0.60     5600.00
03529               0.80     5400.00
03530               0.40     5200.00
03531              -0.40     5000.00
03532               0.20     4800.00
03533               0.60     4800.00
03534               0.20     4600.00
03535              -0.20     4400.00
03536               0.40     4400.00
03537               0.40     4000.00
03538              -0.20     4000.00
03539               0.00     3800.00
03540               0.20     3800.00
03541              -0.40     3400.00
03542              -0.40     3200.00
03543               0.40     3200.00
03544              -0.20     3000.00
03545              -0.40     3000.00
03546              -0.20     2800.00
03547               0.00     2400.00
03548              -0.20     2400.00
03549               0.20     2200.00
03550              -0.40     2000.00
03551              -0.40     2000.00
03552              -0.40     1800.00
03553              -0.60     1600.00
03554              -0.40     1400.00
03555              -0.20     1200.00
03556              -0.40     1000.00
03557              -0.40      800.00
03558               0.20      600.00
03559              -0.60      600.00
03560              -0.60      400.00
03561               0.00      200.00
03562              -0.20        0.00
03563              -1.20     -200.00
03564              -0.20     -200.00
03565               1.20     -400.00
03566               0.40     -800.00
03567              -1.40     -800.00
03568              -0.60     -800.00
03569               0.60    -1000.00
03570              -0.80    -1200.00
03571              -0.60    -1200.00
03572               8.40    -1600.00
03573              25.00    -1800.00
03574             -25.00    -2000.00
03575             -25.00    -2400.00
03576             -10.80    -2000.00
03577              25.00    -2400.00
03578              25.00    -2800.00
03579             -25.00    -2600.00
03580              25.00    -2600.00
03581              25.00    -3400.00
03582             -25.00    -3200.00
03583             -25.00    -3000.00
03584              25.00    -4000.00
03585              25.00    -3600.00
03586             -25.00    -3600.00
03587              25.00    -4000.00
03588              25.00    -4000.00
03589             -25.00    -4200.00
03590              25.00    -4400.00
03591              -1.20    -4600.00
03592              17.00    -4800.00
03593             -25.00    -4800.00
03594             -22.80    -5000.00
03595              25.00    -5400.00
03596             -25.00    -5200.00
03597             -25.00    -5600.00
03598              25.00    -5800.00
03599             -11.80    -5800.00
03600             -25.00    -6200.00
03601              25.00    -6000.00
03602              25.00    -6400.00
03603             -25.00    -6400.00
03604             -25.00    -6600.00
03605              25.00    -6800.00
03606             -20.00    -6600.00
03607             -25.00    -7200.00
03608              25.00    -7200.00
03609               2.20    -7200.00
03610             -25.00    -7400.00
03611               9.80    -7400.00
03612              21.00    -7600.00
03613             -23.60    -8000.00
03614             -10.80    -7800.00
03615              25.00    -8000.00
03616              -9.40    -8000.00
03617             -11.20    -8200.00
03618              10.80    -8400.00
03619               2.00    -8400.00
03620             -12.40    -8800.00
03621              -5.00    -8800.00
03622              11.00    -8800.00
03623              -7.60    -8800.00
03624              -6.20    -9000.00
03625              12.60    -9000.00
03626              -2.00    -9000.00
03627             -11.00    -9400.00
03628               5.80    -9600.00
03629               2.60    -9600.00
03630             -14.40    -9600.00
03631               1.40    -9600.00
03632               7.80    -9800.00
03633              -7.00    -9800.00
03634              -3.00   -10000.00
03635               7.00   -10000.00
03636              -3.00   -10000.00
03637              -9.00   -10200.00
03638               4.20   -10400.00
03639               0.60   -10400.00
03640              -6.60   -10400.00
03641               0.20   -10400.00
03642               3.00   -10600.00
03643              -2.60   -10600.00
03644              -4.60   -10600.00
03645               2.00   -10800.00
03646               0.40   -10800.00
03647              -4.60   -10800.00
03648              -0.60   -10800.00
03649               1.00   -11000.00
03650              -3.00   -11000.00
03651              -2.00   -11000.00
03652               0.60   -11000.00
03653              -1.40   -11000.00
03654              -2.80   -11200.00
03655               0.20   -11000.00
03656               0.40   -11000.00
03657              -3.00   -11200.00
03658              -1.40   -11000.00
03659              -0.40   -11200.00
03660              -1.20   -11400.00
03661              -1.40   -11400.00
03662              -2.20   -11400.00
03663              -0.20   -11400.00
03664              -0.60   -11400.00
03665              -2.20   -11600.00
03666              -1.40   -11400.00
03667              -0.60   -11400.00
03668              -1.80   -11600.00
03669              -2.00   -11400.00
03670               0.00   -11400.00
03671              -0.80   -11400.00
03672              -2.80   -11400.00
03673              -0.20   -11400.00
03674              -0.40   -11400.00
03675              -2.20   -11600.00
03676              -2.20   -11000.00
03677              -0.40   -11600.00
03678              -1.20   -11400.00
03679              -2.20   -11400.00
03680              -1.40   -11000.00
03681              -0.60   -11200.00
03682              -1.80   -11000.00
03683              -1.80   -11200.00
03684              -0.60   -11000.00
03685              -1.40   -11000.00
03686              -2.20   -11200.00
03687              -0.60   -11000.00
03688              -1.20   -11000.00
03689              -1.80   -11000.00
03690              -1.40   -11000.00
03691              -1.00   -10800.00
03692              -0.40   -10800.00
03693              -2.00   -10800.00
03694              -2.20   -10600.00
03695              -0.60   -10600.00
03696              -1.20   -10600.00
03697              -2.60   -10400.00
03698              -0.40   -10400.00
03699              -0.60   -10400.00
03700              -2.80   -10400.00
03701              -0.60   -10200.00
03702               0.20   -10000.00
03703              -2.40   -10000.00
03704              -1.80   -10000.00
03705               0.20   -10000.00
03706              -0.40    -9800.00
03707              -2.80    -9800.00
03708              -1.00    -9800.00
03709              -0.40    -9600.00
03710              -2.60    -9600.00
03711              -1.20    -9200.00
03712              -0.40    -9400.00
03713              -1.00    -9200.00
03714              -1.00    -9200.00
03715              -1.20    -9000.00
03716               0.40    -9000.00
03717              -3.20    -8800.00
03718              -1.20    -8600.00
03719              -0.20    -8400.00
03720              -0.60    -8600.00
03721              -1.80    -8200.00
03722              -1.20    -8200.00
03723               0.80    -8000.00
03724              -1.20    -8000.00
03725              -2.20    -8000.00
03726              -0.20    -7600.00
03727              -1.00    -7600.00
03728              -2.00    -7400.00
03729              -0.60    -7200.00
03730               0.20    -7200.00
03731              -1.20    -7200.00
03732              -1.00    -6800.00
03733              -0.20    -6800.00
03734              -0.60    -6600.00
03735              -2.20    -6400.00
03736              -1.20    -6400.00
03737              -0.20    -6400.00
03738              -0.60    -6000.00
03739              -1.00    -6000.00
03740               0.20    -6000.00
03741              -2.20    -5600.00
03742              -1.40    -5600.00
03743               0.40    -5400.00
03744              -2.20    -5200.00
03745              -0.60    -5000.00
03746               0.40    -4600.00
03747              -1.40    -4600.00
03748              -0.40    -4600.00
03749              -0.60    -4400.00
03750              -1.80    -4200.00
03751              -0.60    -4400.00
03752               0.00    -4000.00
03753              -1.20    -4000.00
03754              -1.20    -3600.00
03755              -0.60    -3600.00
03756              -0.60    -3400.00
03757              -1.00    -3400.00
03758              -0.60    -3000.00
03759              -0.40    -2800.00
03760              -0.60    -2800.00
03761              -0.60    -2600.00
03762              -1.00    -2400.00
03763              -1.00    -2400.00
03764               0.20    -2000.00
03765              -0.60    -1800.00
03766              -0.60    -1800.00
03767              -0.20    -1600.00
03768              -0.80    -1600.00
03769              -1.20    -1200.00
03770              -0.40    -1000.00
03771               0.40     -800.00
03772              -0.60     -800.00
03773              -0.40     -600.00
03774               0.20     -400.00
03775              -0.40     -200.00
03776              -0.80     -200.00
03777              -0.40        0.00
03778               0.40      200.00
03779               1.00      400.00
03780               0.60      600.00
03781              -0.20      600.00
03782               0.20      800.00
03783               0.40     1000.00
03784              -0.20     1200.00
03785               0.20     1400.00
03786               6.80     1600.00
03787              18.20     1800.00
03788             -11.40     2000.00
03789             -25.00     2200.00
03790             -12.40     2000.00
03791              25.00     2400.00
03792              25.00     2600.00
03793             -25.00     2400.00
03794             -25.00     2800.00
03795              25.00     3000.00
03796              24.80     3000.00
03797             -25.00     3400.00
03798              25.00     3600.00
03799              25.00     3600.00
03800             -25.00     3800.00
03801              25.00     4000.00
03802              25.00     4000.00
03803             -25.00     4200.00
03804              -1.00     4400.00
03805              25.00     4400.00
03806               3.00     4600.00
03807             -24.60     5000.00
03808             -16.40     5200.00
03809              25.00     5200.00
03810               2.60     5400.00
03811             -25.00     5600.00
03812              25.00     5600.00
03813              25.00     6000.00
03814             -25.00     6000.00
03815             -17.20     6000.00
03816              25.00     6200.00
03817              -7.00     6400.00
03818             -25.00     6400.00
03819              25.00     6800.00
03820              17.00     6800.00
03821             -25.00     7000.00
03822              17.00     7000.00
03823              25.00     7200.00
03824             -25.00     7400.00
03825              -5.40     7400.00
03826              25.00     7400.00
03827             -11.60     7800.00
03828             -17.20     7800.00
03829              17.40     8000.00
03830               4.60     8200.00
03831             -12.80     8400.00
03832               3.20     8400.00
03833               9.80     8400.00
03834              -4.60     8600.00
03835              -5.80     8600.00
03836               8.00     8600.00
03837               2.60     8800.00
03838              -8.60     9200.00
03839               4.80     9200.00
03840               7.80     9200.00
03841              -7.60     9400.00
03842              -0.60     9400.00
03843               9.80     9600.00
03844              -3.80     9600.00
03845              -5.00     9800.00
03846               8.60     9600.00
03847               1.20    10000.00
03848              -6.00    10000.00
03849               4.00    10000.00
03850               3.80    10200.00
03851              -4.20    10200.00
03852               1.00    10400.00
03853               4.60    10400.00
03854              -1.40    10200.00
03855              -1.20    10600.00
03856               3.40    10400.00
03857               1.40    10600.00
03858              -2.20    10800.00
03859               1.00    10800.00
03860               3.20    10800.00
03861              -0.20    10800.00
03862              -0.40    11000.00
03863               2.20    10800.00
03864               1.20    11000.00
03865              -0.80    11000.00
03866               1.80    11000.00
03867               1.80    11000.00
03868              -0.60    11000.00
03869               1.00    11200.00
03870               2.20    11200.00
03871               0.20    11200.00
03872              -0.40    11000.00
03873               1.20    11400.00
03874               1.00    11200.00
03875               0.40    11400.00
03876               0.40    11600.00
03877               0.60    11400.00
03878               1.20    11200.00
03879               0.60    11400.00
03880               0.20    11600.00
03881               0.40    11400.00
03882               1.00    11600.00
03883               0.60    11600.00
03884               0.80    11400.00
03885               1.00    11200.00
03886               0.20    11200.00
03887               0.60    11200.00
03888               1.20    11400.00
03889               0.60    11400.00
03890               0.40    11600.00
03891               0.80    11200.00
03892               0.60    11200.00
03893               0.40    11200.00
03894               0.40    11200.00
03895               1.00    11200.00
03896               1.00    11200.00
03897              -0.20    11000.00
03898               0.60    11000.00
03899               1.80    11200.00
03900               0.20    11000.00
03901               1.00    11000.00
03902               2.00    11000.00
03903              -0.60    10800.00
03904               0.20    10800.00
03905               1.80    10800.00
03906               0.60    10800.00
03907               0.20    10800.00
03908               1.20    10800.00
03909               0.40    10600.00
03910               0.80    10600.00
03911               0.80    10400.00
03912               0.20    10400.00
03913               1.00    10200.00
03914               1.20    10200.00
03915              -0.20    10200.00
03916               1.00    10000.00
03917               1.20    10000.00
03918               0.20    10000.00
03919               0.40     9600.00
03920               1.40     9800.00
03921               0.60     9600.00
03922               0.20     9600.00
03923               0.20     9400.00
03924               1.00     9200.00
03925               1.00     9200.00
03926              -0.60     9200.00
03927               0.40     9200.00
03928               1.20     9000.00
03929               0.40     8800.00
03930               0.60     8800.00
03931               0.40     8600.00
03932               0.60     8600.00
03933               1.20     8600.00
03934               0.40     8400.00
03935               0.20     8400.00
03936               0.60     8000.00
03937               0.00     8200.00
03938               0.60     7600.00
03939               0.40     7800.00
03940              -0.40     7600.00
03941               0.40     7400.00
03942               0.80     7200.00
03943              -0.20     7200.00
03944              -0.40     7000.00
03945               0.40     6800.00
03946               0.40     6800.00
03947              -0.20     6800.00
03948               1.20     6600.00
03949               1.00     6400.00
03950              -0.60     6200.00
03951              -0.40     6000.00
03952               1.00     6000.00
03953               0.60     5600.00
03954              -1.00     5600.00
03955              -0.20     5600.00
03956               1.00     5400.00
03957              -0.20     5400.00
03958              -0.80     5200.00
03959               0.60     5000.00
03960               0.80     4800.00
03961              -0.60     4600.00
03962               0.20     4400.00
03963               0.60     4400.00
03964              -0.40     4200.00
03965              -0.60     4000.00
03966               0.60     3800.00
03967               0.40     3800.00
03968              -0.40     3600.00
03969              -0.20     3400.00
03970               0.40     3200.00
03971              -0.20     3200.00
03972              -0.20     3000.00
03973               0.20     2800.00
03974               0.00     2800.00
03975              -0.40     2400.00
03976               0.20     2400.00
03977              -0.40     2000.00
03978              -0.20     2000.00
03979               0.20     1800.00
03980              -0.20     1600.00
03981              -0.20     1400.00
03982               0.20     1200.00
03983              -0.80     1200.00
03984              -0.40      800.00
03985               0.80      800.00
03986              -0.80      600.00
03987              -0.60      400.00
03988               0.40      400.00
03989              -0.60        0.00
03990              -0.60        0.00
03991               0.20     -200.00
03992               0.40     -400.00
03993               0.60     -400.00
03994               0.40     -600.00
03995              -0.60     -800.00
03996              -0.20     -800.00
03997               0.20    -1200.00
03998              -0.40    -1200.00
03999               3.00    -1400.00
04000              24.40    -1800.00
04001              -7.00    -2000.00
04002             -25.00    -2400.00
04003             -21.00    -2200.00
04004              25.00    -2200.00
04005              25.00    -2600.00
04006             -25.00    -2800.00
04007             -25.00    -2400.00
04008              25.00    -3200.00
04009              25.00    -3400.00
04010             -25.00    -3000.00
04011              25.00    -3600.00
04012              25.00    -3600.00
04013             -25.00    -3600.00
04014              14.40    -3800.00
04015              25.00    -4200.00
04016             -25.00    -4200.00
04017              25.00    -4600.00
04018              14.80    -4400.00
04019               4.40    -4800.00
04020              -2.60    -4600.00
04021             -25.00    -5000.00
04022              25.00    -5200.00
04023              25.00    -5200.00
04024             -25.00    -5400.00
04025              25.00    -6000.00
04026              25.00    -5600.00
04027             -25.00    -6000.00
04028              -1.40    -6200.00
04029              25.00    -6200.00
04030              -9.20    -6400.00
04031             -25.00    -6400.00
04032              25.00    -6800.00
04033              25.00    -6800.00
04034             -25.00    -6800.00
04035              23.00    -7200.00
04036              25.00    -7200.00
04037             -25.00    -7200.00
04038              -6.00    -7600.00
04039              25.00    -7600.00
04040              -6.20    -7600.00
04041             -24.20    -7600.00
04042              19.40    -8000.00
04043               4.40    -8200.00
04044             -18.80    -8200.00
04045               5.80    -8200.00
04046               7.60    -8400.00
04047              -6.20    -8600.00
04048              -9.80    -8400.00
04049               9.20    -8800.00
04050               1.40    -9000.00
04051             -13.60    -9000.00
04052               7.00    -9000.00
04053               5.40    -9200.00
04054             -11.60    -9200.00
04055              -0.40    -9400.00
04056               9.80    -9600.00
04057              -9.00    -9600.00
04058              -6.20    -9800.00
04059               9.20    -9800.00
04060              -2.20   -10000.00
04061              -9.00    -9800.00
04062               4.00   -10000.00
04063               3.60   -10200.00
04064              -9.20   -10200.00
04065              -0.40   -10400.00
04066               5.20   -10400.00
04067              -5.40   -10400.00
04068              -4.20   -10400.00
04069               3.00   -10600.00
04070               0.20   -10600.00
04071              -6.60   -10600.00
04072              -0.60   -10800.00
04073               3.40   -10800.00
04074              -4.20   -10800.00
04075              -3.60   -10800.00
04076               2.00   -10800.00
04077              -1.40   -11000.00
04078              -4.20   -11000.00
04079              -0.20   -11000.00
04080               0.20   -11200.00
04081              -3.20   -11200.00
04082              -2.40   -11200.00
04083               1.20   -11000.00
04084              -2.20   -11400.00
04085              -3.20   -11400.00
04086              -0.40   -11400.00
04087              -0.60   -11200.00
04088              -2.20   -11400.00
04089              -2.20   -11400.00
04090              -0.40   -11400.00
04091              -0.60   -11400.00
04092              -2.00   -11400.00
04093              -1.40   -11400.00
04094              -1.00   -11600.00
04095              -1.20   -11400.00
04096              -2.00   -11600.00
04097              -1.00   -11600.00
04098              -0.60   -11600.00
04099              -2.20   -11400.00
04100              -1.40   -11400.00
04101              -0.60   -11600.00
04102              -1.60   -11400.00
04103              -2.00   -11400.00
04104              -0.60   -11400.00
04105              -0.80   -11400.00
04106              -1.40   -11400.00
04107              -1.40   -11200.00
04108              -1.40   -11400.00
04109              -1.20   -11000.00
04110              -1.00   -11000.00
04111              -1.40   -11000.00
04112              -1.20   -11000.00
04113              -1.20   -11000.00
04114              -1.40   -11000.00
04115              -0.80   -11000.00
04116              -1.00   -10800.00
04117              -2.00   -11000.00
04118              -1.20   -10800.00
04119              -0.20   -10800.00
04120              -1.20   -10800.00
04121              -2.20   -10800.00
04122              -0.80   -10600.00
04123              -0.60   -10600.00
04124              -2.00   -10400.00
04125              -1.20   -10400.00
04126              -0.40   -10400.00
04127              -1.80   -10400.00
04128              -1.40   -10400.00
04129               0.00   -10000.00
04130              -1.20   -10000.00
04131              -2.00    -9800.00
04132              -0.60    -9800.00
04133              -0.60   -10000.00
04134              -2.00    -9800.00
04135              -1.20    -9600.00
04136              -1.20    -9600.00
04137              -1.00    -9600.00
04138              -1.20    -9400.00
04139              -1.00    -9200.00
04140              -1.00    -9200.00
04141              -1.00    -9000.00
04142              -2.00    -9000.00
04143              -0.60    -9000.00
04144              -1.80    -8800.00
04145              -1.40    -8800.00
04146              -1.00    -8400.00
04147              -0.40    -8400.00
04148              -1.20    -8400.00
04149              -1.60    -8200.00
04150              -1.00    -8200.00
04151              -1.00    -8000.00
04152              -1.40    -8000.00
04153              -1.20    -7800.00
04154              -1.20    -7800.00
04155              -1.00    -7400.00
04156              -0.60    -7400.00
04157              -1.00    -7200.00
04158              -1.20    -7200.00
04159              -0.60    -6800.00
04160              -1.00    -6800.00
04161              -1.20    -6800.00
04162              -1.00    -6600.00
04163              -1.00    -6400.00
04164              -0.80    -6400.00
04165              -0.60    -6000.00
04166              -0.80    -5800.00
04167              -1.00    -6000.00
04168              -0.80    -5800.00
04169              -0.60    -5600.00
04170              -0.60    -5400.00
04171              -1.00    -5200.00
04172              -0.60    -5200.00
04173              -0.40    -5000.00
04174              -0.60    -4600.00
04175              -0.60    -4600.00
04176              -0.40    -4400.00
04177              -0.80    -4200.00
04178              -0.60    -4400.00
04179              -0.40    -4000.00
04180              -0.60    -3800.00
04181              -1.00    -3600.00
04182              -1.00    -3600.00
04183               0.60    -3400.00
04184              -1.00    -3200.00
04185              -1.20    -3200.00
04186               0.40    -3000.00
04187              -0.40    -2800.00
04188              -1.80    -2600.00
04189               0.40    -2400.00
04190              -0.20    -2400.00
04191              -1.80    -2200.00
04192               0.20    -2000.00
04193               0.40    -1800.00
04194              -1.20    -1600.00
04195              -0.60    -1600.00
04196               0.40    -1600.00
04197              -1.00    -1000.00
04198              -0.60    -1000.00
04199              -0.20     -800.00
04200              -0.80     -600.00
04201              -0.60     -400.00
04202              -0.20     -200.00
04203              -0.20     -200.00
04204              -1.20        0.00
04205               0.20        0.00
04206               0.80      400.00
04207               1.20      400.00
04208              -1.40      600.00
04209              -0.20      800.00
04210               0.60      800.00
04211               0.20     1200.00
04212              -0.40     1200.00
04213               3.40     1400.00
04214              15.40     1800.00
04215               3.80     2000.00
04216             -25.00     2200.00
04217             -21.00     2000.00
04218               6.20     2200.00
04219              25.00     2600.00
04220              -6.20     2600.00
04221             -25.00     2800.00
04222              25.00     3000.00
04223              25.00     3200.00
04224             -25.00     3000.00
04225              -1.00     3600.00
04226              25.00     3600.00
04227             -25.00     3600.00
04228             -25.00     4000.00
04229              25.00     4000.00
04230             -25.00     4200.00
04231             -25.00     4600.00
04232              25.00     4400.00
04233              12.60     4600.00
04234             -12.20     4800.00
04235             -25.00     5000.00
04236              25.00     5200.00
04237              25.00     5400.00
04238             -25.00     5600.00
04239              -8.80     5600.00
04240              25.00     5600.00
04241             -17.80     6000.00
04242             -25.00     6000.00
04243              25.00     6200.00
04244              25.00     6400.00
04245             -25.00     6400.00
04246               9.80     6600.00
04247              25.00     6800.00
04248             -25.00     7000.00
04249             -12.60     7000.00
04250              25.00     7200.00
04251             -12.40     7600.00
04252             -25.00     7400.00
04253              25.00     7400.00
04254               8.00     7800.00
04255             -24.60     7800.00
04256               7.60     8000.00
04257              14.80     8200.00
04258             -11.40     8200.00
04259              -3.80     8400.00
04260              10.40     8400.00
04261               1.00     8600.00
04262              -8.40     8600.00
04263               3.20     8800.00
04264               7.80     8800.00
04265              -6.80     9000.00
04266              -2.20     9200.00
04267              10.00     9200.00
04268              -2.60     9200.00
04269              -7.00     9400.00
04270               8.60     9400.00
04271               2.20     9400.00
04272              -8.60     9600.00
04273               5.00     9800.00
04274               6.00    10000.00
04275              -6.00    10000.00
04276               0.20    10000.00
04277               6.00    10000.00
04278              -2.60    10000.00
04279              -2.60    10200.00
04280               4.60    10400.00
04281               1.00    10200.00
04282              -2.80    10400.00
04283               1.80    10400.00
04284               3.60    10600.00
04285              -1.20    10400.00
04286              -1.40    10800.00
04287               3.40    10800.00
04288               1.80    10800.00
04289              -2.20    10800.00
04290               1.40    10800.00
04291               2.60    10800.00
04292              -1.00    11000.00
04293               0.40    11000.00
04294               2.80    11000.00
04295              -0.20    11200.00
04296              -0.60    11000.00
04297               2.00    11200.00
04298               1.20    11200.00
04299              -0.60    11200.00
04300               1.00    11200.00
04301               2.20    11200.00
04302               0.40    11200.00
04303               0.40    11200.00
04304               1.00    11600.00
04305               1.00    11600.00
04306               1.00    11400.00
04307               0.60    11400.00
04308               1.00    11400.00
04309               1.00    11400.00
04310               1.00    11400.00
04311               0.60    11600.00
04312               1.20    11600.00
04313               0.20    11200.00
04314               0.60    11200.00
04315               1.20    11400.00
04316               0.60    11400.00
04317               0.60    11200.00
04318               1.00    11200.00
04319               1.20    11400.00
04320               1.00    11200.00
04321               0.60    11200.00
04322               0.60    11200.00
04323               0.60    11200.00
04324               1.20    11200.00
04325               1.00    11000.00
04326               0.60    11000.00
04327               0.20    11000.00
04328               0.40    11000.00
04329               0.40    10800.00
04330               1.00    11000.00
04331               0.20    10800.00
04332               1.00    10800.00
04333               1.20    10800.00
04334               1.00    10800.00
04335               0.20    10600.00
04336               0.40    10400.00
04337               0.60    10400.00
04338               0.40    10400.00
04339               0.40    10400.00
04340               0.60    10400.00
04341               0.60    10400.00
04342               0.40    10200.00
04343               0.60    10000.00
04344               0.60    10000.00
04345               0.20    10000.00
04346              -0.20     9800.00
04347               1.40    10000.00
04348               0.60     9600.00
04349              -0.20     9600.00
04350               0.80     9400.00
04351               0.60     9400.00
04352               0.40     9200.00
04353               0.40     9400.00
04354               1.00     9200.00
04355              -0.20     9000.00
04356               1.00     9000.00
04357               1.20     8800.00
04358              -0.40     8800.00
04359               0.40     8600.00
04360               1.00     8400.00
04361               0.20     8400.00
04362               0.60     8400.00
04363               0.00     8200.00
04364               1.00     8000.00
04365               0.40     8000.00
04366              -0.60     7800.00
04367               1.20     7800.00
04368               1.00     7600.00
04369              -1.20     7600.00
04370               1.00     7200.00
04371               1.20     7200.00
04372              -0.60     7000.00
04373               0.40     6800.00
04374               1.00     6800.00
04375               0.20     6600.00
04376               0.20     6400.00
04377               0.40     6200.00
04378               0.40     6200.00
04379               0.20     6000.00
04380               0.20     6000.00
04381               0.60     6000.00
04382               0.40     5600.00
04383               0.20     5600.00
04384              -0.20     5400.00
04385               0.00     5200.00
04386               0.00     5000.00
04387              -0.20     4800.00
04388               1.00     4600.00
04389               0.40     4600.00
04390              -0.60     4400.00
04391               0.40     4200.00
04392               0.20     4000.00
04393              -0.40     3800.00
04394               0.20     3800.00
04395               0.40     3600.00
04396              -0.20     3400.00
04397              -0.60     3400.00
04398               0.60     3200.00
04399              -0.40     3000.00
04400              -0.80     2800.00
04401               0.40     2600.00
04402               0.20     2400.00
04403              -0.60     2400.00
04404              -0.40     2200.00
04405              -0.40     2000.00
04406               0.20     2000.00
04407              -0.20     1800.00
04408              -0.60     1600.00
04409              -0.20     1400.00
04410              -0.20     1200.00
04411              -0.60     1000.00
04412               0.20      800.00
04413              -0.60      600.00
04414              -0.60      400.00
04415              -0.60      400.00
04416              -0.20      200.00
04417              -0.60        0.00
04418              -0.60     -200.00
04419               0.20     -400.00
04420               1.00     -400.00
04421               0.60     -600.00
04422              -1.00     -800.00
04423              -0.80     -800.00
04424               0.20    -1000.00
04425               0.40    -1200.00
04426               0.20    -1400.00
04427              14.80    -1600.00
04428              15.80    -2000.00
04429             -25.00    -2000.00
04430             -25.00    -2400.00
04431              10.60    -2000.00
04432              25.00    -2400.00
04433             -12.80    -2800.00
04434             -25.00    -2400.00
04435              25.00    -2800.00
04436              25.00    -3200.00
04437             -25.00    -3200.00
04438             -25.00    -3200.00
04439              25.00    -3800.00
04440             -25.00    -3400.00
04441             -25.00    -3600.00
04442              25.00    -4200.00
04443             -25.00    -4000.00
04444             -25.00    -4400.00
04445              25.00    -4800.00
04446              -3.80    -4400.00
04447              18.80    -4800.00
04448             -25.00    -4600.00
04449              22.80    -5200.00
04450              25.00    -5400.00
04451             -25.00    -5400.00
04452               0.20    -5800.00
04453              25.00    -5600.00
04454             -25.00    -5800.00
04455             -25.00    -6200.00
04456              25.00    -6000.00
04457              23.00    -6400.00
04458             -25.00    -6600.00
04459               5.40    -6600.00
04460              25.00    -6800.00
04461             -25.00    -6800.00
04462             -14.20    -7200.00
04463              25.00    -7200.00
04464             -18.80    -7200.00
04465             -22.20    -7600.00
04466              21.00    -7600.00
04467              10.60    -7600.00
04468             -25.00    -7800.00
04469               4.20    -8000.00
04470              18.60    -8200.00
04471             -18.80    -8200.00
04472              -2.60    -8400.00
04473              10.00    -8400.00
04474              -1.60    -8600.00
04475             -11.40    -8600.00
04476               2.20    -8800.00
04477               8.60    -8800.00
04478             -13.00    -9000.00
04479              -0.60    -9200.00
04480              10.00    -9000.00
04481              -7.80    -9200.00
04482              -7.00    -9400.00
04483               9.20    -9600.00
04484              -2.20    -9600.00
04485             -11.20    -9600.00
04486               6.20    -9800.00
04487               4.20    -9800.00
04488              -9.20    -9800.00
04489              -1.00   -10000.00
04490               6.80   -10000.00
04491              -6.00   -10000.00
04492              -6.00   -10400.00
04493               6.20   -10400.00
04494              -1.80   -10400.00
04495              -6.00   -10600.00
04496               1.20   -10600.00
04497               2.60   -10600.00
04498              -4.60   -10600.00
04499              -3.80   -10800.00
04500               3.60   -10800.00
04501              -0.40   -10800.00
04502              -4.60   -10800.00
04503               1.00   -11200.00
04504               0.60   -11000.00
04505              -3.80   -11000.00
04506              -1.80   -11000.00
04507               0.80   -11200.00
04508              -1.60   -11000.00
04509              -3.40   -11000.00
04510               0.80   -11200.00
04511              -0.40   -11200.00
04512              -3.20   -11000.00
04513              -1.20   -11200.00
04514               0.20   -11400.00
04515              -0.60   -11400.00
04516              -2.20   -11400.00
04517              -1.40   -11400.00
04518               0.20   -11400.00
04519              -2.00   -11400.00
04520              -1.20   -11600.00
04521              -1.20   -11400.00
04522              -1.20   -11600.00
04523              -1.20   -11600.00
04524              -2.00   -11400.00
04525              -0.20   -11400.00
04526              -1.60   -11600.00
04527              -2.20   -11400.00
04528               0.00   -11600.00
04529              -1.40   -11400.00
04530              -2.60   -11400.00
04531              -1.00   -11400.00
04532              -0.60   -11400.00
04533              -1.40   -11400.00
04534              -1.40   -11200.00
04535              -1.20   -11400.00
04536              -1.60   -11400.00
04537              -1.20   -11000.00
04538              -1.20   -11200.00
04539              -1.80   -11200.00
04540              -1.20   -11000.00
04541              -1.20   -11200.00
04542              -1.80   -11000.00
04543              -1.00   -11000.00
04544              -1.40   -11000.00
04545              -2.00   -10800.00
04546              -1.00   -10800.00
04547              -0.20   -10800.00
04548              -2.20   -10800.00
04549              -2.20   -10800.00
04550              -0.20   -10400.00
04551              -1.80   -10600.00
04552              -2.20   -10600.00
04553               0.20   -10400.00
04554              -1.40   -10400.00
04555              -2.20   -10000.00
04556               0.20   -10200.00
04557              -1.20   -10000.00
04558              -2.80   -10000.00
04559              -0.40   -10000.00
04560               0.20    -9800.00
04561              -2.40    -9800.00
04562              -1.20    -9600.00
04563              -0.40    -9600.00
04564              -1.20    -9600.00
04565              -1.20    -9400.00
04566              -0.80    -9200.00
04567              -1.20    -9200.00
04568              -1.00    -9200.00
04569              -1.00    -9000.00
04570              -1.20    -8800.00
04571              -0.80    -8800.00
04572              -1.80    -8800.00
04573              -1.20    -8600.00
04574              -0.20    -8400.00
04575              -0.60    -8400.00
04576              -1.80    -8400.00
04577              -0.20    -8000.00
04578              -0.20    -8200.00
04579              -1.80    -7800.00
04580              -1.20    -7800.00
04581              -0.80    -7600.00
04582              -1.00    -7600.00
04583              -0.60    -7400.00
04584              -0.60    -7200.00
04585              -1.00    -7200.00
04586              -1.00    -7200.00
04587              -1.20    -6800.00
04588              -1.20    -6600.00
04589              -0.60    -6600.00
04590              -1.20    -6600.00
04591              -1.00    -6400.00
04592              -0.20    -6200.00
04593              -1.20    -6000.00
04594              -1.20    -5800.00
04595              -0.60    -5800.00
04596              -1.00    -5600.00
04597              -1.40    -5600.00
04598              -0.80    -5400.00
04599              -0.40    -5200.00
04600              -1.20    -5000.00
04601              -1.00    -5000.00
04602              -0.40    -4600.00
04603              -1.20    -4600.00
04604              -1.20    -4400.00
04605              -0.60    -4400.00
04606              -0.60    -4000.00
04607              -1.20    -4000.00
04608              -0.60    -4000.00
04609              -0.80    -3600.00
04610              -1.00    -3400.00
04611              -0.40    -3400.00
04612              -0.60    -3200.00
04613              -1.00    -3000.00
04614              -0.40    -3000.00
04615              -0.40    -2600.00
04616              -1.00    -2600.00
04617              -0.60    -2400.00
04618              -0.60    -2200.00
04619              -0.60    -2000.00
04620              -0.20    -1800.00
04621              -0.40    -1800.00
04622              -0.60    -1600.00
04623              -0.40    -1600.00
04624              -0.20    -1200.00
04625              -0.40    -1000.00
04626              -0.80     -800.00
04627              -0.40     -800.00
04628               0.20     -600.00
04629              -0.60     -400.00
04630              -0.20     -400.00
04631               0.20        0.00
04632              -0.60        0.00
04633               0.20      400.00
04634               1.80      400.00
04635              -0.40      600.00
04636              -1.20      600.00
04637               1.00     1000.00
04638               1.00     1200.00
04639              -0.60     1200.00
04640               2.00     1400.00
04641              10.80     1800.00
04642              15.00     2000.00
04643             -23.00     2200.00
04644             -25.00     2000.00
04645              -5.80     2000.00
04646              25.00     2600.00
04647              25.00     2600.00
04648             -25.00     2400.00
04649               3.80     3000.00
04650              25.00     3000.00
04651             -25.00     3000.00
04652             -25.00     3600.00
04653              25.00     3200.00
04654              10.60     3400.00
04655             -25.00     4000.00
04656              25.00     3800.00
04657              22.20     4000.00
04658             -25.00     4200.00
04659              21.60     4400.00
04660              22.20     4400.00
04661              -3.40     4800.00
04662             -25.00     5200.00
04663               1.80     5000.00
04664              25.00     5400.00
04665             -25.00     5600.00
04666             -25.00     5600.00
04667              25.00     5600.00
04668              16.40     6000.00
04669             -25.00     6000.00
04670               9.00     6000.00
04671              25.00     6400.00
04672             -25.00     6600.00
04673             -24.20     6400.00
04674              25.00     6800.00
04675             -10.00     7000.00
04676             -25.00     7000.00
04677              25.00     7200.00
04678              13.00     7200.00
04679             -25.00     7200.00
04680              11.60     7600.00
04681              24.40     7600.00
04682             -22.00     7800.00
04683              -6.80     8000.00
04684              19.80     8000.00
04685              -3.80     8200.00
04686              -9.80     8200.00
04687               7.40     8400.00
04688               6.80     8400.00
04689              -7.40     8600.00
04690              -2.00     8800.00
04691               9.80     8800.00
04692              -2.20     8800.00
04693              -6.60     9000.00
04694               8.20     9200.00
04695               3.60     9200.00
04696              -8.60     9400.00
04697               3.60     9400.00
04698               7.60     9600.00
04699              -6.60     9600.00
04700              -1.00     9600.00
04701               8.60     9800.00
04702              -1.80     9800.00
04703              -4.40     9800.00
04704               5.80    10000.00
04705               1.40    10200.00
04706              -4.80    10200.00
04707               2.80    10400.00
04708               5.00    10400.00
04709              -2.20    10400.00
04710              -0.60    10400.00
04711               4.00    10400.00
04712               0.40    10600.00
04713              -3.00    10600.00
04714               2.20    10800.00
04715               3.80    10800.00
04716              -1.20    10800.00
04717              -0.20    11000.00
04718               2.60    10800.00
04719              -0.20    11000.00
04720              -1.20    11000.00
04721               1.20    11000.00
04722               1.80    11200.00
04723               1.00    11000.00
04724               0.60    11200.00
04725               0.60    11200.00
04726               0.20    11200.00
04727              -0.20    11200.00
04728               0.60    11200.00
04729               2.00    11400.00
04730               1.20    11200.00
04731               0.20    11200.00
04732               1.00    11400.00
04733               1.40    11200.00
04734              -0.20    11400.00
04735               0.20    11400.00
04736               1.40    11600.00
04737               0.40    11400.00
04738               0.40    11200.00
04739               2.00    11600.00
04740              -0.20    11400.00
04741              -0.40    11200.00
04742               1.80    11600.00
04743               1.00    11200.00
04744              -0.40    11600.00
04745               1.80    11200.00
04746               1.40    11200.00
04747               0.20    11200.00
04748               1.00    11200.00
04749               1.20    11200.00
04750              -0.40    11200.00
04751               0.60    11200.00
04752               0.80    11200.00
04753               0.60    11000.00
04754               1.20    11000.00
04755               1.00    11000.00
04756               0.60    11000.00
04757               0.60    11000.00
04758               0.60    11000.00
04759               0.20    10800.00
04760               0.60    11000.00
04761               1.40    10800.00
04762               1.00    10800.00
04763              -0.20    10600.00
04764               0.60    10400.00
04765               1.20    10400.00
04766               0.20    10400.00
04767               0.40    10200.00
04768               1.40    10200.00
04769               0.60    10200.00
04770               0.20    10000.00
04771               0.60    10000.00
04772               0.60    10000.00
04773               0.20     9600.00
04774               1.00     9800.00
04775               1.20     9600.00
04776               0.40     9600.00
04777               0.20     9600.00
04778               1.20     9400.00
04779               0.40     9400.00
04780               0.20     9400.00
04781               0.60     9200.00
04782               0.40     9200.00
04783               0.40     8800.00
04784               1.00     8800.00
04785               0.20     8600.00
04786               0.20     8600.00
04787               0.40     8600.00
04788               0.00     8400.00
04789               0.40     8400.00
04790               0.40     8200.00
04791               0.40     8200.00
04792               1.00     8000.00
04793              -0.20     7800.00
04794              -0.40     7600.00
04795               1.00     7600.00
04796              -0.20     7400.00
04797              -0.60     7200.00
04798               1.60     7200.00
04799               0.40     7200.00
04800              -0.20     6800.00
04801               0.40     6800.00
04802              -0.40     6400.00
04803               0.20     6400.00
04804               0.60     6400.00
04805              -0.60     6400.00
04806               0.60     6000.00
04807               1.40     6000.00
04808              -1.00     5800.00
04809              -0.40     5800.00
04810               1.80     5400.00
04811              -0.40     5400.00
04812              -1.20     5200.00
04813               1.00     5000.00
04814               0.60     4800.00
04815              -1.00     4800.00
04816               0.60     4600.00
04817               1.00     4400.00
04818              -1.20     4400.00
04819              -1.00     4200.00
04820               1.40     4000.00
04821               0.40     3800.00
04822              -0.60     3600.00
04823               0.60     3400.00
04824               0.80     3400.00
04825              -1.00     3200.00
04826              -0.60     3000.00
04827               0.20     2800.00
04828              -0.20     2600.00
04829              -0.20     2600.00
04830              -0.40     2200.00
04831               0.40     2200.00
04832              -0.20     2000.00
04833              -0.60     2000.00
04834               0.20     1800.00
04835               0.60     1600.00
04836              -1.00     1400.00
04837              -0.20     1200.00
04838               0.60     1200.00
04839              -0.60      800.00
04840              -1.20      800.00
04841               0.60      600.00
04842               0.40      400.00
04843              -0.60      200.00
04844               0.20        0.00
04845              -0.20     -200.00
04846              -0.20     -200.00
04847               0.40     -400.00
04848               1.00     -400.00
04849              -1.00     -800.00
04850              -1.00     -800.00
04851               0.20    -1000.00
04852              -0.40    -1200.00
04853              -0.60    -1400.00
04854               6.80    -1600.00
04855              25.00    -1800.00
04856             -22.80    -2000.00
04857             -25.00    -2400.00
04858             -14.80    -2000.00
04859              25.00    -2400.00
04860              25.00    -2800.00
04861             -25.00    -2600.00
04862              12.20    -2600.00
04863              25.00    -3200.00
04864             -25.00    -3200.00
04865             -25.00    -3000.00
04866              25.00    -3800.00
04867              25.00    -3600.00
04868             -25.00    -3600.00
04869              25.00    -4200.00
04870              25.00    -4000.00
04871             -25.00    -4400.00
04872              25.00    -4600.00
04873               0.40    -4400.00
04874              15.80    -4800.00
04875             -25.00    -4800.00
04876             -25.00    -5000.00
04877              25.00    -5400.00
04878             -25.00    -5200.00
04879             -25.00    -5600.00
04880              25.00    -5800.00
04881              -1.40    -5600.00
04882             -25.00    -6000.00
04883              23.00    -6000.00
04884              25.00    -6400.00
04885             -25.00    -6600.00
04886             -25.00    -6400.00
04887              25.00    -6800.00
04888             -11.80    -6800.00
04889             -25.00    -7000.00
04890              25.00    -7200.00
04891               7.40    -7200.00
04892             -25.00    -7400.00
04893               8.00    -7400.00
04894              23.00    -7600.00
04895             -20.20    -7800.00
04896             -13.20    -7800.00
04897              24.40    -8000.00
04898              -8.60    -8200.00
04899             -13.40    -8200.00
04900              10.20    -8400.00
04901               4.20    -8400.00
04902              -9.20    -8600.00
04903              -4.60    -8800.00
04904              11.40    -8800.00
04905              -6.60    -9000.00
04906              -9.20    -9200.00
04907              10.60    -9000.00
04908              -1.00    -9200.00
04909             -11.40    -9200.00
04910               5.20    -9400.00
04911               5.40    -9600.00
04912             -12.20    -9600.00
04913              -0.20    -9600.00
04914               8.40    -9800.00
04915              -6.80    -9800.00
04916              -5.80   -10000.00
04917               6.20   -10000.00
04918              -1.60   -10200.00
04919              -8.60   -10200.00
04920               3.60   -10400.00
04921               2.20   -10400.00
04922              -7.40   -10400.00
04923              -1.60   -10600.00
04924               3.60   -10600.00
04925              -1.80   -10800.00
04926              -6.20   -10600.00
04927               1.20   -10800.00
04928               2.00   -11000.00
04929              -5.40   -10800.00
04930              -1.40   -10800.00
04931               2.00   -11000.00
04932              -3.00   -11000.00
04933              -3.00   -11000.00
04934               1.00   -11000.00
04935              -1.00   -11200.00
04936              -3.80   -11200.00
04937              -0.60   -11000.00
04938               0.40   -11200.00
04939              -3.40   -11400.00
04940              -2.00   -11400.00
04941               0.20   -11400.00
04942              -1.20   -11400.00
04943              -2.00   -11400.00
04944              -1.80   -11000.00
04945               0.00   -11400.00
04946              -1.20   -11400.00
04947              -2.00   -11400.00
04948              -1.20   -11400.00
04949              -1.20   -11600.00
04950              -1.20   -11400.00
04951              -2.00   -11600.00
04952              -0.80   -11400.00
04953              -0.60   -11400.00
04954              -2.20   -11400.00
04955              -1.20   -11400.00
04956              -0.40   -11400.00
04957              -1.80   -11400.00
04958              -2.00   -11000.00
04959              -0.60   -11400.00
04960              -0.40   -11200.00
04961              -1.80   -11400.00
04962              -1.40   -11200.00
04963              -1.20   -11400.00
04964              -1.20   -11000.00
04965              -1.20   -11200.00
04966              -1.20   -11000.00
04967              -1.20   -11000.00
04968              -1.80   -11000.00
04969              -1.20   -11000.00
04970              -0.60   -11000.00
04971              -1.40   -10800.00
04972              -2.00   -10800.00
04973              -0.60   -10800.00
04974              -0.60   -10800.00
04975              -1.40   -10800.00
04976              -2.20   -10800.00
04977              -0.60   -10600.00
04978              -0.80   -10600.00
04979              -2.20   -10400.00
04980              -1.00   -10400.00
04981              -0.60   -10400.00
04982              -2.00   -10200.00
04983              -1.20   -10400.00
04984              -0.60   -10000.00
04985              -2.00   -10000.00
04986              -2.00   -10000.00
04987              -0.60    -9800.00
04988              -1.20   -10000.00
04989              -2.00    -9600.00
04990              -1.20    -9600.00
04991              -1.00    -9600.00
04992              -1.00    -9600.00
04993              -1.20    -9600.00
04994              -1.20    -9200.00
04995              -1.20    -9200.00
04996              -1.00    -9000.00
04997              -1.80    -9000.00
04998              -1.20    -8800.00
04999              -1.20    -8800.00
05000              -1.20    -8400.00
