Unit:(mV)
                     CH1         CH2
Frequency              ? 234.061 kHz
00001               4.20    12600.00
00002               4.40    12600.00
00003              -2.80    12800.00
00004               1.00    12800.00
00005               4.40    13000.00
00006              -0.60    13200.00
00007              -0.40    13200.00
00008               3.80    13200.00
00009               1.80    13400.00
00010              -1.20    13400.00
00011               2.00    13600.00
00012               3.00    13600.00
00013              -1.00    13600.00
00014               0.20    13600.00
00015               3.60    13800.00
00016               1.40    13800.00
00017              -0.40    14000.00
00018               1.80    14200.00
00019               2.20    14200.00
00020              -0.20    14200.00
00021               1.20    14400.00
00022               2.20    14200.00
00023               0.60    14400.00
00024               0.40    14400.00
00025               2.20    14600.00
00026               1.80    14600.00
00027               0.00    14600.00
00028               1.40    14600.00
00029               2.20    14600.00
00030               1.20    14600.00
00031               0.60    14800.00
00032               1.80    14600.00
00033               1.80    14800.00
00034               1.00    14600.00
00035               1.20    14800.00
00036               1.80    14800.00
00037               1.20    14800.00
00038               1.40    14800.00
00039               1.80    14800.00
00040               1.00    14800.00
00041               1.20    14800.00
00042               1.40    14800.00
00043               1.80    14600.00
00044               1.20    14800.00
00045               1.20    14600.00
00046               1.40    14600.00
00047               1.40    14600.00
00048               1.80    14600.00
00049               1.20    14400.00
00050               1.20    14600.00
00051               1.20    14400.00
00052               1.80    14600.00
00053               2.00    14400.00
00054               1.40    14200.00
00055               1.20    14400.00
00056               1.80    14200.00
00057               1.20    14200.00
00058               1.20    14200.00
00059               1.20    14000.00
00060               1.40    13800.00
00061               1.40    13800.00
00062               1.80    13600.00
00063               1.20    13600.00
00064               1.00    13600.00
00065               1.20    13400.00
00066               1.60    13400.00
00067               1.20    13400.00
00068               1.20    13200.00
00069               1.40    13200.00
00070               1.20    13000.00
00071               1.40    12800.00
00072               1.20    12800.00
00073               1.00    12800.00
00074               1.40    12600.00
00075               0.60    12400.00
00076               1.80    12600.00
00077               1.00    12200.00
00078               0.20    12000.00
00079               1.80    12000.00
00080               1.40    12000.00
00081               0.20    11800.00
00082               1.00    11600.00
00083               2.00    11600.00
00084               0.20    11200.00
00085               0.40    11200.00
00086               2.20    11000.00
00087              -0.20    11000.00
00088               0.20    10800.00
00089               2.00    10400.00
00090               0.40    10400.00
00091               0.20    10400.00
00092               1.40    10200.00
00093               1.00    10000.00
00094               0.40     9800.00
00095               0.40     9800.00
00096               1.00     9600.00
00097               0.40     9400.00
00098               0.40     9200.00
00099               0.60     9200.00
00100               0.60     8800.00
00101               0.40     8600.00
00102               0.40     8600.00
00103               1.00     8400.00
00104               0.40     8400.00
00105               0.20     8000.00
00106               1.00     8000.00
00107               0.60     7600.00
00108               0.40     7600.00
00109               0.40     7400.00
00110               0.40     7200.00
00111               0.20     7000.00
00112               0.40     6800.00
00113               0.40     6600.00
00114               0.40     6400.00
00115               0.20     6200.00
00116               0.80     6000.00
00117               0.60     5600.00
00118               0.20     5600.00
00119               0.40     5400.00
00120               0.20     5400.00
00121               0.60     5000.00
00122               0.40     4800.00
00123               0.00     4400.00
00124               0.40     4400.00
00125               0.40     4000.00
00126              -0.20     4000.00
00127               0.20     3800.00
00128               0.40     3600.00
00129              -0.40     3400.00
00130               0.20     3000.00
00131               0.20     3000.00
00132              -0.20     2800.00
00133               0.20     2400.00
00134              -0.40     2200.00
00135               0.00     2000.00
00136               0.60     1800.00
00137              -0.60     1600.00
00138              -0.40     1400.00
00139               1.00     1200.00
00140              -0.60      800.00
00141              -1.00      800.00
00142               0.40      600.00
00143              -0.40      400.00
00144              -1.00      200.00
00145               0.40        0.00
00146              -0.20     -400.00
00147              -0.40     -400.00
00148               1.80     -600.00
00149              -0.20    -1000.00
00150              -1.80    -1000.00
00151               0.20    -1200.00
00152               0.60    -1600.00
00153              -0.60    -1600.00
00154               5.20    -2000.00
00155              25.00    -2400.00
00156             -23.40    -2600.00
00157             -25.00    -2800.00
00158               6.80    -2800.00
00159               9.80    -2600.00
00160              25.00    -3200.00
00161             -25.00    -3400.00
00162             -25.00    -3200.00
00163              25.00    -4000.00
00164              17.20    -4200.00
00165             -25.00    -4000.00
00166              25.00    -4800.00
00167              25.00    -4600.00
00168             -25.00    -4800.00
00169              25.00    -5000.00
00170               6.80    -5000.00
00171              -2.80    -5800.00
00172             -21.00    -5600.00
00173             -17.00    -5800.00
00174              25.00    -6400.00
00175             -25.00    -6000.00
00176             -25.00    -6400.00
00177              25.00    -6800.00
00178             -25.00    -6800.00
00179             -25.00    -7200.00
00180              24.40    -7200.00
00181              25.00    -7400.00
00182             -25.00    -7600.00
00183             -16.20    -7800.00
00184              25.00    -8200.00
00185             -25.00    -8200.00
00186             -23.40    -8400.00
00187              25.00    -8600.00
00188               6.20    -8800.00
00189             -25.00    -9000.00
00190              -2.20    -9000.00
00191              25.00    -9200.00
00192             -21.60    -9400.00
00193             -11.80    -9800.00
00194              20.80    -9800.00
00195              -2.80   -10000.00
00196             -19.00   -10200.00
00197               5.40   -10000.00
00198              14.00   -10400.00
00199             -17.20   -10600.00
00200              -2.60   -10600.00
00201              12.20   -10800.00
00202              -4.60   -11000.00
00203             -13.40   -11200.00
00204               8.60   -11000.00
00205               3.20   -11400.00
00206             -14.00   -11400.00
00207               4.60   -11800.00
00208               4.60   -11800.00
00209              -9.00   -12000.00
00210              -3.80   -12000.00
00211               7.40   -12200.00
00212              -5.20   -12400.00
00213              -7.60   -12400.00
00214               5.80   -12600.00
00215              -0.40   -12800.00
00216              -7.80   -12800.00
00217               0.20   -13000.00
00218               2.60   -13000.00
00219              -6.60   -13000.00
00220              -2.80   -13200.00
00221               2.80   -13200.00
00222              -2.20   -13400.00
00223              -6.00   -13400.00
00224               1.20   -13600.00
00225               0.80   -13800.00
00226              -6.60   -13800.00
00227              -1.20   -13800.00
00228               1.80   -13800.00
00229              -3.40   -14000.00
00230              -4.20   -14000.00
00231               0.20   -14000.00
00232              -1.00   -14200.00
00233              -4.60   -14000.00
00234              -0.60   -14400.00
00235               0.20   -14400.00
00236              -3.80   -14400.00
00237              -2.60   -14400.00
00238               0.20   -14600.00
00239              -1.20   -14400.00
00240              -3.80   -14600.00
00241              -1.00   -14600.00
00242               0.20   -14600.00
00243              -3.40   -14600.00
00244              -2.80   -14600.00
00245              -0.40   -14800.00
00246              -1.40   -14800.00
00247              -3.00   -14800.00
00248              -1.80   -14800.00
00249              -0.60   -14800.00
00250              -2.80   -14800.00
00251              -2.00   -14800.00
00252              -0.60   -14600.00
00253              -2.00   -14800.00
00254              -3.00   -14600.00
00255              -1.20   -14800.00
00256              -1.20   -14800.00
00257              -2.40   -14600.00
00258              -1.80   -14600.00
00259              -1.20   -14600.00
00260              -2.00   -14600.00
00261              -1.80   -14600.00
00262              -2.20   -14600.00
00263              -2.00   -14600.00
00264              -1.80   -14400.00
00265              -1.80   -14600.00
00266              -1.40   -14400.00
00267              -2.20   -14400.00
00268              -2.00   -14400.00
00269              -1.40   -14400.00
00270              -1.80   -14200.00
00271              -2.20   -14000.00
00272              -2.00   -14000.00
00273              -1.80   -14000.00
00274              -1.60   -13800.00
00275              -2.00   -13800.00
00276              -2.20   -13800.00
00277              -1.80   -13800.00
00278              -1.80   -13600.00
00279              -1.80   -13600.00
00280              -1.80   -13600.00
00281              -1.80   -13400.00
00282              -2.20   -13200.00
00283              -1.80   -13200.00
00284              -1.40   -13200.00
00285              -2.00   -13000.00
00286              -2.00   -13000.00
00287              -1.40   -12800.00
00288              -1.80   -12800.00
00289              -2.00   -12600.00
00290              -2.00   -12400.00
00291              -1.40   -12400.00
00292              -2.20   -12200.00
00293              -1.80   -12200.00
00294              -1.00   -12000.00
00295              -2.00   -12000.00
00296              -2.20   -11600.00
00297              -0.60   -11600.00
00298              -2.20   -11400.00
00299              -2.00   -11000.00
00300              -1.60   -11000.00
00301              -1.00   -10800.00
00302              -1.40   -10800.00
00303              -1.20   -10800.00
00304              -1.40   -10400.00
00305              -1.20   -10400.00
00306              -1.40   -10200.00
00307              -1.60   -10000.00
00308              -1.40    -9800.00
00309              -1.60    -9800.00
00310              -2.00    -9600.00
00311              -1.00    -9600.00
00312              -1.00    -9200.00
00313              -1.80    -9000.00
00314              -1.20    -9000.00
00315              -0.60    -8800.00
00316              -2.00    -8600.00
00317              -1.20    -8400.00
00318              -0.40    -8200.00
00319              -1.40    -8200.00
00320              -1.80    -8000.00
00321              -0.40    -7600.00
00322              -1.00    -7400.00
00323              -2.00    -7400.00
00324              -0.60    -7000.00
00325              -0.60    -7000.00
00326              -1.80    -6600.00
00327              -1.00    -6400.00
00328              -0.20    -6400.00
00329              -1.20    -6200.00
00330              -1.20    -6000.00
00331              -0.40    -5800.00
00332              -1.00    -5600.00
00333              -1.20    -5400.00
00334              -0.60    -5200.00
00335              -0.40    -5000.00
00336              -1.20    -4600.00
00337              -1.20    -4600.00
00338              -0.20    -4400.00
00339              -1.00    -4200.00
00340              -1.80    -4000.00
00341              -0.60    -3600.00
00342              -0.40    -3600.00
00343              -1.20    -3200.00
00344              -0.60    -3200.00
00345              -0.60    -2800.00
00346              -1.00    -2600.00
00347              -0.60    -2600.00
00348              -0.20    -2400.00
00349              -0.60    -2000.00
00350              -1.00    -2000.00
00351              -0.60    -1600.00
00352              -0.40    -1600.00
00353              -1.00    -1200.00
00354              -0.60    -1000.00
00355              -0.40     -800.00
00356              -0.60     -600.00
00357              -0.60     -400.00
00358               0.20     -200.00
00359              -0.60        0.00
00360              -0.40      200.00
00361               1.80      600.00
00362               1.20      600.00
00363              -1.80      800.00
00364              -0.20     1000.00
00365               1.80     1400.00
00366              -0.40     1400.00
00367              -0.20     1800.00
00368               6.00     2000.00
00369              19.80     2400.00
00370              -5.20     2400.00
00371             -25.00     2800.00
00372              -0.40     2800.00
00373               9.00     2800.00
00374               7.60     3200.00
00375              25.00     3400.00
00376             -25.00     3600.00
00377              14.60     4000.00
00378              25.00     4000.00
00379             -25.00     4000.00
00380             -23.60     4600.00
00381              25.00     4600.00
00382             -25.00     4800.00
00383             -20.00     5200.00
00384              25.00     5200.00
00385              -0.60     5600.00
00386              -9.00     5600.00
00387             -12.40     5800.00
00388              25.00     6200.00
00389               1.60     6200.00
00390             -25.00     6600.00
00391              25.00     6600.00
00392              21.00     7000.00
00393             -25.00     7200.00
00394              -8.60     7200.00
00395              25.00     7400.00
00396               2.20     7600.00
00397             -25.00     7800.00
00398              15.60     8000.00
00399              19.00     8400.00
00400             -20.60     8400.00
00401              -2.20     8400.00
00402              19.40     8800.00
00403              -6.80     8800.00
00404             -14.80     9000.00
00405              18.80     9200.00
00406               4.40     9400.00
00407             -16.60     9600.00
00408               8.20     9600.00
00409              11.60    10000.00
00410             -11.00    10000.00
00411              -3.60    10200.00
00412              13.20    10400.00
00413              -1.40    10600.00
00414              -6.80    10800.00
00415               6.80    10800.00
00416               5.20    11000.00
00417              -7.00    11000.00
00418               0.00    11200.00
00419               9.40    11200.00
00420              -4.80    11600.00
00421              -2.20    11600.00
00422               8.60    11800.00
00423              -0.60    11800.00
00424              -4.60    12000.00
00425               5.40    12000.00
00426               3.40    12400.00
00427              -5.00    12400.00
00428               2.60    12600.00
00429               5.80    12800.00
00430              -2.60    12800.00
00431              -0.60    12800.00
00432               5.00    13000.00
00433              -0.20    12800.00
00434              -1.20    13200.00
00435               3.20    13200.00
00436               2.20    13200.00
00437              -1.20    13400.00
00438               1.60    13400.00
00439               3.60    13600.00
00440               0.20    13600.00
00441              -0.20    13800.00
00442               2.80    13800.00
00443               2.00    14000.00
00444              -0.20    14000.00
00445               1.40    14000.00
00446               2.60    14200.00
00447               0.60    14200.00
00448               0.80    14400.00
00449               2.00    14400.00
00450               1.40    14400.00
00451               0.40    14600.00
00452               2.00    14600.00
00453               2.60    14400.00
00454               0.20    14600.00
00455               1.00    14600.00
00456               2.80    14600.00
00457               1.00    14600.00
00458               0.40    14600.00
00459               2.20    14800.00
00460               1.80    14600.00
00461               1.20    14400.00
00462               2.00    14800.00
00463               1.40    14800.00
00464               0.80    14800.00
00465               1.20    14800.00
00466               1.80    14600.00
00467               1.20    14800.00
00468               1.20    14600.00
00469               1.40    14800.00
00470               1.80    14800.00
00471               1.00    14800.00
00472               1.20    14600.00
00473               1.60    14600.00
00474               1.20    14800.00
00475               1.00    14400.00
00476               1.80    14600.00
00477               1.00    14600.00
00478               1.00    14400.00
00479               1.40    14600.00
00480               1.80    14400.00
00481               1.00    14200.00
00482               0.20    14200.00
00483               1.20    14200.00
00484               1.80    14000.00
00485               0.40    14000.00
00486               1.40    14000.00
00487               1.80    13800.00
00488               1.20    13800.00
00489               1.00    14000.00
00490               0.60    13800.00
00491               1.20    13600.00
00492               1.20    13600.00
00493               1.20    13400.00
00494               1.20    13200.00
00495               1.40    13200.00
00496               0.60    13200.00
00497               0.80    13200.00
00498               1.60    13000.00
00499               1.00    12800.00
00500               1.00    12800.00
00501               1.20    12600.00
00502               1.20    12600.00
00503               1.00    12400.00
00504               0.80    12400.00
00505               1.20    12200.00
00506               1.00    12000.00
00507               1.00    12000.00
00508               1.40    11800.00
00509               0.60    11800.00
00510               1.00    11600.00
00511               1.20    11400.00
00512               0.80    11200.00
00513               0.60    11000.00
00514               1.20    11000.00
00515               0.80    10800.00
00516               1.00    10800.00
00517               1.00    10800.00
00518               1.40    10400.00
00519               0.40    10400.00
00520               0.40    10200.00
00521               2.00    10000.00
00522               0.60     9800.00
00523              -0.20     9600.00
00524               1.40     9400.00
00525               1.20     9200.00
00526              -0.20     9200.00
00527               0.40     8800.00
00528               1.60     8800.00
00529               1.00     8600.00
00530              -0.40     8400.00
00531               1.20     8000.00
00532               1.80     8200.00
00533              -1.20     8000.00
00534               0.20     7800.00
00535               2.60     7600.00
00536              -0.20     7200.00
00537              -1.40     7200.00
00538               2.20     7000.00
00539               1.00     6800.00
00540              -1.80     6600.00
00541               1.00     6400.00
00542               1.20     6200.00
00543              -1.00     6000.00
00544               0.20     6000.00
00545               1.00     5800.00
00546               0.40     5400.00
00547              -0.20     5400.00
00548               0.20     5000.00
00549               0.40     4800.00
00550               0.40     4600.00
00551              -0.60     4400.00
00552               0.20     4400.00
00553               0.60     4000.00
00554              -0.20     3800.00
00555              -0.60     3600.00
00556               0.20     3400.00
00557               0.40     3000.00
00558              -0.60     3000.00
00559              -0.40     2800.00
00560               0.60     2400.00
00561               0.20     2400.00
00562              -0.60     2000.00
00563               0.40     2000.00
00564               0.20     1800.00
00565              -1.00     1400.00
00566              -0.40     1400.00
00567               0.40     1000.00
00568              -0.40      800.00
00569              -0.40      600.00
00570               0.20      400.00
00571               0.20      200.00
00572              -0.20        0.00
00573              -0.60     -200.00
00574               0.40     -400.00
00575               2.60     -600.00
00576              -0.20     -800.00
00577              -1.80     -800.00
00578               0.40    -1000.00
00579               0.60    -1400.00
00580              -1.20    -1600.00
00581               2.80    -1800.00
00582              25.00    -2000.00
00583              -8.20    -2600.00
00584             -25.00    -2800.00
00585              -0.40    -2800.00
00586               5.80    -2800.00
00587              25.00    -3200.00
00588              -1.80    -3400.00
00589             -25.00    -3200.00
00590              25.00    -3600.00
00591              25.00    -4200.00
00592             -25.00    -4000.00
00593              25.00    -4400.00
00594              25.00    -4600.00
00595             -25.00    -4600.00
00596              25.00    -5200.00
00597              25.00    -5000.00
00598             -13.80    -5600.00
00599              -4.20    -5600.00
00600             -25.00    -5600.00
00601              25.00    -6400.00
00602             -17.40    -6000.00
00603             -25.00    -6400.00
00604              25.00    -6800.00
00605              -1.20    -6800.00
00606             -25.00    -7200.00
00607              12.40    -7200.00
00608              25.00    -7600.00
00609             -24.20    -7800.00
00610             -25.00    -7600.00
00611              25.00    -8200.00
00612              -3.60    -8200.00
00613             -25.00    -8400.00
00614              21.20    -8600.00
00615              15.00    -8600.00
00616             -21.60    -9000.00
00617             -15.80    -9000.00
00618              25.00    -9200.00
00619              -8.80    -9200.00
00620             -22.20    -9600.00
00621              18.00    -9800.00
00622               4.40    -9800.00
00623             -18.80   -10000.00
00624              -3.00   -10200.00
00625              18.00   -10400.00
00626             -12.20   -10400.00
00627              -9.80   -10600.00
00628              12.20   -10800.00
00629               0.40   -11000.00
00630             -15.00   -11000.00
00631               3.00   -11200.00
00632               9.20   -11400.00
00633             -14.20   -11600.00
00634               0.20   -11600.00
00635               7.80   -11800.00
00636              -6.80   -12000.00
00637              -6.80   -12000.00
00638               6.40   -12200.00
00639              -1.20   -12200.00
00640              -9.80   -12400.00
00641               3.80   -12600.00
00642               2.60   -12600.00
00643              -7.60   -12800.00
00644              -2.60   -12800.00
00645               4.20   -13000.00
00646              -4.60   -13200.00
00647              -5.20   -13200.00
00648               3.40   -13200.00
00649              -0.40   -13200.00
00650              -7.00   -13600.00
00651              -0.20   -13600.00
00652               3.00   -13600.00
00653              -6.60   -13600.00
00654              -3.60   -13800.00
00655               3.60   -13800.00
00656              -1.80   -14000.00
00657              -5.80   -14000.00
00658              -0.20   -14000.00
00659               1.00   -14200.00
00660              -5.40   -14000.00
00661              -2.60   -14400.00
00662               1.40   -14400.00
00663              -2.60   -14400.00
00664              -4.20   -14400.00
00665              -0.20   -14400.00
00666              -0.40   -14600.00
00667              -5.20   -14600.00
00668              -2.80   -14600.00
00669               2.20   -14600.00
00670              -3.00   -14600.00
00671              -5.20   -14600.00
00672              -0.60   -14600.00
00673               0.40   -14800.00
00674              -3.60   -14600.00
00675              -3.60   -14800.00
00676               0.20   -14800.00
00677              -2.00   -14800.00
00678              -3.80   -14800.00
00679              -1.40   -14600.00
00680              -1.00   -14800.00
00681              -2.20   -14800.00
00682              -3.00   -14800.00
00683              -2.00   -14800.00
00684              -0.60   -14800.00
00685              -2.00   -14800.00
00686              -3.80   -14800.00
00687              -1.20   -14600.00
00688               1.00   -14600.00
00689              -4.60   -14600.00
00690              -3.20   -14600.00
00691               0.40   -14400.00
00692              -2.60   -14400.00
00693              -2.20   -14400.00
00694              -1.40   -14400.00
00695              -1.20   -14400.00
00696              -2.80   -14400.00
00697              -2.20   -14200.00
00698              -0.40   -14000.00
00699              -2.20   -14200.00
00700              -2.40   -14000.00
00701              -2.00   -13800.00
00702               0.20   -13800.00
00703              -2.00   -13800.00
00704              -4.60   -13600.00
00705              -0.40   -13600.00
00706               0.00   -13600.00
00707              -3.40   -13400.00
00708              -2.20   -13200.00
00709               0.40   -13400.00
00710              -2.00   -13200.00
00711              -4.60   -13200.00
00712               0.40   -13000.00
00713               0.20   -13000.00
00714              -4.40   -12800.00
00715              -1.80   -12800.00
00716               2.00   -12600.00
00717              -3.40   -12400.00
00718              -4.00   -12400.00
00719               0.60   -12200.00
00720              -0.20   -12200.00
00721              -3.40   -12000.00
00722              -1.00   -12000.00
00723              -0.20   -11600.00
00724              -2.60   -11600.00
00725              -3.00   -11400.00
00726               0.40   -11200.00
00727              -2.00   -11000.00
00728              -2.20   -11200.00
00729              -0.40   -10800.00
00730              -1.00   -10800.00
00731              -2.60   -10600.00
00732              -1.20   -10400.00
00733              -1.00   -10200.00
00734              -1.40   -10000.00
00735              -1.80   -10000.00
00736              -1.80    -9800.00
00737              -2.00    -9600.00
00738              -1.00    -9600.00
00739              -1.20    -9200.00
00740              -2.20    -9200.00
00741              -1.00    -9000.00
00742              -0.60    -8800.00
00743              -1.80    -8600.00
00744              -1.80    -8400.00
00745              -1.20    -8200.00
00746              -1.20    -8200.00
00747              -1.20    -8000.00
00748              -1.00    -7800.00
00749              -1.20    -7600.00
00750              -0.80    -7400.00
00751              -1.40    -7200.00
00752              -2.00    -6800.00
00753              -0.60    -6800.00
00754              -0.60    -6600.00
00755              -1.60    -6400.00
00756              -0.60    -6000.00
00757              -0.40    -6000.00
00758              -1.20    -5800.00
00759              -1.80    -5800.00
00760              -0.60    -5600.00
00761              -0.20    -5200.00
00762              -1.40    -5000.00
00763              -0.60    -5000.00
00764               0.00    -4600.00
00765              -1.40    -4400.00
00766              -1.20    -4200.00
00767              -0.20    -4000.00
00768              -1.00    -3800.00
00769              -1.20    -3600.00
00770               0.00    -3200.00
00771              -0.40    -3200.00
00772              -1.20    -2800.00
00773              -1.00    -2800.00
00774              -0.40    -2600.00
00775              -0.60    -2400.00
00776              -0.60    -2000.00
00777              -0.60    -2000.00
00778               0.20    -1600.00
00779              -0.60    -1600.00
00780              -1.00    -1200.00
00781              -0.20    -1000.00
00782              -0.40     -800.00
00783              -0.60     -400.00
00784              -0.20     -400.00
00785               0.20     -200.00
00786              -0.40        0.00
00787              -0.60      200.00
00788               1.40      400.00
00789               1.80      600.00
00790              -1.80      800.00
00791              -0.60     1000.00
00792               1.80     1400.00
00793               0.20     1400.00
00794              -1.00     1600.00
00795               3.40     1800.00
00796              17.20     2400.00
00797               6.80     2400.00
00798             -25.00     2600.00
00799             -11.80     2800.00
00800              10.80     2800.00
00801              -0.20     3200.00
00802              25.00     3600.00
00803             -25.00     3400.00
00804             -25.00     3800.00
00805              25.00     4000.00
00806             -25.00     4000.00
00807             -25.00     4400.00
00808              25.00     4600.00
00809              -6.00     4600.00
00810             -25.00     5200.00
00811              25.00     5200.00
00812               6.20     5400.00
00813              -8.20     5600.00
00814             -15.60     5800.00
00815              17.00     6000.00
00816              16.20     6200.00
00817             -25.00     6600.00
00818              12.20     6600.00
00819              25.00     6800.00
00820             -21.40     7000.00
00821             -18.80     7200.00
00822              22.00     7200.00
00823              14.00     7600.00
00824             -25.00     7800.00
00825               3.80     8200.00
00826              25.00     8200.00
00827             -15.60     8400.00
00828             -11.00     8600.00
00829              20.20     8600.00
00830               0.60     8800.00
00831             -20.40     9200.00
00832              13.40     9200.00
00833              13.40     9400.00
00834             -17.20     9400.00
00835               1.20     9600.00
00836              16.40    10000.00
00837              -7.40    10000.00
00838              -9.40    10200.00
00839              12.40    10400.00
00840               4.20    10400.00
00841              -8.80    10800.00
00842               3.60    10800.00
00843               9.00    10800.00
00844              -5.40    11200.00
00845              -3.80    11200.00
00846               9.60    11200.00
00847              -0.60    11600.00
00848              -5.80    11600.00
00849               7.20    11800.00
00850               4.20    12000.00
00851              -6.20    12000.00
00852               2.80    12200.00
00853               6.60    12400.00
00854              -3.60    12400.00
00855              -0.60    12600.00
00856               6.80    12600.00
00857              -0.20    12800.00
00858              -2.60    12800.00
00859               4.00    13000.00
00860               2.00    13000.00
00861              -2.00    13200.00
00862               2.00    13200.00
00863               3.60    13200.00
00864              -0.40    13400.00
00865              -0.20    13400.00
00866               3.80    13600.00
00867               1.20    13600.00
00868              -1.80    13600.00
00869               2.20    13800.00
00870               3.00    14000.00
00871              -0.20    14000.00
00872               0.40    14000.00
00873               2.80    14200.00
00874               0.60    14200.00
00875              -0.20    14200.00
00876               2.20    14600.00
00877               1.80    14400.00
00878               0.20    14400.00
00879               1.40    14400.00
00880               2.60    14600.00
00881               0.40    14600.00
00882               0.40    14400.00
00883               2.20    14600.00
00884               1.60    14600.00
00885               0.40    14600.00
00886               1.80    14600.00
00887               2.00    14600.00
00888               1.20    14800.00
00889               1.40    14600.00
00890               1.80    14600.00
00891               1.20    14800.00
00892               1.00    14600.00
00893               1.80    14600.00
00894               1.40    14800.00
00895               0.80    14800.00
00896               1.20    14800.00
00897               2.00    14600.00
00898               1.60    14800.00
00899               0.60    14800.00
00900               2.00    14600.00
00901               1.40    14600.00
00902               1.40    14600.00
00903               1.80    14600.00
00904               1.00    14400.00
00905               1.40    14600.00
00906               1.80    14400.00
00907               1.80    14400.00
00908               1.00    14200.00
00909               0.60    14400.00
00910               1.20    14200.00
00911               2.00    14000.00
00912               1.00    14000.00
00913               1.80    14000.00
00914               1.20    14000.00
00915               1.20    13800.00
00916               1.80    13800.00
00917               1.20    13600.00
00918               0.60    13600.00
00919               1.40    13600.00
00920               1.40    13400.00
00921               1.20    13200.00
00922               1.20    13200.00
00923               1.20    13200.00
00924               1.20    13200.00
00925               1.00    13000.00
00926               1.20    12800.00
00927               0.60    12600.00
00928               1.00    12600.00
00929               1.20    12600.00
00930               1.20    12400.00
00931               1.00    12400.00
00932               1.00    12200.00
00933               1.20    12200.00
00934               0.60    12000.00
00935               1.00    12000.00
00936               1.20    11800.00
00937               0.60    11600.00
00938               0.80    11600.00
00939               1.20    11200.00
00940               1.00    11000.00
00941               0.60    10800.00
00942               1.00    11000.00
00943               1.20    10800.00
00944               0.80    10600.00
00945               0.60    10400.00
00946               0.60    10200.00
00947               0.80    10200.00
00948               0.40    10000.00
00949               0.60     9800.00
00950               0.60     9600.00
00951               0.60     9400.00
00952               0.60     9400.00
00953               0.60     9200.00
00954               0.60     9000.00
00955               0.40     8600.00
00956               0.40     8800.00
00957               0.60     8400.00
00958               0.60     8400.00
00959               0.40     8200.00
00960               0.40     8000.00
00961               1.00     7800.00
00962               0.60     7600.00
00963               0.40     7400.00
00964               0.60     7200.00
00965               0.40     7000.00
00966               0.40     6800.00
00967               0.60     6600.00
00968               0.40     6600.00
00969               0.20     6200.00
00970               0.40     6200.00
00971               0.60     5800.00
00972               0.20     5600.00
00973               0.20     5400.00
00974               0.40     5400.00
00975               0.40     5000.00
00976               0.40     5000.00
00977               0.20     4600.00
00978               0.20     4600.00
00979               0.40     4400.00
00980               0.20     4000.00
00981               0.20     3800.00
00982               0.20     3600.00
00983               0.20     3600.00
00984               0.20     3200.00
00985               0.20     3200.00
00986               0.00     2800.00
00987              -0.20     2600.00
00988              -0.20     2400.00
00989               0.00     2200.00
00990              -0.40     2000.00
00991              -0.40     1800.00
00992              -0.40     1600.00
00993              -0.20     1200.00
00994              -0.40     1000.00
00995              -0.40     1000.00
00996              -0.20      600.00
00997              -0.40      400.00
00998              -0.60      400.00
00999              -0.40        0.00
01000              -0.20     -200.00
01001              -0.40     -400.00
01002               1.20     -400.00
01003               1.00     -800.00
01004              -2.00    -1000.00
01005              -1.00    -1000.00
01006               1.00    -1600.00
01007              -0.60    -1600.00
01008               0.40    -1800.00
01009              21.80    -2000.00
01010               8.40    -2400.00
01011             -25.00    -2800.00
01012             -12.40    -3000.00
01013               7.80    -2800.00
01014              25.00    -2800.00
01015              25.00    -3600.00
01016             -25.00    -3200.00
01017              25.00    -3600.00
01018              25.00    -4200.00
01019             -25.00    -4000.00
01020             -14.80    -4400.00
01021              25.00    -4800.00
01022             -25.00    -4400.00
01023              -3.80    -5000.00
01024              25.00    -5000.00
01025             -18.80    -5200.00
01026               6.20    -5800.00
01027             -25.00    -5600.00
01028              25.00    -6000.00
01029              25.00    -6400.00
01030             -25.00    -6200.00
01031              25.00    -6800.00
01032              25.00    -6600.00
01033             -25.00    -7000.00
01034              -1.20    -7400.00
01035              25.00    -7200.00
01036              -2.80    -7600.00
01037             -25.00    -7600.00
01038              25.00    -8200.00
01039              22.60    -8200.00
01040             -25.00    -8200.00
01041              11.20    -8600.00
01042              23.00    -8600.00
01043             -13.40    -8800.00
01044             -25.00    -9000.00
01045              25.00    -9200.00
01046               6.80    -9400.00
01047             -25.00    -9400.00
01048              11.80    -9600.00
01049              11.60    -9800.00
01050             -15.40   -10000.00
01051             -10.20   -10000.00
01052              17.80   -10400.00
01053              -4.20   -10400.00
01054             -15.60   -10600.00
01055               9.40   -10800.00
01056               5.00   -10800.00
01057             -13.60   -11000.00
01058              -3.40   -11200.00
01059              12.20   -11400.00
01060             -10.80   -11400.00
01061              -5.60   -11600.00
01062               9.00   -11600.00
01063              -3.80   -12000.00
01064              -8.60   -12000.00
01065               3.80   -12200.00
01066               2.60   -12400.00
01067             -10.40   -12400.00
01068               0.40   -12400.00
01069               5.00   -12800.00
01070              -6.20   -12800.00
01071              -5.00   -12800.00
01072               3.80   -13000.00
01073              -2.60   -13000.00
01074              -6.60   -13200.00
01075               1.80   -13200.00
01076               1.00   -13600.00
01077              -5.60   -13400.00
01078              -2.60   -13600.00
01079               3.20   -13600.00
01080              -4.20   -13600.00
01081              -5.00   -13800.00
01082               2.00   -13800.00
01083              -0.20   -14000.00
01084              -4.60   -14000.00
01085              -1.80   -14000.00
01086               1.40   -14200.00
01087              -4.00   -14200.00
01088              -3.40   -14200.00
01089               1.00   -14400.00
01090              -2.00   -14400.00
01091              -3.80   -14400.00
01092              -0.40   -14600.00
01093              -0.20   -14400.00
01094              -3.80   -14600.00
01095              -2.60   -14600.00
01096               0.60   -14600.00
01097              -1.60   -14600.00
01098              -3.80   -14600.00
01099              -1.00   -14600.00
01100              -0.40   -14800.00
01101              -2.80   -14800.00
01102              -2.80   -14600.00
01103              -0.60   -14800.00
01104              -1.40   -14600.00
01105              -3.00   -14800.00
01106              -1.40   -14800.00
01107              -0.60   -14800.00
01108              -2.80   -14800.00
01109              -2.60   -14800.00
01110              -1.00   -14800.00
01111              -1.20   -14600.00
01112              -2.60   -14600.00
01113              -1.80   -14800.00
01114              -1.00   -14600.00
01115              -2.00   -14600.00
01116              -1.80   -14400.00
01117              -1.20   -14600.00
01118              -2.60   -14600.00
01119              -1.80   -14600.00
01120              -1.20   -14400.00
01121              -1.80   -14400.00
01122              -3.00   -14400.00
01123              -1.60   -14400.00
01124              -0.60   -14400.00
01125              -2.60   -14000.00
01126              -2.40   -14000.00
01127              -1.80   -14000.00
01128              -1.80   -13800.00
01129              -1.40   -14000.00
01130              -2.80   -13800.00
01131              -1.40   -13800.00
01132              -1.80   -13600.00
01133              -2.20   -13600.00
01134              -2.00   -13600.00
01135              -1.00   -13200.00
01136              -2.00   -13200.00
01137              -3.00   -13200.00
01138              -1.00   -13200.00
01139              -1.60   -13000.00
01140              -3.00   -13000.00
01141              -0.80   -12800.00
01142              -1.20   -12800.00
01143              -1.40   -12400.00
01144              -2.00   -12400.00
01145              -2.80   -12400.00
01146              -1.60   -12400.00
01147              -1.20   -12000.00
01148              -2.20   -12000.00
01149              -1.80   -12000.00
01150              -0.80   -11600.00
01151              -1.80   -11600.00
01152              -2.20   -11400.00
01153              -1.20   -11400.00
01154              -1.20   -11000.00
01155              -2.60   -11000.00
01156              -0.60   -10800.00
01157              -0.60   -10800.00
01158              -2.20   -10400.00
01159              -2.20   -10400.00
01160              -0.60   -10200.00
01161              -1.20   -10000.00
01162              -2.20   -10000.00
01163              -0.80   -10000.00
01164              -0.60    -9600.00
01165              -2.00    -9600.00
01166              -0.60    -9200.00
01167              -0.60    -9200.00
01168              -2.20    -9000.00
01169              -1.80    -9000.00
01170              -0.60    -8600.00
01171              -1.40    -8400.00
01172              -2.00    -8200.00
01173              -0.60    -8200.00
01174              -0.20    -8000.00
01175              -1.80    -7600.00
01176              -1.20    -7400.00
01177              -0.60    -7400.00
01178              -0.80    -7200.00
01179              -1.40    -6800.00
01180              -0.80    -6800.00
01181              -1.20    -6600.00
01182              -2.00    -6400.00
01183              -1.00    -6400.00
01184              -0.80    -6200.00
01185              -1.40    -5800.00
01186              -0.40    -5600.00
01187              -1.00    -5600.00
01188              -1.20    -5200.00
01189              -0.60    -5000.00
01190              -1.00    -4800.00
01191              -1.20    -4600.00
01192              -0.60    -4400.00
01193              -0.60    -4200.00
01194              -1.20    -4000.00
01195              -1.20    -4000.00
01196              -0.60    -3600.00
01197              -0.80    -3400.00
01198              -0.60    -3200.00
01199              -1.00    -3000.00
01200              -0.60    -2800.00
01201              -0.60    -2600.00
01202              -0.40    -2400.00
01203              -0.60    -2200.00
01204              -0.60    -2000.00
01205              -0.60    -1600.00
01206              -0.40    -1600.00
01207              -1.00    -1200.00
01208              -1.00    -1000.00
01209              -0.40     -800.00
01210              -0.40     -600.00
01211              -0.40     -400.00
01212              -0.20     -200.00
01213               0.40        0.00
01214              -1.20      200.00
01215               0.60      400.00
01216               2.80      600.00
01217              -1.80      800.00
01218              -1.00      800.00
01219               2.00     1400.00
01220              -0.20     1400.00
01221              -1.00     1600.00
01222               3.40     2000.00
01223              13.20     2200.00
01224              15.40     2400.00
01225             -25.00     2600.00
01226             -23.80     2800.00
01227              10.60     2800.00
01228               0.40     3200.00
01229              25.00     3400.00
01230             -16.20     3400.00
01231             -25.00     3800.00
01232              25.00     4000.00
01233              19.40     4000.00
01234             -25.00     4400.00
01235              25.00     4400.00
01236              25.00     4600.00
01237             -25.00     5000.00
01238              22.00     5200.00
01239              15.40     5400.00
01240              -7.20     5600.00
01241             -14.60     5600.00
01242               6.00     6000.00
01243              25.00     6200.00
01244             -25.00     6400.00
01245              -3.80     6600.00
01246              25.00     6800.00
01247             -11.00     7200.00
01248             -25.00     7200.00
01249              13.80     7200.00
01250              23.20     7600.00
01251             -24.40     7800.00
01252              -9.40     7800.00
01253              25.00     8200.00
01254              -5.60     8400.00
01255             -18.40     8400.00
01256              16.00     8600.00
01257               9.00     8800.00
01258             -21.40     8800.00
01259               4.60     9200.00
01260              19.60     9400.00
01261             -13.00     9600.00
01262              -6.20     9600.00
01263              16.80     9800.00
01264              -1.80    10000.00
01265             -13.00    10200.00
01266               8.40    10400.00
01267               8.60    10400.00
01268              -8.20    10400.00
01269              -0.20    10800.00
01270               9.40    10800.00
01271              -2.00    11000.00
01272              -7.00    11200.00
01273               8.40    11200.00
01274               2.80    11600.00
01275              -7.40    11600.00
01276               5.40    11800.00
01277               6.20    12000.00
01278              -5.40    12000.00
01279               0.20    12200.00
01280               7.60    12200.00
01281              -2.00    12400.00
01282              -2.60    12400.00
01283               6.60    12600.00
01284               1.60    12600.00
01285              -3.40    12800.00
01286               3.40    13000.00
01287               3.20    12800.00
01288              -1.80    13200.00
01289               1.20    13200.00
01290               4.20    13200.00
01291               0.40    13600.00
01292              -0.60    13400.00
01293               2.60    13600.00
01294               2.60    13600.00
01295              -0.40    13800.00
01296               0.60    13600.00
01297               3.60    14000.00
01298               1.80    13800.00
01299              -1.80    14200.00
01300               3.40    14200.00
01301               2.20    14200.00
01302              -1.00    14200.00
01303               2.00    14400.00
01304               2.60    14200.00
01305               0.20    14600.00
01306               0.60    14400.00
01307               3.40    14400.00
01308               1.00    14400.00
01309              -0.40    14600.00
01310               2.60    14600.00
01311               2.40    14600.00
01312               0.20    14600.00
01313               1.40    14600.00
01314               2.00    14800.00
01315               1.00    14400.00
01316               1.00    14600.00
01317               1.60    14600.00
01318               1.40    14600.00
01319               1.20    14800.00
01320               1.60    14600.00
01321               1.80    14800.00
01322               1.00    14800.00
01323               1.20    14800.00
01324               1.80    14600.00
01325               1.20    14600.00
01326               1.20    14800.00
01327               1.40    14600.00
01328               1.40    14600.00
01329               1.20    14600.00
01330               1.40    14400.00
01331               1.20    14600.00
01332               1.00    14600.00
01333               1.00    14400.00
01334               1.20    14400.00
01335               1.20    14400.00
01336               1.20    14200.00
01337               1.20    14200.00
01338               2.00    14200.00
01339               0.60    14200.00
01340               1.20    14000.00
01341               1.40    13800.00
01342               1.00    14000.00
01343               1.60    13600.00
01344               1.80    13600.00
01345               0.60    13600.00
01346               1.40    13600.00
01347               1.20    13600.00
01348               1.00    13200.00
01349               1.00    13200.00
01350               1.20    13200.00
01351               1.00    13000.00
01352               1.20    13200.00
01353               1.20    12800.00
01354               1.00    12800.00
01355               1.20    12800.00
01356               1.20    12600.00
01357               1.40    12400.00
01358               1.00    12400.00
01359               1.00    12400.00
01360               1.20    12200.00
01361               1.20    12000.00
01362               0.60    11800.00
01363               1.00    11800.00
01364               1.20    11600.00
01365               0.60    11400.00
01366               1.00    11200.00
01367               1.20    11200.00
01368               0.60    11200.00
01369               1.00    11000.00
01370               1.20    10800.00
01371               1.00    10600.00
01372               1.00    10400.00
01373               0.60    10400.00
01374               0.80    10200.00
01375               0.80    10000.00
01376               0.60     9800.00
01377               0.60     9600.00
01378               0.80     9400.00
01379               0.40     9200.00
01380               0.80     9200.00
01381               0.80     9200.00
01382               0.40     8800.00
01383               0.60     8800.00
01384               0.40     8600.00
01385               0.40     8400.00
01386               0.40     8000.00
01387               0.40     8000.00
01388               0.40     7800.00
01389               0.40     7800.00
01390               0.40     7600.00
01391               0.40     7200.00
01392               0.60     7200.00
01393               0.40     6800.00
01394               0.40     6800.00
01395               0.20     6600.00
01396               0.20     6400.00
01397               0.40     6200.00
01398               0.20     6000.00
01399               0.20     5600.00
01400               0.20     5600.00
01401               0.40     5400.00
01402               0.40     5200.00
01403               0.20     4800.00
01404               0.40     4800.00
01405               0.20     4400.00
01406              -0.20     4400.00
01407               0.40     4000.00
01408               0.40     3800.00
01409              -0.40     3600.00
01410               0.20     3600.00
01411               0.40     3200.00
01412              -0.20     3000.00
01413              -0.20     2800.00
01414               0.20     2800.00
01415              -0.20     2400.00
01416               0.20     2200.00
01417               0.20     2000.00
01418              -0.20     1600.00
01419              -0.20     1600.00
01420               0.20     1400.00
01421               0.20     1200.00
01422               0.00      800.00
01423              -0.40      800.00
01424              -0.20      600.00
01425              -0.20      400.00
01426              -0.40        0.00
01427              -0.20     -200.00
01428               0.20     -400.00
01429               1.00     -600.00
01430               1.80     -800.00
01431              -1.20     -800.00
01432              -1.00    -1000.00
01433               1.00    -1400.00
01434               0.20    -1600.00
01435               0.00    -1800.00
01436              13.80    -2000.00
01437              23.00    -2400.00
01438             -25.00    -2600.00
01439             -25.00    -2800.00
01440              10.00    -2800.00
01441              25.00    -2800.00
01442              25.00    -3600.00
01443             -25.00    -3400.00
01444              -4.20    -3400.00
01445              25.00    -4200.00
01446             -25.00    -4000.00
01447             -25.00    -4400.00
01448              25.00    -4600.00
01449             -25.00    -4400.00
01450             -25.00    -5000.00
01451              25.00    -5200.00
01452             -14.00    -5200.00
01453               7.80    -5800.00
01454             -25.00    -5600.00
01455              18.60    -6000.00
01456              25.00    -6400.00
01457             -25.00    -6200.00
01458              23.80    -6600.00
01459              25.00    -6800.00
01460             -25.00    -6800.00
01461             -16.40    -7200.00
01462              25.00    -7200.00
01463              16.20    -7600.00
01464             -25.00    -7800.00
01465              16.20    -8000.00
01466              25.00    -8200.00
01467             -25.00    -8200.00
01468              -3.40    -8600.00
01469              25.00    -8600.00
01470              -4.40    -8800.00
01471             -25.00    -8800.00
01472              14.00    -9000.00
01473              21.00    -9400.00
01474             -25.00    -9200.00
01475               2.00    -9800.00
01476              17.00    -9800.00
01477             -10.60   -10000.00
01478             -15.60   -10000.00
01479              13.20   -10400.00
01480               5.20   -10400.00
01481             -18.00   -10400.00
01482               5.20   -10800.00
01483               9.40   -10800.00
01484             -10.20   -11000.00
01485              -9.20   -11200.00
01486              12.60   -11400.00
01487              -5.20   -11400.00
01488             -10.60   -11400.00
01489               9.00   -12000.00
01490               0.00   -11800.00
01491              -9.80   -12000.00
01492               1.00   -12200.00
01493               5.80   -12200.00
01494              -9.20   -12400.00
01495              -3.00   -12400.00
01496               6.20   -12600.00
01497              -3.80   -12800.00
01498              -6.20   -12800.00
01499               2.60   -13000.00
01500               0.40   -13200.00
01501              -6.80   -13200.00
01502              -0.20   -13200.00
01503               2.40   -13400.00
01504              -4.60   -13200.00
01505              -4.40   -13600.00
01506               2.80   -13600.00
01507              -2.20   -13600.00
01508              -6.20   -13600.00
01509               0.60   -13800.00
01510               0.60   -13800.00
01511              -4.20   -14000.00
01512              -2.80   -14000.00
01513               0.60   -14000.00
01514              -2.60   -14200.00
01515              -3.80   -14200.00
01516               0.40   -14400.00
01517              -1.40   -14400.00
01518              -3.80   -14400.00
01519              -1.60   -14400.00
01520              -0.20   -14400.00
01521              -3.00   -14600.00
01522              -3.60   -14400.00
01523              -0.20   -14600.00
01524              -1.20   -14400.00
01525              -3.40   -14600.00
01526              -2.00   -14800.00
01527              -1.00   -14600.00
01528              -2.20   -14600.00
01529              -2.60   -14800.00
01530              -1.20   -14600.00
01531              -1.40   -14800.00
01532              -2.80   -14800.00
01533              -2.00   -14800.00
01534              -1.40   -14800.00
01535              -2.60   -14800.00
01536              -2.20   -14800.00
01537              -1.60   -14800.00
01538              -1.20   -14800.00
01539              -2.20   -14600.00
01540              -2.20   -14800.00
01541              -1.40   -14600.00
01542              -1.80   -14600.00
01543              -2.00   -14400.00
01544              -2.20   -14400.00
01545              -2.00   -14600.00
01546              -2.00   -14400.00
01547              -2.20   -14400.00
01548              -1.40   -14400.00
01549              -1.80   -14400.00
01550              -2.20   -14200.00
01551              -1.80   -14200.00
01552              -1.40   -14400.00
01553              -2.00   -14000.00
01554              -2.20   -13800.00
01555              -1.20   -14000.00
01556              -1.40   -14000.00
01557              -2.20   -13800.00
01558              -2.00   -13800.00
01559              -1.40   -13600.00
01560              -1.40   -13600.00
01561              -2.00   -13400.00
01562              -1.80   -13200.00
01563              -1.40   -13200.00
01564              -2.00   -13200.00
01565              -1.80   -13200.00
01566              -1.00   -13000.00
01567              -1.80   -13000.00
01568              -1.80   -12800.00
01569              -1.00   -12600.00
01570              -1.60   -12400.00
01571              -2.00   -12600.00
01572              -2.20   -12400.00
01573              -1.20   -12200.00
01574              -2.00   -12200.00
01575              -1.80   -12200.00
01576              -1.20   -12000.00
01577              -1.80   -11800.00
01578              -1.40   -11600.00
01579              -0.60   -11600.00
01580              -2.40   -11400.00
01581              -2.00   -11200.00
01582              -1.40   -11000.00
01583              -1.40   -11000.00
01584              -2.00   -10600.00
01585              -1.20   -10800.00
01586              -1.20   -10400.00
01587              -1.80   -10400.00
01588              -1.20   -10000.00
01589              -1.20   -10000.00
01590              -2.20    -9800.00
01591              -1.40    -9600.00
01592              -0.60    -9600.00
01593              -1.40    -9200.00
01594              -1.80    -9200.00
01595              -1.00    -9000.00
01596              -1.40    -8800.00
01597              -1.60    -8600.00
01598              -1.20    -8400.00
01599              -1.20    -8400.00
01600              -1.40    -8200.00
01601              -1.00    -8000.00
01602              -0.60    -7600.00
01603              -1.20    -7400.00
01604              -1.20    -7400.00
01605              -1.00    -7200.00
01606              -1.20    -7200.00
01607              -1.20    -6800.00
01608              -1.00    -6800.00
01609              -1.20    -6600.00
01610              -1.00    -6400.00
01611              -0.60    -6000.00
01612              -1.20    -6000.00
01613              -0.60    -5600.00
01614              -0.60    -5600.00
01615              -0.80    -5400.00
01616              -0.40    -5000.00
01617              -1.00    -5000.00
01618              -1.00    -4600.00
01619              -0.40    -4600.00
01620              -0.60    -4200.00
01621              -0.60    -4000.00
01622              -0.60    -4000.00
01623              -0.60    -3600.00
01624              -0.60    -3600.00
01625              -0.60    -3400.00
01626              -0.60    -2800.00
01627              -0.60    -2800.00
01628              -0.60    -2800.00
01629              -0.40    -2400.00
01630              -0.20    -2000.00
01631              -0.60    -2000.00
01632              -0.60    -1800.00
01633              -0.20    -1600.00
01634              -0.40    -1400.00
01635              -0.40    -1000.00
01636              -0.40    -1000.00
01637              -0.40     -800.00
01638              -0.20     -400.00
01639              -0.40     -400.00
01640               0.20        0.00
01641              -1.20      200.00
01642               0.60      400.00
01643               1.80      600.00
01644              -0.40      800.00
01645              -1.20     1000.00
01646               0.60     1200.00
01647               1.20     1400.00
01648              -0.40     1600.00
01649               1.00     1800.00
01650               9.80     2000.00
01651              19.80     2400.00
01652             -20.20     2600.00
01653             -25.00     2800.00
01654               8.40     2800.00
01655               3.40     3000.00
01656              24.40     3200.00
01657               8.20     3400.00
01658             -25.00     3600.00
01659              25.00     4000.00
01660              25.00     4000.00
01661             -25.00     4200.00
01662              24.80     4600.00
01663              25.00     4600.00
01664             -25.00     4800.00
01665               5.20     5200.00
01666              24.60     5200.00
01667              -5.80     5600.00
01668             -12.20     5800.00
01669              -4.20     6000.00
01670              25.00     6200.00
01671             -19.00     6400.00
01672             -20.40     6600.00
01673              25.00     6800.00
01674               2.60     7000.00
01675             -25.00     7200.00
01676               3.60     7200.00
01677              25.00     7600.00
01678             -14.00     7800.00
01679             -21.00     8000.00
01680              25.00     8200.00
01681               6.20     8400.00
01682             -22.60     8600.00
01683               9.00     8600.00
01684              15.80     8800.00
01685             -17.20     9000.00
01686              -4.60     9200.00
01687              22.60     9200.00
01688              -6.00     9600.00
01689             -12.60     9600.00
01690              14.60     9800.00
01691               5.40    10000.00
01692             -13.60    10000.00
01693               2.80    10200.00
01694              12.40    10400.00
01695              -5.40    10600.00
01696              -4.20    10800.00
01697               9.00    10800.00
01698               2.00    11000.00
01699              -7.60    11200.00
01700               4.80    11400.00
01701               6.80    11400.00
01702              -6.60    11600.00
01703               1.20    11600.00
01704               7.60    11800.00
01705              -2.80    12000.00
01706              -3.00    12000.00
01707               6.60    12400.00
01708               1.20    12400.00
01709              -4.40    12400.00
01710               4.40    12600.00
01711               4.00    12600.00
01712              -3.40    12800.00
01713               1.00    12800.00
01714               4.40    13000.00
01715              -1.00    13000.00
01716              -0.60    13200.00
01717               3.60    13400.00
01718               1.00    13400.00
01719              -1.20    13600.00
01720               2.20    13600.00
01721               3.00    13600.00
01722              -1.00    13800.00
01723               0.40    13800.00
01724               3.60    14000.00
01725               1.20    13800.00
01726              -0.60    14000.00
01727               1.40    14200.00
01728               1.80    14200.00
01729              -0.20    14200.00
01730               1.20    14200.00
01731               3.00    14600.00
01732               1.40    14200.00
01733               1.20    14600.00
01734               2.60    14400.00
01735               1.80    14600.00
01736              -0.40    14600.00
01737               0.20    14600.00
01738               1.40    14800.00
01739               0.40    14600.00
01740               0.40    14800.00
01741               2.60    14600.00
01742               2.80    14800.00
01743               2.20    14800.00
01744               2.60    14800.00
01745               1.00    14800.00
01746               0.00    14800.00
01747               0.40    14800.00
01748               0.40    14800.00
01749               1.00    14800.00
01750               2.60    14800.00
01751               2.80    14800.00
01752               2.60    14800.00
01753               1.80    14600.00
01754               1.40    14600.00
01755               0.80    14600.00
01756              -0.60    14600.00
01757               1.60    14600.00
01758               2.00    14600.00
01759               1.00    14400.00
01760               2.00    14600.00
01761               3.40    14400.00
01762               2.00    14200.00
01763               0.60    14200.00
01764               1.00    14200.00
01765               1.40    14200.00
01766               0.20    14000.00
01767               1.00    14000.00
01768               2.00    14000.00
01769               1.80    13800.00
01770               1.00    13600.00
01771               2.00    13600.00
01772               1.40    13600.00
01773               0.60    13600.00
01774               1.00    13400.00
01775               1.40    13400.00
01776               0.60    13200.00
01777               1.20    13200.00
01778               1.00    13000.00
01779               1.20    12800.00
01780               1.80    12800.00
01781               1.00    12800.00
01782               0.60    12600.00
01783               1.60    12600.00
01784               1.00    12400.00
01785               0.20    12400.00
01786               0.60    12400.00
01787               1.20    12200.00
01788               1.40    12000.00
01789               1.00    12000.00
01790               1.00    11800.00
01791               1.80    11600.00
01792               0.60    11600.00
01793              -0.20    11400.00
01794               1.80    11200.00
01795               1.20    11000.00
01796              -0.80    10800.00
01797               1.80    10800.00
01798               1.80    10800.00
01799              -0.20    10600.00
01800               1.00    10400.00
01801               2.00    10200.00
01802               0.40    10200.00
01803               0.20    10000.00
01804               1.20     9600.00
01805               0.60     9600.00
01806               0.20     9400.00
01807               1.00     9200.00
01808               1.20     9000.00
01809               0.40     8800.00
01810               1.00     8800.00
01811               1.00     8600.00
01812               0.40     8400.00
01813               0.40     8200.00
01814               0.20     8000.00
01815               1.00     7800.00
01816               1.60     7600.00
01817               0.40     7600.00
01818               0.20     7200.00
01819               1.00     7200.00
01820               0.20     7000.00
01821               0.20     6600.00
01822               1.00     6400.00
01823               0.40     6400.00
01824               0.20     6200.00
01825               0.60     6000.00
01826               0.60     5800.00
01827              -0.20     5600.00
01828              -0.60     5400.00
01829               1.00     5200.00
01830               1.00     5000.00
01831              -0.20     4600.00
01832               0.40     4600.00
01833               0.80     4400.00
01834              -0.60     4000.00
01835              -0.60     3800.00
01836               1.00     3800.00
01837               0.40     3600.00
01838              -0.40     3200.00
01839              -0.20     3200.00
01840               0.20     3000.00
01841              -0.40     2800.00
01842              -1.00     2400.00
01843               0.40     2200.00
01844               0.20     2200.00
01845              -1.20     1800.00
01846               0.20     1600.00
01847               0.40     1400.00
01848              -0.60     1200.00
01849               0.00     1200.00
01850               0.20      600.00
01851              -0.60      400.00
01852              -0.60      400.00
01853              -0.40      200.00
01854              -0.60     -200.00
01855              -0.20     -200.00
01856               0.40     -600.00
01857               1.20     -800.00
01858              -0.60    -1000.00
01859              -1.20    -1000.00
01860               0.60    -1200.00
01861               0.40    -1600.00
01862              -1.00    -1600.00
01863               6.80    -1800.00
01864              25.00    -2200.00
01865             -25.00    -2600.00
01866             -25.00    -2800.00
01867               7.40    -2800.00
01868              12.20    -2800.00
01869              25.00    -3200.00
01870             -25.00    -3600.00
01871             -25.00    -3200.00
01872              25.00    -4000.00
01873               3.80    -4000.00
01874             -25.00    -4200.00
01875              25.00    -4600.00
01876              25.00    -4400.00
01877             -25.00    -4800.00
01878              25.00    -5000.00
01879               2.60    -5000.00
01880              -0.20    -5600.00
01881             -24.60    -5600.00
01882             -11.00    -6000.00
01883              25.00    -6400.00
01884             -25.00    -6000.00
01885             -18.00    -6600.00
01886              25.00    -6800.00
01887             -25.00    -6800.00
01888             -25.00    -7200.00
01889              25.00    -7200.00
01890              25.00    -7600.00
01891             -25.00    -7600.00
01892             -10.80    -7600.00
01893              25.00    -8200.00
01894             -25.00    -8000.00
01895             -20.20    -8600.00
01896              25.00    -8600.00
01897               4.20    -8800.00
01898             -25.00    -9000.00
01899               1.00    -9000.00
01900              25.00    -9200.00
01901             -24.20    -9400.00
01902              -9.20    -9600.00
01903              19.60    -9600.00
01904              -4.40    -9800.00
01905             -18.80   -10000.00
01906               6.80   -10400.00
01907              12.20   -10400.00
01908             -17.40   -10400.00
01909              -1.40   -10600.00
01910              11.40   -10800.00
01911              -5.60   -10800.00
01912             -13.00   -11200.00
01913               9.40   -11200.00
01914               1.80   -11400.00
01915             -14.00   -11600.00
01916               5.80   -11600.00
01917               3.60   -11800.00
01918              -9.80   -12000.00
01919              -2.80   -12200.00
01920               7.00   -12200.00
01921              -6.60   -12400.00
01922              -7.00   -12600.00
01923               6.20   -12600.00
01924              -1.40   -12800.00
01925              -7.80   -12800.00
01926               1.40   -13000.00
01927               2.20   -13000.00
01928              -7.00   -13000.00
01929              -2.00   -13000.00
01930               3.20   -13200.00
01931              -3.20   -13200.00
01932              -6.00   -13600.00
01933               2.80   -13600.00
01934               0.40   -13600.00
01935              -7.00   -13600.00
01936              -0.60   -13800.00
01937               2.20   -13800.00
01938              -3.60   -14000.00
01939              -3.80   -14000.00
01940               1.40   -14200.00
01941              -1.00   -14200.00
01942              -5.20   -14000.00
01943              -0.20   -14200.00
01944               0.20   -14400.00
01945              -3.80   -14400.00
01946              -2.20   -14400.00
01947               0.80   -14400.00
01948              -2.00   -14600.00
01949              -4.60   -14400.00
01950              -0.20   -14600.00
01951               0.00   -14600.00
01952              -3.60   -14800.00
01953              -2.20   -14600.00
01954              -0.40   -14800.00
01955              -1.40   -14600.00
01956              -2.80   -14800.00
01957              -1.40   -14800.00
01958              -0.60   -14600.00
01959              -3.00   -14800.00
01960              -2.00   -14800.00
01961              -0.40   -14800.00
01962              -2.00   -14600.00
01963              -2.80   -14800.00
01964              -1.40   -14800.00
01965              -1.20   -14800.00
01966              -2.60   -14600.00
01967              -2.20   -14800.00
01968              -1.40   -14600.00
01969              -1.40   -14400.00
01970              -2.00   -14600.00
01971              -1.80   -14600.00
01972              -2.00   -14400.00
01973              -2.00   -14400.00
01974              -1.80   -14600.00
01975              -1.80   -14400.00
01976              -2.20   -14400.00
01977              -2.00   -14400.00
01978              -1.40   -14400.00
01979              -2.40   -14400.00
01980              -2.20   -14000.00
01981              -1.40   -14000.00
01982              -1.80   -14000.00
01983              -2.00   -14000.00
01984              -1.40   -13800.00
01985              -2.00   -13800.00
01986              -2.20   -13600.00
01987              -2.00   -13600.00
01988              -1.20   -13600.00
01989              -2.00   -13400.00
01990              -2.00   -13400.00
01991              -1.40   -13200.00
01992              -1.80   -13200.00
01993              -1.60   -13000.00
01994              -2.00   -12800.00
01995              -2.00   -12800.00
01996              -1.20   -12800.00
01997              -1.40   -12800.00
01998              -1.80   -12600.00
01999              -2.20   -12400.00
02000              -1.20   -12200.00
02001              -2.00   -12200.00
02002              -2.20   -12200.00
02003              -1.00   -12000.00
02004              -1.80   -11800.00
02005              -1.80   -11600.00
02006              -0.60   -11600.00
02007              -2.00   -11400.00
02008              -1.40   -11400.00
02009              -2.20   -11000.00
02010              -1.20   -10800.00
02011              -1.20   -10800.00
02012              -1.40   -10600.00
02013              -1.40   -10600.00
02014              -1.00   -10200.00
02015              -1.20   -10000.00
02016              -1.80   -10000.00
02017              -1.20   -10000.00
02018              -1.00    -9600.00
02019              -1.80    -9600.00
02020              -0.80    -9400.00
02021              -1.20    -9200.00
02022              -2.00    -9000.00
02023              -1.20    -8800.00
02024              -0.60    -8800.00
02025              -1.00    -8600.00
02026              -1.40    -8400.00
02027              -1.20    -8200.00
02028              -0.60    -8000.00
02029              -1.40    -7800.00
02030              -1.20    -7600.00
02031              -0.60    -7400.00
02032              -1.40    -7400.00
02033              -1.40    -7200.00
02034              -1.00    -6800.00
02035              -1.20    -6600.00
02036              -2.00    -6600.00
02037              -1.20    -6400.00
02038              -0.20    -6400.00
02039              -1.80    -5800.00
02040              -1.20    -5800.00
02041              -0.40    -5600.00
02042              -1.20    -5200.00
02043              -1.40    -5000.00
02044              -0.60    -4600.00
02045              -0.60    -4600.00
02046              -1.20    -4400.00
02047              -0.60    -4400.00
02048              -0.60    -4000.00
02049              -1.00    -4000.00
02050              -1.00    -3800.00
02051              -1.00    -3400.00
02052              -0.60    -3400.00
02053              -1.00    -3200.00
02054              -1.00    -2800.00
02055              -0.60    -2600.00
02056              -0.40    -2400.00
02057              -0.60    -2200.00
02058              -0.60    -2000.00
02059              -0.60    -1800.00
02060              -0.60    -1600.00
02061              -0.40    -1400.00
02062              -0.60    -1200.00
02063              -0.40    -1000.00
02064              -0.40     -800.00
02065              -0.60     -400.00
02066              -0.40     -400.00
02067              -0.40     -200.00
02068              -0.60        0.00
02069              -0.20      200.00
02070               1.60      400.00
02071               1.00      600.00
02072              -1.40      800.00
02073               0.20     1000.00
02074               1.80     1400.00
02075              -0.40     1400.00
02076               0.20     1800.00
02077               6.60     2000.00
02078              20.00     2400.00
02079              -7.40     2600.00
02080             -25.00     2800.00
02081               1.20     2800.00
02082               7.80     2800.00
02083              10.80     3400.00
02084              25.00     3400.00
02085             -25.00     3600.00
02086              23.80     4000.00
02087              25.00     4000.00
02088             -25.00     4000.00
02089             -15.00     4600.00
02090              25.00     4600.00
02091             -25.00     4800.00
02092             -15.80     5400.00
02093              25.00     5400.00
02094              -2.00     5600.00
02095              -9.40     5800.00
02096             -11.60     6000.00
02097              25.00     6200.00
02098              -2.00     6200.00
02099             -25.00     6600.00
02100              25.00     6800.00
02101              18.00     7000.00
02102             -25.00     7200.00
02103              -7.00     7400.00
02104              25.00     7400.00
02105              -1.40     7800.00
02106             -25.00     8000.00
02107              18.60     8000.00
02108              17.20     8400.00
02109             -22.20     8400.00
02110               0.20     8600.00
02111              19.80     8600.00
02112             -10.20     8800.00
02113             -13.40     9200.00
02114              20.60     9200.00
02115               2.00     9600.00
02116             -16.60     9600.00
02117               9.80     9600.00
02118              11.00     9800.00
02119             -12.20    10000.00
02120              -3.00    10200.00
02121              13.80    10400.00
02122              -2.00    10400.00
02123              -7.00    10800.00
02124               7.80    10800.00
02125               5.40    11000.00
02126              -7.40    11000.00
02127               1.00    11200.00
02128               9.40    11600.00
02129              -4.60    11600.00
02130              -2.20    11600.00
02131               8.40    11800.00
02132               0.00    12000.00
02133              -4.80    12000.00
02134               5.40    12200.00
02135               3.80    12400.00
02136              -4.40    12600.00
02137               2.60    12400.00
02138               6.00    12600.00
02139              -2.20    12800.00
02140              -1.00    12800.00
02141               5.20    12800.00
02142               0.40    13000.00
02143              -1.20    13200.00
02144               3.40    13200.00
02145               2.80    13400.00
02146              -1.00    13400.00
02147               1.00    13600.00
02148               3.80    13600.00
02149               0.20    13600.00
02150              -0.60    13600.00
02151               3.40    13800.00
02152               2.60    14000.00
02153              -0.40    14000.00
02154               1.40    14000.00
02155               3.00    14200.00
02156               0.20    14200.00
02157               0.60    14200.00
02158               2.60    14200.00
02159               1.20    14400.00
02160               0.20    14200.00
02161               2.00    14600.00
02162               2.20    14400.00
02163               0.40    14600.00
02164               0.60    14400.00
02165               2.00    14600.00
02166               2.00    14600.00
02167               0.40    14600.00
02168               1.00    14600.00
02169               2.80    14600.00
02170               0.80    14600.00
02171               0.60    14600.00
02172               2.20    14600.00
02173               1.40    14800.00
02174               0.20    14800.00
02175               2.20    14600.00
02176               1.80    14600.00
02177               0.00    14600.00
02178               1.40    14800.00
02179               2.20    14600.00
02180               0.60    14800.00
02181               0.60    14800.00
02182               2.00    14600.00
02183               1.20    14600.00
02184               1.00    14800.00
02185               2.00    14600.00
02186               1.20    14600.00
02187               1.00    14400.00
02188               2.00    14400.00
02189               2.00    14200.00
02190               1.00    14400.00
02191               0.60    14400.00
02192               1.40    14200.00
02193               1.20    14000.00
02194               1.00    14200.00
02195               1.40    14000.00
02196               1.80    14000.00
02197               1.00    14000.00
02198               1.40    13800.00
02199               1.40    13800.00
02200               1.00    13600.00
02201               1.00    13600.00
02202               2.00    13400.00
02203               1.00    13400.00
02204               1.00    13200.00
02205               1.20    13200.00
02206               1.20    13000.00
02207               1.00    12800.00
02208               1.20    13000.00
02209               1.00    12600.00
02210               1.00    12600.00
02211               1.40    12400.00
02212               1.20    12400.00
02213               1.00    12400.00
02214               1.20    12200.00
02215               1.20    12000.00
02216               1.20    12000.00
02217               1.20    11800.00
02218               1.20    11800.00
02219               1.20    11600.00
02220               1.00    11600.00
02221               1.20    11200.00
02222               1.00    11200.00
02223               1.00    11000.00
02224               1.00    10800.00
02225               0.40    10800.00
02226               0.60    10400.00
02227               1.20    10400.00
02228               1.00    10200.00
02229               0.00    10000.00
02230               0.40    10000.00
02231               1.80     9600.00
02232               0.60     9400.00
02233              -0.40     9400.00
02234               1.00     9200.00
02235               1.40     9200.00
02236              -0.20     9000.00
02237              -0.20     8800.00
02238               1.00     8600.00
02239               1.20     8400.00
02240               0.20     8400.00
02241               0.20     8200.00
02242               0.60     8000.00
02243               0.40     7800.00
02244               0.60     7600.00
02245               0.20     7400.00
02246               0.40     7200.00
02247               0.20     7000.00
02248               0.40     6800.00
02249               0.40     6600.00
02250               0.20     6400.00
02251               0.40     6000.00
02252               0.40     6000.00
02253               0.20     6000.00
02254               0.20     5800.00
02255               0.60     5400.00
02256               0.20     5200.00
02257              -0.20     4800.00
02258               0.20     4800.00
02259               0.00     4400.00
02260               0.20     4400.00
02261               0.40     4200.00
02262               0.20     4000.00
02263               0.20     3800.00
02264               0.40     3600.00
02265              -0.40     3400.00
02266               0.40     3200.00
02267               0.20     3000.00
02268              -0.20     2800.00
02269               0.20     2400.00
02270               0.20     2400.00
02271              -0.20     2000.00
02272              -0.40     2000.00
02273               0.20     1800.00
02274               0.00     1400.00
02275              -0.40     1200.00
02276               0.20     1000.00
02277               0.00      800.00
02278              -0.40      600.00
02279              -0.20      400.00
02280              -0.20      200.00
02281              -0.20        0.00
02282              -0.60     -200.00
02283               0.80     -400.00
02284               1.40     -600.00
02285               0.00     -800.00
02286              -1.00    -1000.00
02287              -0.40    -1200.00
02288               0.60    -1600.00
02289              -0.60    -1600.00
02290               3.00    -1800.00
02291              25.00    -2200.00
02292             -11.20    -2600.00
02293             -25.00    -2800.00
02294               1.00    -2800.00
02295               6.00    -2800.00
02296              25.00    -3200.00
02297             -10.60    -3600.00
02298             -25.00    -3200.00
02299              25.00    -3800.00
02300              25.00    -4200.00
02301             -25.00    -4000.00
02302              25.00    -4400.00
02303              25.00    -4600.00
02304             -25.00    -4600.00
02305              25.00    -5200.00
02306              22.60    -5000.00
02307             -12.40    -5600.00
02308              -6.20    -5600.00
02309             -25.00    -5600.00
02310              25.00    -6200.00
02311             -25.00    -6200.00
02312             -25.00    -6400.00
02313              25.00    -6800.00
02314              -8.60    -6600.00
02315             -25.00    -7200.00
02316              15.40    -7200.00
02317              25.00    -7400.00
02318             -25.00    -7600.00
02319             -25.00    -7600.00
02320              25.00    -8200.00
02321              -9.40    -8000.00
02322             -25.00    -8400.00
02323              23.00    -8400.00
02324              12.60    -8800.00
02325             -22.80    -9000.00
02326             -12.20    -9000.00
02327              25.00    -9200.00
02328             -12.40    -9200.00
02329             -18.80    -9400.00
02330              18.60    -9600.00
02331               2.00    -9800.00
02332             -17.40   -10000.00
02333              -0.60   -10000.00
02334              16.40   -10400.00
02335             -13.40   -10400.00
02336              -7.00   -10600.00
02337              11.60   -10800.00
02338              -1.00   -10800.00
02339             -13.40   -11000.00
02340               3.80   -11200.00
02341               7.60   -11400.00
02342             -14.20   -11400.00
02343               1.60   -11600.00
02344               7.40   -11800.00
02345              -7.40   -12000.00
02346              -5.60   -12000.00
02347               6.80   -12200.00
02348              -3.00   -12400.00
02349              -8.80   -12200.00
02350               4.60   -12400.00
02351               1.20   -12800.00
02352              -7.00   -12800.00
02353              -1.00   -12800.00
02354               2.60   -13000.00
02355              -5.20   -13000.00
02356              -3.60   -13200.00
02357               2.00   -13200.00
02358              -1.20   -13200.00
02359              -5.80   -13400.00
02360              -0.40   -13600.00
02361               2.00   -13600.00
02362              -6.20   -13600.00
02363              -3.00   -13600.00
02364               2.00   -13800.00
02365              -1.60   -14000.00
02366              -5.00   -14000.00
02367              -0.60   -14000.00
02368               0.60   -14200.00
02369              -5.00   -14000.00
02370              -2.20   -14400.00
02371               1.00   -14400.00
02372              -3.00   -14400.00
02373              -3.60   -14400.00
02374               0.20   -14400.00
02375              -1.20   -14600.00
02376              -4.40   -14400.00
02377              -2.00   -14600.00
02378               0.00   -14600.00
02379              -2.80   -14600.00
02380              -3.40   -14600.00
02381              -0.60   -14600.00
02382              -1.20   -14800.00
02383              -3.00   -14600.00
02384              -2.00   -14800.00
02385              -0.60   -14800.00
02386              -2.40   -14800.00
02387              -2.80   -14600.00
02388              -0.60   -14800.00
02389              -1.80   -14600.00
02390              -2.80   -14800.00
02391              -1.80   -14800.00
02392              -1.40   -14800.00
02393              -2.20   -14600.00
02394              -2.20   -14800.00
02395              -1.40   -14600.00
02396              -1.40   -14600.00
02397              -1.80   -14800.00
02398              -2.20   -14600.00
02399              -2.00   -14600.00
02400              -1.40   -14600.00
02401              -2.20   -14400.00
02402              -1.80   -14400.00
02403              -1.60   -14400.00
02404              -2.00   -14400.00
02405              -2.00   -14000.00
02406              -1.40   -14400.00
02407              -1.80   -14200.00
02408              -2.20   -14000.00
02409              -2.00   -14000.00
02410              -1.20   -13800.00
02411              -1.40   -13800.00
02412              -2.60   -13600.00
02413              -1.20   -13600.00
02414              -1.00   -13600.00
02415              -2.60   -13400.00
02416              -2.00   -13600.00
02417              -0.60   -13200.00
02418              -2.20   -13200.00
02419              -2.60   -13000.00
02420              -0.60   -13200.00
02421              -1.40   -13000.00
02422              -3.00   -12800.00
02423              -2.00   -12800.00
02424              -0.60   -12800.00
02425              -1.80   -12400.00
02426              -3.20   -12400.00
02427              -1.20   -12400.00
02428              -1.20   -12200.00
02429              -2.20   -12200.00
02430              -1.40   -12000.00
02431              -1.20   -12000.00
02432              -1.80   -11600.00
02433              -1.40   -11600.00
02434              -2.40   -11600.00
02435              -1.20   -11200.00
02436              -1.80   -11000.00
02437              -3.00   -11000.00
02438              -0.60   -10800.00
02439              -0.40   -10800.00
02440              -3.80   -10600.00
02441              -1.20   -10400.00
02442               1.00   -10400.00
02443              -3.00   -10000.00
02444              -2.80   -10000.00
02445               0.60    -9800.00
02446              -2.40    -9600.00
02447              -2.60    -9600.00
02448               0.40    -9200.00
02449              -1.20    -9200.00
02450              -2.40    -9000.00
02451              -0.60    -8800.00
02452              -1.20    -8600.00
02453              -1.80    -8400.00
02454              -1.00    -8200.00
02455              -1.40    -8000.00
02456              -1.00    -8000.00
02457              -0.40    -7600.00
02458              -1.40    -7400.00
02459              -1.40    -7200.00
02460               0.00    -7200.00
02461              -1.20    -6800.00
02462              -2.00    -6800.00
02463              -0.20    -6400.00
02464              -1.00    -6400.00
02465              -1.80    -6400.00
02466              -0.40    -6000.00
02467              -0.40    -6000.00
02468              -1.80    -5800.00
02469              -0.60    -5600.00
02470              -0.60    -5200.00
02471              -0.60    -5000.00
02472              -1.20    -4600.00
02473              -0.60    -4600.00
02474              -0.40    -4400.00
02475              -0.60    -4200.00
02476              -1.00    -4000.00
02477              -0.40    -3800.00
02478              -0.60    -3600.00
02479              -1.00    -3400.00
02480              -0.20    -3200.00
02481              -0.60    -3000.00
02482              -1.00    -2800.00
02483              -0.40    -2600.00
02484              -0.40    -2400.00
02485              -1.00    -2400.00
02486              -0.60    -2000.00
02487              -0.40    -1800.00
02488              -0.40    -1600.00
02489              -0.40    -1200.00
02490              -0.60    -1000.00
02491              -0.60     -800.00
02492              -0.60     -600.00
02493              -0.20     -400.00
02494              -0.40     -200.00
02495              -0.40        0.00
02496              -0.20      200.00
02497               1.00      400.00
02498               1.20      600.00
02499              -1.20      800.00
02500              -0.40     1200.00
02501               1.00     1200.00
02502               0.40     1400.00
02503              -0.20     1800.00
02504               3.40     2000.00
02505              17.80     2200.00
02506               4.60     2400.00
02507             -25.00     2800.00
02508              -9.20     2800.00
02509              10.60     2800.00
02510               1.40     3200.00
02511              25.00     3600.00
02512             -25.00     3600.00
02513             -18.20     4000.00
02514              25.00     4000.00
02515             -25.00     4000.00
02516             -25.00     4600.00
02517              25.00     4400.00
02518             -14.20     4600.00
02519             -25.00     5200.00
02520              25.00     5400.00
02521               4.20     5400.00
02522              -8.20     5600.00
02523             -14.40     6000.00
02524              18.80     6000.00
02525              13.40     6200.00
02526             -25.00     6600.00
02527              15.00     6800.00
02528              25.00     7000.00
02529             -22.40     7000.00
02530             -17.00     7200.00
02531              23.00     7600.00
02532              11.80     7600.00
02533             -25.00     8000.00
02534               6.60     8000.00
02535              25.00     8200.00
02536             -17.20     8400.00
02537              -9.00     8600.00
02538              20.40     8600.00
02539              -1.00     9000.00
02540             -19.20     9000.00
02541              15.00     9200.00
02542              11.40     9400.00
02543             -17.40     9600.00
02544               3.40     9600.00
02545              15.40     9800.00
02546              -8.60    10200.00
02547              -7.80    10200.00
02548              12.60    10400.00
02549               2.20    10600.00
02550              -8.60    10800.00
02551               4.60    10800.00
02552               8.20    10800.00
02553              -6.00    11000.00
02554              -3.00    11200.00
02555              10.20    11200.00
02556              -1.80    11400.00
02557              -6.00    11600.00
02558               8.20    11800.00
02559               3.40    11800.00
02560              -7.00    12000.00
02561               2.60    12200.00
02562               6.60    12200.00
02563              -3.80    12400.00
02564              -1.00    12400.00
02565               6.80    12600.00
02566               0.60    12600.00
02567              -3.80    12800.00
02568               3.60    12800.00
02569               4.20    13000.00
02570              -2.80    13200.00
02571               0.20    13200.00
02572               4.40    13200.00
02573               1.40    13400.00
02574              -1.80    13400.00
02575               2.20    13600.00
02576               2.60    13600.00
02577              -1.20    13600.00
02578               0.60    13800.00
02579               3.60    14000.00
02580               1.20    14000.00
02581              -0.40    14000.00
02582               2.00    14200.00
02583               1.80    14200.00
02584               0.40    14200.00
02585               1.20    14200.00
02586               2.00    14400.00
02587               1.00    14200.00
02588               1.00    14600.00
02589               2.00    14400.00
02590               0.60    14600.00
02591               0.20    14400.00
02592               2.80    14400.00
02593               2.60    14600.00
02594               0.00    14600.00
02595               1.20    14800.00
02596               2.60    14800.00
02597               0.60    14600.00
02598               0.40    14800.00
02599               2.60    14800.00
02600               2.20    14800.00
02601               0.40    14800.00
02602               1.80    14800.00
02603               2.60    14800.00
02604               1.20    14600.00
02605              -0.60    14800.00
02606               1.60    14800.00
02607               4.20    14800.00
02608              -0.20    14600.00
02609              -0.20    14600.00
02610               3.60    14600.00
02611               0.60    14400.00
02612               0.80    14600.00
02613               1.40    14600.00
02614               2.80    14400.00
02615              -0.20    14600.00
02616               0.20    14400.00
02617               3.40    14200.00
02618               0.60    14200.00
02619              -0.40    14200.00
02620               2.40    14200.00
02621               2.00    14000.00
02622               1.00    14000.00
02623              -1.40    14000.00
02624               3.00    13800.00
02625               2.00    13800.00
02626              -0.40    13800.00
02627               0.60    13600.00
02628               2.60    13600.00
02629               1.20    13400.00
02630              -1.40    13400.00
02631               2.20    13400.00
02632               3.40    13200.00
02633              -1.20    13000.00
02634               0.40    13200.00
02635               3.60    12800.00
02636               0.40    12800.00
02637              -2.00    12600.00
02638               2.80    12600.00
02639               2.80    12400.00
02640              -1.40    12400.00
02641               1.40    12400.00
02642               2.80    12200.00
02643              -0.40    11800.00
02644              -0.40    11800.00
02645               2.60    11800.00
02646               1.60    11600.00
02647               0.20    11600.00
02648               1.80    11400.00
02649               1.80    11200.00
02650              -0.20    11000.00
02651               0.40    11000.00
02652               1.00    10800.00
02653               1.00    10600.00
02654               1.20    10400.00
02655               1.00    10200.00
02656               0.60    10200.00
02657               0.60    10000.00
02658               1.00    10000.00
02659               0.40     9600.00
02660               1.20     9600.00
02661               1.20     9200.00
02662               1.00     9200.00
02663               0.80     8800.00
02664               0.20     8800.00
02665               0.60     8600.00
02666               1.00     8600.00
02667               0.60     8400.00
02668               0.40     8000.00
02669               1.20     8000.00
02670               1.20     7800.00
02671              -0.60     7600.00
02672               0.40     7600.00
02673               1.40     7200.00
02674               0.20     7000.00
02675               0.20     6800.00
02676               1.60     6600.00
02677               0.40     6400.00
02678              -0.60     6200.00
02679               0.60     6000.00
02680               1.00     6000.00
02681              -0.60     5600.00
02682               0.20     5400.00
02683               1.20     5200.00
02684              -0.20     5000.00
02685              -0.60     4600.00
02686               0.60     4600.00
02687               0.40     4400.00
02688              -0.60     4200.00
02689               0.40     4000.00
02690               0.60     3800.00
02691              -0.40     3600.00
02692              -0.60     3600.00
02693               0.40     3200.00
02694               0.40     2800.00
02695              -1.00     2800.00
02696               0.40     2600.00
02697               0.40     2200.00
02698              -0.60     2200.00
02699              -0.60     2000.00
02700               0.20     1800.00
02701               0.20     1600.00
02702              -0.60     1400.00
02703              -0.20     1200.00
02704              -0.20      800.00
02705              -0.40      600.00
02706              -0.60      400.00
02707              -0.20      400.00
02708               0.20        0.00
02709              -0.60     -200.00
02710              -0.20     -400.00
02711               1.00     -400.00
02712               1.60     -800.00
02713              -2.20    -1000.00
02714              -0.60    -1000.00
02715               1.80    -1400.00
02716              -1.00    -1600.00
02717              -0.60    -1600.00
02718              25.00    -2000.00
02719               5.40    -2600.00
02720             -25.00    -2800.00
02721              -8.60    -2800.00
02722               8.20    -2600.00
02723              25.00    -3000.00
02724              22.80    -3600.00
02725             -25.00    -3200.00
02726              25.00    -3600.00
02727              25.00    -4000.00
02728             -25.00    -4000.00
02729               0.20    -4200.00
02730              25.00    -4800.00
02731             -25.00    -4400.00
02732               6.80    -5000.00
02733              25.00    -5000.00
02734             -18.20    -5400.00
02735               4.60    -5800.00
02736             -25.00    -5600.00
02737              25.00    -6000.00
02738              18.60    -6400.00
02739             -25.00    -6200.00
02740              25.00    -6600.00
02741              25.00    -6600.00
02742             -25.00    -6800.00
02743               2.00    -7200.00
02744              25.00    -7200.00
02745              -8.20    -7600.00
02746             -25.00    -7600.00
02747              25.00    -8000.00
02748              17.00    -8200.00
02749             -25.00    -8200.00
02750              14.20    -8800.00
02751              21.20    -8400.00
02752             -15.60    -8800.00
02753             -23.60    -9000.00
02754              25.00    -9200.00
02755               3.40    -9200.00
02756             -25.00    -9600.00
02757              13.80    -9600.00
02758              10.20    -9800.00
02759             -16.80   -10000.00
02760              -8.40   -10000.00
02761              17.80   -10400.00
02762              -7.00   -10600.00
02763             -14.00   -10600.00
02764              10.40   -10800.00
02765               3.40   -10800.00
02766             -13.40   -11000.00
02767              -2.00   -11200.00
02768              11.60   -11400.00
02769             -11.80   -11400.00
02770              -4.60   -11600.00
02771               9.00   -11600.00
02772              -4.60   -12000.00
02773              -8.60   -12000.00
02774               4.80   -12000.00
02775               1.80   -12200.00
02776             -10.80   -12400.00
02777               1.80   -12400.00
02778               4.40   -12800.00
02779              -7.00   -12800.00
02780              -4.20   -12800.00
02781               4.20   -13000.00
02782              -3.40   -13000.00
02783              -6.00   -13200.00
02784               2.00   -13000.00
02785               1.00   -13200.00
02786              -6.00   -13200.00
02787              -2.00   -13600.00
02788               3.40   -13600.00
02789              -4.40   -13600.00
02790              -4.40   -13800.00
02791               2.00   -13800.00
02792              -0.80   -14000.00
02793              -4.60   -14000.00
02794              -1.40   -14000.00
02795               0.60   -14200.00
02796              -3.60   -14000.00
02797              -2.80   -14200.00
02798               0.40   -14400.00
02799              -2.00   -14400.00
02800              -3.40   -14400.00
02801              -0.80   -14400.00
02802              -0.20   -14400.00
02803              -3.40   -14600.00
02804              -2.60   -14600.00
02805               0.40   -14600.00
02806              -1.80   -14600.00
02807              -3.40   -14600.00
02808              -1.20   -14800.00
02809              -1.00   -14600.00
02810              -2.80   -14600.00
02811              -2.20   -14600.00
02812              -1.00   -14800.00
02813              -1.80   -14800.00
02814              -2.60   -14800.00
02815              -1.20   -14800.00
02816              -1.20   -14800.00
02817              -2.80   -14800.00
02818              -2.40   -14600.00
02819              -1.20   -14800.00
02820              -2.00   -14800.00
02821              -2.60   -14600.00
02822              -1.80   -14600.00
02823              -1.40   -14600.00
02824              -1.80   -14600.00
02825              -2.00   -14600.00
02826              -2.00   -14600.00
02827              -2.00   -14600.00
02828              -2.00   -14400.00
02829              -2.00   -14400.00
02830              -1.40   -14400.00
02831              -2.20   -14400.00
02832              -2.00   -14400.00
02833              -1.80   -14400.00
02834              -2.00   -14200.00
02835              -2.20   -14000.00
02836              -2.00   -14000.00
02837              -1.80   -13800.00
02838              -1.80   -13800.00
02839              -2.20   -13800.00
02840              -2.00   -13800.00
02841              -1.40   -13600.00
02842              -1.80   -13600.00
02843              -2.00   -13600.00
02844              -1.40   -13200.00
02845              -1.40   -13400.00
02846              -2.20   -13200.00
02847              -1.40   -13000.00
02848              -1.40   -13000.00
02849              -2.20   -12800.00
02850              -1.80   -12800.00
02851              -1.20   -12600.00
02852              -1.40   -12600.00
02853              -2.20   -12400.00
02854              -1.60   -12400.00
02855              -1.20   -12200.00
02856              -1.80   -12200.00
02857              -1.40   -12000.00
02858              -1.40   -12000.00
02859              -2.20   -11600.00
02860              -1.00   -11600.00
02861              -1.20   -11400.00
02862              -2.20   -11400.00
02863              -1.20   -11000.00
02864              -1.20   -11000.00
02865              -1.80   -11000.00
02866              -1.20   -10600.00
02867              -1.40   -10600.00
02868              -1.40   -10400.00
02869              -1.00   -10200.00
02870              -1.20   -10000.00
02871              -1.80   -10000.00
02872              -1.20    -9800.00
02873              -1.80    -9600.00
02874              -1.40    -9600.00
02875              -1.00    -9200.00
02876              -1.40    -9200.00
02877              -1.40    -9000.00
02878              -0.60    -8800.00
02879              -1.20    -8600.00
02880              -1.40    -8400.00
02881              -1.20    -8400.00
02882              -1.40    -8000.00
02883              -1.20    -8000.00
02884              -1.20    -7600.00
02885              -1.00    -7400.00
02886              -1.20    -7400.00
02887              -1.40    -7200.00
02888              -1.00    -7000.00
02889              -1.20    -6800.00
02890              -1.40    -6600.00
02891              -1.20    -6400.00
02892              -1.00    -6200.00
02893              -1.00    -6000.00
02894              -1.20    -5800.00
02895              -1.00    -5800.00
02896              -1.00    -5600.00
02897              -1.00    -5200.00
02898              -1.00    -5000.00
02899              -1.20    -4600.00
02900              -1.20    -4600.00
02901              -0.60    -4400.00
02902              -0.80    -4200.00
02903              -0.60    -4000.00
02904              -1.00    -3800.00
02905              -0.60    -3600.00
02906              -0.60    -3400.00
02907              -0.60    -3200.00
02908              -0.60    -3000.00
02909              -1.00    -2800.00
02910              -0.60    -2600.00
02911              -0.40    -2400.00
02912              -0.60    -2200.00
02913              -1.00    -2000.00
02914              -0.40    -1600.00
02915              -0.20    -1400.00
02916              -0.40    -1200.00
02917              -0.40    -1000.00
02918              -0.40     -800.00
02919              -0.40     -600.00
02920              -0.40     -400.00
02921               0.20     -200.00
02922              -0.60        0.00
02923               0.20      200.00
02924               1.20      400.00
02925               1.40      600.00
02926              -0.40      800.00
02927              -0.40      800.00
02928              -0.20     1200.00
02929               1.20     1400.00
02930               0.20     1600.00
02931               1.40     2000.00
02932              14.60     2200.00
02933              15.40     2400.00
02934             -25.00     2600.00
02935             -21.40     2800.00
02936              12.20     2800.00
02937              -0.80     3200.00
02938              25.00     3400.00
02939             -20.20     3200.00
02940             -25.00     3800.00
02941              25.00     4000.00
02942               9.80     3800.00
02943             -25.00     4400.00
02944              25.00     4600.00
02945              23.20     4600.00
02946             -25.00     5200.00
02947              24.60     5400.00
02948              13.00     5400.00
02949              -8.20     5800.00
02950             -14.40     6000.00
02951               7.80     6200.00
02952              24.40     6200.00
02953             -25.00     6400.00
02954              -1.20     6800.00
02955              25.00     6800.00
02956             -13.40     7000.00
02957             -24.60     7200.00
02958              15.40     7200.00
02959              21.80     7600.00
02960             -25.00     7800.00
02961              -7.00     8000.00
02962              25.00     8200.00
02963              -8.00     8400.00
02964             -17.20     8600.00
02965              17.00     8600.00
02966               7.60     8800.00
02967             -21.80     9000.00
02968               6.60     9200.00
02969              18.80     9400.00
02970             -14.20     9600.00
02971              -4.60     9600.00
02972              17.00    10000.00
02973              -2.80    10000.00
02974             -12.40    10200.00
02975               9.00    10200.00
02976               7.60    10400.00
02977              -8.20    10600.00
02978               0.20    10800.00
02979               9.40    11000.00
02980              -2.20    11000.00
02981              -5.40    11200.00
02982               7.20    11200.00
02983               3.00    11600.00
02984              -6.00    11800.00
02985               4.40    11800.00
02986               5.60    12000.00
02987              -4.20    12000.00
02988               0.00    12400.00
02989               6.20    12400.00
02990              -1.40    12400.00
02991              -1.80    12400.00
02992               5.40    12800.00
02993               2.00    12600.00
02994              -2.60    12800.00
02995               2.60    12800.00
02996               3.60    13200.00
02997              -1.80    13000.00
02998               1.00    13200.00
02999               3.80    13200.00
03000               0.60    13400.00
03001              -0.40    13400.00
03002               2.20    13600.00
03003               2.60    13600.00
03004              -0.80    13800.00
03005               1.20    13800.00
03006               3.00    14000.00
03007               0.40    14000.00
03008               0.40    14000.00
03009               2.20    14200.00
03010               1.00    14000.00
03011              -0.20    14200.00
03012               2.20    14200.00
03013               1.80    14400.00
03014               0.40    14400.00
03015               1.80    14600.00
03016               2.60    14600.00
03017               0.40    14400.00
03018               0.20    14600.00
03019               2.20    14400.00
03020               2.00    14600.00
03021               0.20    14600.00
03022               1.20    14600.00
03023               2.00    14600.00
03024               1.20    14600.00
03025               0.40    14800.00
03026               1.40    14600.00
03027               2.20    14800.00
03028               1.00    14600.00
03029               1.00    14800.00
03030               2.20    14800.00
03031               1.20    14800.00
03032               0.40    14800.00
03033               2.00    14600.00
03034               2.20    14600.00
03035               1.00    14800.00
03036               1.00    14800.00
03037               2.00    14400.00
03038               1.20    14600.00
03039               1.00    14400.00
03040               1.60    14600.00
03041               1.80    14600.00
03042               0.20    14400.00
03043               1.20    14400.00
03044               1.80    14600.00
03045               1.00    14200.00
03046               1.20    14400.00
03047               2.80    14200.00
03048               1.20    14000.00
03049               0.40    14000.00
03050               1.20    14000.00
03051               1.80    13800.00
03052               0.80    13800.00
03053               1.00    13600.00
03054               1.40    13800.00
03055               1.20    13600.00
03056               0.60    13400.00
03057               1.80    13400.00
03058               1.80    13200.00
03059               0.40    13200.00
03060               1.20    13000.00
03061               2.20    13000.00
03062               1.00    12800.00
03063               0.40    12800.00
03064               1.40    12800.00
03065               1.60    12600.00
03066               1.00    12600.00
03067               1.00    12400.00
03068               1.20    12200.00
03069               0.80    12000.00
03070               1.00    12200.00
03071               1.20    11800.00
03072               1.00    11800.00
03073               1.00    11600.00
03074               1.00    11400.00
03075               1.20    11400.00
03076               0.60    11200.00
03077               0.60    11000.00
03078               0.40    11000.00
03079               0.80    10800.00
03080               1.00    10600.00
03081               0.60    10400.00
03082               0.80    10200.00
03083               0.60    10000.00
03084               0.60    10000.00
03085               0.60    10000.00
03086               0.40     9600.00
03087               1.00     9600.00
03088               0.60     9400.00
03089               0.20     9200.00
03090               1.00     9000.00
03091               0.40     8800.00
03092              -0.20     8600.00
03093               1.00     8600.00
03094               1.40     8400.00
03095              -0.20     8200.00
03096              -0.20     8000.00
03097               1.20     7800.00
03098               0.40     7600.00
03099              -0.60     7600.00
03100               0.60     7200.00
03101               1.20     7200.00
03102              -0.20     6800.00
03103              -0.20     6800.00
03104               1.00     6600.00
03105               0.40     6200.00
03106              -0.40     6200.00
03107               0.60     6000.00
03108               1.00     5800.00
03109               0.00     5600.00
03110              -0.20     5400.00
03111               0.40     5000.00
03112               0.40     5000.00
03113              -0.20     4600.00
03114               0.20     4400.00
03115               0.60     4400.00
03116               0.20     4000.00
03117               0.20     3800.00
03118               0.00     3800.00
03119              -0.40     3600.00
03120              -0.20     3200.00
03121               0.40     3000.00
03122               0.20     2800.00
03123              -0.20     2800.00
03124               0.40     2400.00
03125               0.20     2200.00
03126              -0.40     2000.00
03127              -0.40     1800.00
03128              -0.40     1600.00
03129              -0.20     1400.00
03130               0.40     1200.00
03131              -0.20     1000.00
03132              -0.20      600.00
03133              -0.40      600.00
03134              -0.60      400.00
03135              -0.40        0.00
03136               0.20        0.00
03137              -0.60     -400.00
03138               1.00     -400.00
03139               1.80     -800.00
03140              -1.80    -1000.00
03141              -1.60    -1000.00
03142               1.20    -1400.00
03143              -0.20    -1600.00
03144              -0.40    -1800.00
03145              15.00    -2000.00
03146              20.40    -2400.00
03147             -25.00    -2600.00
03148             -23.00    -2800.00
03149               9.80    -3000.00
03150              25.00    -2800.00
03151              25.00    -3600.00
03152             -25.00    -3400.00
03153               6.80    -3400.00
03154              25.00    -4400.00
03155             -25.00    -4000.00
03156             -25.00    -4200.00
03157              25.00    -4800.00
03158             -25.00    -4400.00
03159             -25.00    -4800.00
03160              25.00    -5000.00
03161             -15.60    -5200.00
03162               7.80    -6000.00
03163             -25.00    -5600.00
03164              24.80    -6000.00
03165              25.00    -6200.00
03166             -25.00    -6000.00
03167              25.00    -6800.00
03168              25.00    -6600.00
03169             -25.00    -6800.00
03170             -13.20    -7200.00
03171              25.00    -7200.00
03172              12.60    -7600.00
03173             -25.00    -7800.00
03174              21.20    -8000.00
03175              25.00    -8200.00
03176             -25.00    -8200.00
03177              -0.20    -8800.00
03178              25.00    -8400.00
03179              -6.60    -8800.00
03180             -25.00    -9000.00
03181              17.00    -9000.00
03182              18.60    -9400.00
03183             -25.00    -9400.00
03184               4.60    -9800.00
03185              16.40    -9800.00
03186             -11.60   -10000.00
03187             -14.80   -10200.00
03188              14.80   -10000.00
03189               2.80   -10400.00
03190             -17.80   -10600.00
03191               6.40   -10800.00
03192               8.40   -10800.00
03193             -11.00   -11000.00
03194              -7.60   -11200.00
03195              12.80   -11400.00
03196              -6.00   -11400.00
03197              -9.40   -11600.00
03198               9.20   -11600.00
03199              -0.60   -11800.00
03200              -9.80   -12000.00
03201               1.40   -12200.00
03202               5.20   -12400.00
03203              -9.80   -12400.00
03204              -2.40   -12400.00
03205               6.00   -12600.00
03206              -4.60   -12800.00
03207              -6.40   -12800.00
03208               3.40   -13000.00
03209              -1.00   -13000.00
03210              -6.80   -13000.00
03211               0.40   -13200.00
03212               2.00   -13400.00
03213              -4.60   -13200.00
03214              -3.80   -13600.00
03215               3.00   -13600.00
03216              -2.60   -13600.00
03217              -6.00   -13600.00
03218               1.20   -13800.00
03219               0.40   -13800.00
03220              -4.40   -13800.00
03221              -2.80   -14000.00
03222               1.00   -14400.00
03223              -2.80   -14000.00
03224              -4.00   -14400.00
03225               0.40   -14200.00
03226              -1.40   -14400.00
03227              -3.80   -14400.00
03228              -1.20   -14600.00
03229              -0.40   -14400.00
03230              -2.80   -14400.00
03231              -3.00   -14600.00
03232              -0.20   -14600.00
03233              -1.00   -14600.00
03234              -3.60   -14600.00
03235              -2.00   -14600.00
03236              -1.00   -14800.00
03237              -2.20   -14800.00
03238              -2.80   -14800.00
03239              -1.40   -14800.00
03240              -1.40   -14800.00
03241              -2.40   -14800.00
03242              -1.80   -14800.00
03243              -1.20   -14800.00
03244              -2.00   -14800.00
03245              -2.20   -14800.00
03246              -1.40   -14800.00
03247              -1.20   -14600.00
03248              -2.20   -14800.00
03249              -2.20   -14600.00
03250              -1.20   -14600.00
03251              -1.40   -14800.00
03252              -2.20   -14600.00
03253              -2.20   -14600.00
03254              -1.80   -14600.00
03255              -1.80   -14400.00
03256              -2.00   -14400.00
03257              -1.40   -14400.00
03258              -2.00   -14400.00
03259              -2.00   -14400.00
03260              -1.80   -14200.00
03261              -1.20   -14000.00
03262              -2.20   -14200.00
03263              -2.20   -14000.00
03264              -1.40   -14000.00
03265              -1.40   -14000.00
03266              -2.20   -13800.00
03267              -2.20   -13600.00
03268              -1.40   -13600.00
03269              -1.80   -13600.00
03270              -2.20   -13600.00
03271              -1.40   -13400.00
03272              -1.40   -13200.00
03273              -2.20   -13200.00
03274              -1.40   -13200.00
03275              -1.20   -13000.00
03276              -2.60   -13000.00
03277              -2.20   -12800.00
03278              -1.20   -12800.00
03279              -1.80   -12600.00
03280              -2.20   -12400.00
03281              -2.20   -12400.00
03282              -1.20   -12200.00
03283              -2.00   -12000.00
03284              -2.00   -12000.00
03285              -1.40   -11800.00
03286              -2.00   -11800.00
03287              -1.60   -11600.00
03288              -0.80   -11400.00
03289              -2.40   -11400.00
03290              -1.40   -11400.00
03291              -1.80   -11000.00
03292              -1.40   -11000.00
03293              -1.80   -10600.00
03294              -1.80   -10800.00
03295              -1.80   -10400.00
03296              -1.20   -10400.00
03297              -1.20   -10000.00
03298              -1.80   -10000.00
03299              -1.40    -9800.00
03300              -1.40    -9600.00
03301              -1.40    -9600.00
03302              -1.20    -9200.00
03303              -1.40    -9200.00
03304              -1.00    -9000.00
03305              -1.20    -8800.00
03306              -1.20    -8600.00
03307              -0.80    -8400.00
03308              -1.40    -8200.00
03309              -1.40    -8200.00
03310              -0.40    -8000.00
03311              -1.40    -7800.00
03312              -1.80    -7600.00
03313              -0.40    -7400.00
03314              -1.20    -7200.00
03315              -1.80    -7000.00
03316              -0.60    -6800.00
03317              -0.60    -6600.00
03318              -1.40    -6400.00
03319              -0.60    -6200.00
03320              -0.40    -6000.00
03321              -1.20    -5800.00
03322              -0.60    -5600.00
03323              -0.60    -5400.00
03324              -0.60    -5200.00
03325              -0.80    -5000.00
03326              -0.60    -4800.00
03327              -1.00    -4600.00
03328              -0.60    -4400.00
03329              -0.60    -4200.00
03330              -0.40    -4200.00
03331              -0.60    -3800.00
03332              -0.80    -3600.00
03333              -0.60    -3600.00
03334              -0.60    -3200.00
03335              -1.00    -3200.00
03336              -1.00    -2800.00
03337              -0.60    -2600.00
03338              -0.40    -2400.00
03339              -0.80    -2200.00
03340              -0.60    -2000.00
03341              -0.60    -1800.00
03342              -0.60    -1600.00
03343              -0.60    -1200.00
03344              -0.60    -1000.00
03345              -0.60     -800.00
03346              -0.40     -800.00
03347              -0.40     -400.00
03348              -0.40     -200.00
03349              -0.20        0.00
03350              -0.40        0.00
03351               0.40      400.00
03352               2.20      600.00
03353              -0.40      600.00
03354              -1.80      800.00
03355               0.80     1200.00
03356               1.20     1400.00
03357              -0.60     1600.00
03358               1.00     1800.00
03359              10.60     2000.00
03360              19.20     2400.00
03361             -22.00     2600.00
03362             -25.00     2800.00
03363               9.40     2800.00
03364               3.20     3000.00
03365              25.00     3400.00
03366               4.40     3400.00
03367             -25.00     3600.00
03368              25.00     4000.00
03369              25.00     4000.00
03370             -25.00     4400.00
03371              25.00     4600.00
03372              25.00     4600.00
03373             -25.00     4800.00
03374               8.80     5200.00
03375              22.60     5400.00
03376              -6.60     5600.00
03377             -11.80     5600.00
03378              -2.60     6000.00
03379              25.00     6200.00
03380             -21.40     6400.00
03381             -17.40     6800.00
03382              25.00     6800.00
03383               0.20     7000.00
03384             -25.00     7200.00
03385               5.40     7200.00
03386              25.00     7600.00
03387             -16.20     7800.00
03388             -19.00     8000.00
03389              25.00     8200.00
03390               3.80     8400.00
03391             -22.20     8600.00
03392              10.80     8600.00
03393              14.80     8600.00
03394             -18.20     9000.00
03395              -2.60     9200.00
03396              22.60     9400.00
03397              -8.20     9400.00
03398             -11.60     9600.00
03399              15.60    10000.00
03400               3.40    10000.00
03401             -13.80    10000.00
03402               4.20    10400.00
03403              11.40    10400.00
03404              -6.60    10600.00
03405              -3.60    10600.00
03406               9.40    10800.00
03407               0.60    11000.00
03408              -7.80    11200.00
03409               5.60    11200.00
03410               6.20    11200.00
03411              -7.00    11600.00
03412               1.80    11600.00
03413               7.80    12000.00
03414              -3.80    11800.00
03415              -2.40    12000.00
03416               7.00    12400.00
03417               0.40    12400.00
03418              -4.40    12400.00
03419               4.60    12600.00
03420               3.80    12800.00
03421              -3.40    12800.00
03422               1.20    12800.00
03423               4.40    13200.00
03424              -1.00    13200.00
03425              -0.40    13200.00
03426               4.00    13400.00
03427               1.00    13200.00
03428              -1.00    13600.00
03429               2.00    13600.00
03430               3.00    13600.00
03431              -1.00    13600.00
03432               0.20    13600.00
03433               3.60    14000.00
03434               1.20    14000.00
03435              -0.60    14200.00
03436               2.20    14200.00
03437               2.00    14200.00
03438               0.20    14200.00
03439               1.40    14600.00
03440               2.60    14400.00
03441               0.80    14600.00
03442               0.40    14400.00
03443               2.60    14400.00
03444               2.00    14600.00
03445               0.20    14400.00
03446               1.80    14600.00
03447               2.40    14600.00
03448               0.60    14600.00
03449               1.00    14600.00
03450               1.80    14600.00
03451               1.60    14600.00
03452               1.00    14800.00
03453               1.40    14600.00
03454               2.00    14600.00
03455               1.20    14800.00
03456               1.40    14800.00
03457               2.00    14800.00
03458               1.20    14800.00
03459               1.00    14800.00
03460               1.60    14800.00
03461               1.80    14400.00
03462               1.00    14600.00
03463               1.20    14800.00
03464               1.40    14800.00
03465               1.00    14600.00
03466               1.40    14600.00
03467               1.20    14400.00
03468               1.00    14600.00
03469               1.00    14600.00
03470               1.40    14600.00
03471               1.20    14400.00
03472               1.20    14200.00
03473               1.80    14200.00
03474               1.00    14200.00
03475               1.00    14000.00
03476               1.40    14000.00
03477               0.60    14000.00
03478               1.40    13800.00
03479               1.00    13600.00
03480               1.20    13600.00
03481               1.20    13600.00
03482               0.60    13600.00
03483               0.40    13400.00
03484               2.20    13400.00
03485               0.60    13400.00
03486               0.40    13200.00
03487               2.00    13200.00
03488               1.20    13000.00
03489               0.40    13000.00
03490               1.80    12800.00
03491               1.00    12800.00
03492               0.40    12600.00
03493               2.00    12600.00
03494               1.00    12400.00
03495               0.20    12400.00
03496               1.80    12200.00
03497               1.00    12000.00
03498               0.60    12000.00
03499               2.00    11800.00
03500               1.00    11600.00
03501               0.40    11600.00
03502               2.00    11200.00
03503               1.00    11200.00
03504               0.20    11200.00
03505               1.40    11000.00
03506               1.00    10800.00
03507               0.60    10800.00
03508               1.60    10400.00
03509               1.00    10200.00
03510               0.20    10200.00
03511               1.40    10000.00
03512               1.60    10000.00
03513               0.20     9800.00
03514               1.00     9600.00
03515               1.00     9400.00
03516               0.40     9200.00
03517               0.20     9000.00
03518               0.80     8800.00
03519               0.60     8800.00
03520               1.00     8600.00
03521               1.20     8400.00
03522               1.00     8400.00
03523               0.60     8200.00
03524               1.00     7800.00
03525               0.60     7800.00
03526               0.20     7400.00
03527               0.00     7200.00
03528               0.20     7200.00
03529               0.40     6800.00
03530               0.20     6800.00
03531               0.20     6400.00
03532               0.80     6400.00
03533               0.40     6200.00
03534               0.20     6000.00
03535               0.20     5800.00
03536               0.60     5600.00
03537              -0.40     5400.00
03538              -0.20     5200.00
03539               0.60     4800.00
03540               0.20     4800.00
03541              -0.40     4400.00
03542               0.40     4400.00
03543               0.20     4000.00
03544              -0.20     3800.00
03545               0.20     3800.00
03546               0.20     3600.00
03547              -0.40     3200.00
03548               0.20     3000.00
03549               0.40     3000.00
03550              -0.40     2600.00
03551              -0.20     2400.00
03552               0.00     2200.00
03553               0.00     2000.00
03554              -0.20     2000.00
03555              -0.60     1800.00
03556               0.00     1400.00
03557               0.40     1200.00
03558              -0.60      800.00
03559              -0.20      800.00
03560               0.40      400.00
03561              -0.80      400.00
03562              -0.60      200.00
03563               0.60     -200.00
03564              -0.60     -200.00
03565              -0.40     -400.00
03566               2.60     -800.00
03567              -1.00     -800.00
03568              -2.00    -1000.00
03569               1.40    -1200.00
03570               0.60    -1600.00
03571              -1.20    -1600.00
03572               8.20    -1800.00
03573              25.00    -2400.00
03574             -25.00    -2800.00
03575             -25.00    -2800.00
03576               8.80    -3000.00
03577              13.80    -2600.00
03578              25.00    -3400.00
03579             -25.00    -3400.00
03580             -25.00    -3400.00
03581              25.00    -4000.00
03582              -8.40    -4000.00
03583             -25.00    -4200.00
03584              25.00    -4600.00
03585              22.20    -4400.00
03586             -25.00    -4800.00
03587              25.00    -5200.00
03588              -1.20    -5000.00
03589               1.40    -5600.00
03590             -25.00    -5600.00
03591              -6.00    -6000.00
03592              25.00    -6200.00
03593             -25.00    -6000.00
03594             -10.20    -6600.00
03595              25.00    -6600.00
03596             -25.00    -6800.00
03597             -25.00    -7200.00
03598              25.00    -7200.00
03599              25.00    -7400.00
03600             -25.00    -7600.00
03601              -6.20    -7800.00
03602              25.00    -8200.00
03603             -25.00    -8200.00
03604             -17.40    -8600.00
03605              25.00    -8600.00
03606               2.60    -8800.00
03607             -25.00    -9000.00
03608               3.40    -9200.00
03609              25.00    -9200.00
03610             -25.00    -9400.00
03611              -7.40    -9800.00
03612              19.60    -9800.00
03613              -5.60   -10000.00
03614             -18.20   -10200.00
03615               8.00   -10000.00
03616              11.00   -10400.00
03617             -18.20   -10400.00
03618              -0.40   -10800.00
03619              11.40   -10800.00
03620              -6.80   -10800.00
03621             -12.60   -11000.00
03622              10.20   -11200.00
03623               0.40   -11400.00
03624             -13.40   -11600.00
03625               6.60   -11600.00
03626               3.00   -12000.00
03627              -9.40   -12000.00
03628              -2.20   -12000.00
03629               6.80   -12200.00
03630              -6.80   -12200.00
03631              -6.20   -12400.00
03632               6.20   -12600.00
03633              -1.40   -12800.00
03634              -7.60   -12800.00
03635               1.40   -13000.00
03636               1.80   -13000.00
03637              -7.00   -13000.00
03638              -1.80   -13200.00
03639               2.60   -13200.00
03640              -3.00   -13200.00
03641              -5.40   -13400.00
03642               2.20   -13600.00
03643               0.00   -13600.00
03644              -6.60   -13800.00
03645              -0.60   -13800.00
03646               1.60   -13800.00
03647              -3.40   -13800.00
03648              -3.60   -14000.00
03649               0.60   -14000.00
03650              -1.40   -14200.00
03651              -4.60   -14200.00
03652              -0.40   -14200.00
03653              -0.40   -14400.00
03654              -3.80   -14400.00
03655              -2.00   -14400.00
03656               0.20   -14600.00
03657              -2.20   -14600.00
03658              -3.80   -14600.00
03659              -0.80   -14800.00
03660              -0.40   -14600.00
03661              -3.00   -14600.00
03662              -2.60   -14600.00
03663              -0.80   -14600.00
03664              -2.00   -14600.00
03665              -3.00   -14600.00
03666              -2.00   -14800.00
03667              -1.00   -14800.00
03668              -2.80   -14800.00
03669              -2.20   -14600.00
03670              -1.20   -14800.00
03671              -2.20   -14800.00
03672              -2.60   -14800.00
03673              -1.80   -14600.00
03674              -1.40   -14800.00
03675              -2.20   -14600.00
03676              -2.20   -14800.00
03677              -1.80   -14600.00
03678              -1.80   -14600.00
03679              -2.20   -14600.00
03680              -2.00   -14600.00
03681              -2.00   -14400.00
03682              -2.20   -14400.00
03683              -2.00   -14400.00
03684              -1.40   -14400.00
03685              -2.20   -14400.00
03686              -2.00   -14200.00
03687              -1.20   -14400.00
03688              -1.80   -14400.00
03689              -2.20   -14200.00
03690              -2.00   -14000.00
03691              -1.40   -14200.00
03692              -2.00   -13800.00
03693              -2.00   -13800.00
03694              -1.80   -13600.00
03695              -1.80   -13600.00
03696              -1.80   -13600.00
03697              -1.80   -13600.00
03698              -1.80   -13400.00
03699              -1.80   -13200.00
03700              -2.00   -13200.00
03701              -1.00   -13200.00
03702              -1.20   -13000.00
03703              -2.00   -12800.00
03704              -1.80   -12800.00
03705              -1.40   -12800.00
03706              -2.00   -12600.00
03707              -1.80   -12600.00
03708              -1.80   -12400.00
03709              -1.00   -12400.00
03710              -1.40   -12200.00
03711              -1.80   -12000.00
03712              -1.00   -12000.00
03713              -1.40   -12000.00
03714              -2.60   -11600.00
03715              -1.00   -11600.00
03716              -1.60   -11400.00
03717              -1.80   -11400.00
03718              -1.60   -11000.00
03719              -1.40   -10800.00
03720              -1.00   -10800.00
03721              -1.40   -10600.00
03722              -2.20   -10400.00
03723              -0.40   -10400.00
03724              -0.60   -10200.00
03725              -2.20   -10000.00
03726              -1.80    -9800.00
03727              -1.00    -9800.00
03728              -2.00    -9600.00
03729              -2.00    -9600.00
03730              -0.60    -9200.00
03731              -1.60    -9200.00
03732              -1.40    -9000.00
03733              -0.60    -8800.00
03734              -1.20    -8600.00
03735              -2.20    -8400.00
03736              -1.80    -8200.00
03737              -1.00    -8200.00
03738              -1.00    -7600.00
03739              -1.20    -7600.00
03740              -1.20    -7400.00
03741              -1.20    -7200.00
03742              -1.20    -7200.00
03743              -1.20    -6800.00
03744              -1.20    -6600.00
03745              -1.00    -6600.00
03746              -1.00    -6400.00
03747              -0.60    -6000.00
03748              -1.20    -5800.00
03749              -1.20    -5600.00
03750              -2.00    -5600.00
03751              -0.60    -5600.00
03752               0.20    -5000.00
03753              -1.20    -4800.00
03754              -1.20    -4600.00
03755              -0.40    -4400.00
03756              -0.80    -4200.00
03757              -1.20    -4200.00
03758              -0.60    -4000.00
03759              -0.60    -3600.00
03760              -1.20    -3400.00
03761              -0.40    -3400.00
03762              -0.60    -3200.00
03763              -1.20    -3000.00
03764              -1.00    -2600.00
03765              -0.40    -2400.00
03766              -0.20    -2200.00
03767              -1.00    -2000.00
03768              -0.60    -1800.00
03769               0.20    -1600.00
03770              -0.60    -1400.00
03771              -0.60    -1200.00
03772              -0.60     -800.00
03773              -0.60     -800.00
03774              -0.40     -600.00
03775              -0.40     -200.00
03776               0.20     -200.00
03777               0.00      200.00
03778              -0.20      400.00
03779               1.40      600.00
03780               1.00      800.00
03781              -1.40     1000.00
03782               0.20     1200.00
03783               1.80     1400.00
03784               0.00     1600.00
03785               0.40     1800.00
03786               6.60     2000.00
03787              19.60     2400.00
03788             -10.00     2400.00
03789             -25.00     2800.00
03790               2.80     2800.00
03791               7.40     3000.00
03792              12.40     3400.00
03793              24.20     3600.00
03794             -25.00     3600.00
03795              25.00     4000.00
03796              25.00     4000.00
03797             -25.00     4200.00
03798              -7.80     4600.00
03799              25.00     4600.00
03800             -25.00     4800.00
03801             -12.00     5200.00
03802              25.00     5400.00
03803              -3.20     5600.00
03804              -9.40     5600.00
03805             -10.60     5800.00
03806              25.00     6000.00
03807              -5.00     6200.00
03808             -25.00     6400.00
03809              25.00     6800.00
03810              15.00     7000.00
03811             -25.00     7200.00
03812              -5.80     7200.00
03813              25.00     7400.00
03814              -2.80     7800.00
03815             -25.00     8000.00
03816              20.20     8200.00
03817              15.60     8400.00
03818             -22.80     8400.00
03819               1.80     8600.00
03820              19.00     8600.00
03821             -11.00     9000.00
03822             -11.60     9000.00
03823              20.80     9200.00
03824               1.00     9600.00
03825             -15.80     9600.00
03826              10.80     9600.00
03827               9.80    10000.00
03828             -12.60    10200.00
03829              -1.80    10200.00
03830              13.40    10400.00
03831              -3.00    10400.00
03832              -6.60    10800.00
03833               7.80    10800.00
03834               4.60    11000.00
03835              -7.80    11200.00
03836               1.60    11200.00
03837               9.00    11200.00
03838              -5.20    11600.00
03839              -1.40    11600.00
03840               8.60    11800.00
03841              -0.80    11800.00
03842              -4.40    12000.00
03843               6.00    12200.00
03844               3.40    12400.00
03845              -4.40    12400.00
03846               3.00    12600.00
03847               5.40    12600.00
03848              -2.60    12800.00
03849               0.00    12800.00
03850               4.60    13000.00
03851               0.20    13000.00
03852              -1.00    13200.00
03853               3.00    13200.00
03854               2.00    13400.00
03855              -1.20    13400.00
03856               1.00    13400.00
03857               3.60    13600.00
03858              -0.20    13600.00
03859              -0.60    13600.00
03860               3.00    13800.00
03861               2.20    14000.00
03862              -1.00    14000.00
03863               1.40    14000.00
03864               2.80    14000.00
03865              -0.40    14200.00
03866               1.00    14200.00
03867               2.60    14200.00
03868               0.60    14200.00
03869               0.20    14400.00
03870               2.20    14600.00
03871               2.00    14600.00
03872              -0.20    14600.00
03873               1.20    14600.00
03874               2.20    14600.00
03875               0.60    14800.00
03876               1.00    14600.00
03877               1.80    14600.00
03878               1.20    14600.00
03879               1.40    14600.00
03880               1.80    14800.00
03881               1.00    14600.00
03882               1.60    14800.00
03883               1.40    14800.00
03884               1.00    14800.00
03885               1.40    14600.00
03886               1.60    14600.00
03887               0.60    14600.00
03888               1.80    14600.00
03889               2.00    14800.00
03890               0.60    14600.00
03891               1.20    14600.00
03892               2.00    14600.00
03893               1.40    14400.00
03894               1.00    14600.00
03895               1.40    14800.00
03896               1.80    14400.00
03897               1.40    14400.00
03898               2.00    14400.00
03899               1.20    14200.00
03900               0.60    14400.00
03901               1.20    14200.00
03902               2.00    14200.00
03903               0.60    14200.00
03904               1.80    14000.00
03905               1.80    13800.00
03906               1.40    13800.00
03907               1.40    13800.00
03908               1.40    13600.00
03909               0.80    13600.00
03910               1.20    13400.00
03911               1.80    13400.00
03912               1.00    13400.00
03913               1.20    13200.00
03914               1.40    13200.00
03915               1.00    13000.00
03916               1.20    13000.00
03917               1.00    12800.00
03918               0.60    12600.00
03919               1.20    12600.00
03920               1.00    12600.00
03921               1.00    12400.00
03922               1.00    12200.00
03923               1.00    12200.00
03924               1.00    12000.00
03925               0.60    12000.00
03926               0.60    11800.00
03927               1.20    11600.00
03928               0.40    11600.00
03929               0.60    11400.00
03930               1.00    11200.00
03931               0.60    11200.00
03932               0.60    10800.00
03933               1.00    10800.00
03934               1.00    10800.00
03935               0.40    10600.00
03936               1.00    10400.00
03937               1.00    10400.00
03938               0.20    10000.00
03939               1.00    10000.00
03940               0.60     9800.00
03941               0.20     9600.00
03942               1.00     9400.00
03943               1.00     9400.00
03944               0.20     9200.00
03945               0.40     9000.00
03946               1.00     8600.00
03947               0.40     8600.00
03948               0.40     8400.00
03949               1.00     8200.00
03950               0.60     8200.00
03951               0.20     8000.00
03952               0.60     7800.00
03953               0.60     7600.00
03954               0.00     7400.00
03955               0.40     7200.00
03956               0.60     6800.00
03957               0.60     6800.00
03958               0.40     6400.00
03959               0.40     6400.00
03960               0.60     6200.00
03961               0.20     6000.00
03962               0.40     6000.00
03963               0.40     5600.00
03964               0.20     5400.00
03965               0.40     5400.00
03966               0.60     4800.00
03967               0.20     4800.00
03968               0.20     4400.00
03969               0.40     4400.00
03970               0.20     4200.00
03971               0.20     4000.00
03972               0.20     3800.00
03973              -0.20     3600.00
03974               0.20     3600.00
03975               0.20     3200.00
03976               0.20     3000.00
03977               0.00     2600.00
03978              -0.20     2600.00
03979               0.20     2200.00
03980               0.20     2000.00
03981              -0.20     2000.00
03982              -0.20     1600.00
03983               0.00     1800.00
03984              -0.40     1200.00
03985              -0.40     1000.00
03986              -0.40      800.00
03987              -0.60      600.00
03988              -0.40      400.00
03989              -0.40      200.00
03990              -0.40        0.00
03991              -0.60     -200.00
03992               0.00     -400.00
03993               1.80     -600.00
03994              -0.20     -800.00
03995              -2.00    -1200.00
03996               0.20    -1200.00
03997               0.40    -1600.00
03998              -1.00    -1600.00
03999               3.40    -1800.00
04000              25.00    -2400.00
04001             -14.20    -2600.00
04002             -25.00    -2800.00
04003               2.40    -2800.00
04004               6.20    -2600.00
04005              25.00    -3200.00
04006             -17.80    -3600.00
04007             -25.00    -3400.00
04008              25.00    -3800.00
04009              25.00    -4200.00
04010             -25.00    -4000.00
04011              25.00    -4600.00
04012              25.00    -4400.00
04013             -25.00    -4600.00
04014              25.00    -5000.00
04015              19.00    -5200.00
04016             -10.00    -5600.00
04017             -10.20    -5800.00
04018             -25.00    -5800.00
04019              25.00    -6200.00
04020             -25.00    -6200.00
04021             -25.00    -6400.00
04022              25.00    -6800.00
04023             -13.80    -6600.00
04024             -25.00    -7200.00
04025              17.00    -7200.00
04026              25.00    -7400.00
04027             -25.00    -7600.00
04028             -25.00    -7800.00
04029              25.00    -8200.00
04030             -13.20    -8000.00
04031             -25.00    -8400.00
04032              24.20    -8600.00
04033              11.80    -8800.00
04034             -24.20    -9000.00
04035             -10.60    -9000.00
04036              25.00    -9200.00
04037             -14.20    -9200.00
04038             -18.60    -9600.00
04039              19.20    -9600.00
04040               1.80    -9800.00
04041             -18.80   -10000.00
04042               0.20   -10200.00
04043              16.60   -10400.00
04044             -14.00   -10400.00
04045              -6.80   -10600.00
04046              11.80   -10800.00
04047              -2.00   -11000.00
04048             -14.20   -11200.00
04049               5.00   -11400.00
04050               6.80   -11200.00
04051             -14.20   -11400.00
04052               2.20   -11800.00
04053               6.00   -12000.00
04054              -7.80   -12000.00
04055              -5.40   -12000.00
04056               6.60   -12200.00
04057              -3.00   -12400.00
04058              -9.00   -12400.00
04059               5.00   -12800.00
04060               1.00   -12800.00
04061              -7.80   -12800.00
04062              -0.80   -13000.00
04063               2.80   -13000.00
04064              -6.20   -13200.00
04065              -2.80   -13000.00
04066               2.20   -13200.00
04067              -2.00   -13200.00
04068              -5.20   -13600.00
04069               0.20   -13600.00
04070               0.80   -13600.00
04071              -5.80   -13600.00
04072              -2.20   -13800.00
04073               1.00   -13800.00
04074              -2.00   -14000.00
04075              -3.80   -14000.00
04076              -1.00   -14000.00
04077              -0.20   -14200.00
04078              -3.80   -14000.00
04079              -1.80   -14400.00
04080               0.00   -14200.00
04081              -2.80   -14400.00
04082              -2.80   -14400.00
04083              -0.40   -14600.00
04084              -1.20   -14600.00
04085              -3.80   -14600.00
04086              -1.40   -14400.00
04087              -0.20   -14600.00
04088              -2.20   -14600.00
04089              -2.80   -14600.00
04090              -1.20   -14600.00
04091              -1.20   -14800.00
04092              -2.00   -14800.00
04093              -2.20   -14600.00
04094              -1.20   -14600.00
04095              -2.00   -14800.00
04096              -2.20   -14800.00
04097              -1.40   -14800.00
04098              -1.80   -14800.00
04099              -2.20   -14600.00
04100              -2.00   -14600.00
04101              -1.20   -14800.00
04102              -1.80   -14600.00
04103              -2.40   -14600.00
04104              -1.40   -14800.00
04105              -1.60   -14600.00
04106              -1.40   -14600.00
04107              -2.20   -14600.00
04108              -2.00   -14600.00
04109              -1.80   -14400.00
04110              -2.00   -14400.00
04111              -1.80   -14400.00
04112              -2.00   -14400.00
04113              -2.00   -14400.00
04114              -2.00   -14200.00
04115              -2.20   -14200.00
04116              -2.00   -14000.00
04117              -2.20   -14000.00
04118              -1.80   -14000.00
04119              -1.20   -13800.00
04120              -2.00   -13800.00
04121              -2.20   -13800.00
04122              -2.00   -13600.00
04123              -1.40   -13600.00
04124              -1.40   -13400.00
04125              -2.80   -13400.00
04126              -1.80   -13200.00
04127              -1.00   -13400.00
04128              -3.00   -13200.00
04129              -1.40   -13000.00
04130              -0.60   -13000.00
04131              -3.00   -12800.00
04132              -1.80   -12800.00
04133              -0.20   -12800.00
04134              -3.00   -12400.00
04135              -2.00   -12400.00
04136              -0.60   -12400.00
04137              -2.60   -12200.00
04138              -1.80   -12000.00
04139              -0.60   -12000.00
04140              -2.00   -11800.00
04141              -2.60   -11600.00
04142              -0.40   -11600.00
04143              -2.00   -11400.00
04144              -2.20   -11200.00
04145              -1.20   -11000.00
04146              -1.20   -11000.00
04147              -2.00   -10800.00
04148              -1.20   -10800.00
04149              -1.40   -10600.00
04150              -1.40   -10400.00
04151              -1.40   -10000.00
04152              -1.00   -10000.00
04153              -1.20    -9800.00
04154              -1.80    -9600.00
04155              -1.60    -9600.00
04156              -0.20    -9400.00
04157              -2.20    -9200.00
04158              -1.80    -9000.00
04159              -0.80    -8800.00
04160              -0.80    -8800.00
04161              -2.20    -8400.00
04162              -1.00    -8400.00
04163               0.20    -8200.00
04164              -2.60    -8000.00
04165              -1.40    -8000.00
04166               0.20    -7600.00
04167              -1.20    -7400.00
04168              -2.20    -7400.00
04169              -0.20    -7200.00
04170              -0.40    -6800.00
04171              -1.80    -6800.00
04172              -0.60    -6600.00
04173              -1.00    -6400.00
04174              -0.60    -6200.00
04175              -1.40    -6000.00
04176              -1.40    -5800.00
04177              -0.60    -5600.00
04178              -1.20    -5600.00
04179              -1.20    -5200.00
04180              -0.40    -5000.00
04181              -1.00    -4600.00
04182              -1.60    -4600.00
04183              -0.60    -4400.00
04184              -0.40    -4200.00
04185              -1.80    -4000.00
04186              -0.60    -3800.00
04187              -0.40    -3600.00
04188              -1.80    -3400.00
04189              -0.60    -3200.00
04190              -0.20    -2800.00
04191              -1.60    -2800.00
04192              -1.00    -2400.00
04193               0.40    -2400.00
04194              -0.60    -2200.00
04195              -1.60    -1800.00
04196               0.40    -1800.00
04197              -0.20    -1400.00
04198              -2.00    -1200.00
04199              -0.80    -1000.00
04200               0.40     -800.00
04201              -0.60     -400.00
04202              -0.60     -400.00
04203               0.40     -200.00
04204               0.20        0.00
04205              -1.40      200.00
04206               0.60      400.00
04207               2.20      600.00
04208              -1.20      800.00
04209              -0.60     1000.00
04210               2.00     1200.00
04211               0.40     1400.00
04212              -0.80     1800.00
04213               3.80     2000.00
04214              18.60     2200.00
04215               2.80     2400.00
04216             -25.00     2600.00
04217              -6.80     2800.00
04218              10.40     2800.00
04219               2.20     3200.00
04220              25.00     3400.00
04221             -25.00     3400.00
04222             -11.60     4000.00
04223              25.00     4000.00
04224             -25.00     4000.00
04225             -25.00     4600.00
04226              25.00     4600.00
04227             -19.80     4800.00
04228             -25.00     5200.00
04229              25.00     5200.00
04230               2.80     5400.00
04231              -7.80     5600.00
04232             -14.00     5800.00
04233              19.80     6000.00
04234              11.40     6200.00
04235             -25.00     6600.00
04236              17.20     6600.00
04237              25.00     7000.00
04238             -23.00     7000.00
04239             -15.80     7200.00
04240              23.80     7400.00
04241              10.20     7800.00
04242             -25.00     7800.00
04243               8.60     8200.00
04244              25.00     8200.00
04245             -18.60     8400.00
04246              -8.00     8600.00
04247              21.20     8600.00
04248              -2.80     8800.00
04249             -19.40     9200.00
04250              16.40     9200.00
04251              10.20     9400.00
04252             -17.80     9600.00
04253               4.40     9600.00
04254              15.40     9800.00
04255              -9.40    10000.00
04256              -7.60    10200.00
04257              13.00    10400.00
04258               2.00    10400.00
04259              -8.60    10600.00
04260               4.40    10800.00
04261               8.20    11000.00
04262              -6.00    11000.00
04263              -3.00    11200.00
04264              10.20    11400.00
04265              -2.00    11600.00
04266              -5.80    11800.00
04267               7.80    11800.00
04268               3.00    11800.00
04269              -6.60    12000.00
04270               3.40    12200.00
04271               6.20    12400.00
04272              -4.40    12400.00
04273              -0.20    12600.00
04274               6.80    12600.00
04275              -0.60    12800.00
04276              -2.60    12800.00
04277               4.20    13200.00
04278               2.20    13200.00
04279              -2.20    13200.00
04280               1.80    13200.00
04281               3.80    13400.00
04282              -0.60    13400.00
04283              -0.20    13600.00
04284               3.80    13600.00
04285               1.20    13600.00
04286              -1.40    13800.00
04287               2.40    14000.00
04288               3.40    14000.00
04289              -0.40    14000.00
04290               0.60    14000.00
04291               3.00    14200.00
04292               1.00    14200.00
04293               0.20    14200.00
04294               2.20    14600.00
04295               2.00    14400.00
04296               0.20    14600.00
04297               1.60    14400.00
04298               2.60    14600.00
04299               0.40    14600.00
04300               0.20    14400.00
04301               2.20    14600.00
04302               2.00    14600.00
04303               0.40    14800.00
04304               1.80    14600.00
04305               2.20    14800.00
04306               1.20    14600.00
04307               1.20    14800.00
04308               1.40    14600.00
04309               1.40    14800.00
04310               1.20    14800.00
04311               1.20    14800.00
04312               1.40    14800.00
04313               1.00    14800.00
04314               1.20    14600.00
04315               1.80    14800.00
04316               1.40    14800.00
04317               0.80    14800.00
04318               1.40    14600.00
04319               1.20    14600.00
04320               1.20    14600.00
04321               1.20    14400.00
04322               1.00    14600.00
04323               1.40    14400.00
04324               1.20    14600.00
04325               1.20    14400.00
04326               0.60    14200.00
04327               0.40    14200.00
04328               1.00    14200.00
04329               2.00    14000.00
04330               0.40    14000.00
04331               1.20    14000.00
04332               1.20    13800.00
04333               1.20    13800.00
04334               0.40    13800.00
04335               2.00    13800.00
04336               1.40    13600.00
04337               0.40    13400.00
04338               1.40    13400.00
04339               2.00    13200.00
04340               0.40    13200.00
04341               0.20    13200.00
04342               1.80    13000.00
04343               1.40    13200.00
04344              -0.20    12800.00
04345               1.00    12800.00
04346               1.80    12800.00
04347               0.40    12600.00
04348               0.60    12400.00
04349               1.80    12400.00
04350               1.00    12200.00
04351               1.00    12200.00
04352               0.60    12000.00
04353               1.80    11800.00
04354               1.20    11800.00
04355              -0.40    11600.00
04356               1.40    11600.00
04357               2.60    11200.00
04358              -0.20    11200.00
04359               0.20    11000.00
04360               3.00    11000.00
04361               0.20    10800.00
04362              -0.60    10600.00
04363               2.20    10600.00
04364               0.80    10400.00
04365              -0.40    10200.00
04366               1.60    10000.00
04367               1.60    10000.00
04368               0.40     9600.00
04369               0.60     9400.00
04370               0.40     9400.00
04371               1.00     9200.00
04372               0.60     9000.00
04373              -0.20     8800.00
04374               1.00     8600.00
04375               1.20     8400.00
04376               0.00     8200.00
04377               0.20     8200.00
04378               1.20     8000.00
04379               0.40     7600.00
04380              -0.40     7600.00
04381               0.80     7400.00
04382               1.20     7200.00
04383              -0.20     7000.00
04384               0.20     6800.00
04385               1.20     6800.00
04386               0.20     6400.00
04387              -0.60     6400.00
04388               1.00     6200.00
04389               0.60     5800.00
04390              -0.60     5600.00
04391               0.40     5600.00
04392               0.80     5400.00
04393              -0.20     5200.00
04394              -0.20     4800.00
04395               0.20     4600.00
04396               0.40     4400.00
04397              -0.20     4400.00
04398              -0.20     4000.00
04399               0.60     3800.00
04400               0.00     3600.00
04401              -0.60     3600.00
04402               0.40     3200.00
04403               0.40     3000.00
04404              -0.60     2800.00
04405              -0.20     2600.00
04406               0.60     2400.00
04407              -0.40     2200.00
04408              -0.60     1800.00
04409               0.20     1800.00
04410              -0.20     1400.00
04411              -0.60     1200.00
04412              -0.40     1200.00
04413               0.60     1000.00
04414              -0.40      600.00
04415              -0.60      400.00
04416               0.20      400.00
04417               0.20        0.00
04418              -0.40        0.00
04419              -0.40     -400.00
04420               2.00     -600.00
04421               1.00    -1000.00
04422              -2.20    -1000.00
04423              -0.60    -1200.00
04424               1.60    -1200.00
04425              -1.20    -1600.00
04426               0.80    -1800.00
04427              25.00    -2000.00
04428               2.60    -2400.00
04429             -25.00    -2800.00
04430              -7.40    -3000.00
04431               7.40    -2800.00
04432              25.00    -3000.00
04433              18.00    -3600.00
04434             -25.00    -3200.00
04435              25.00    -3800.00
04436              25.00    -4200.00
04437             -25.00    -4000.00
04438               5.00    -4400.00
04439              25.00    -4800.00
04440             -25.00    -4400.00
04441              19.40    -5000.00
04442              25.00    -5000.00
04443              -7.00    -5400.00
04444               3.60    -5600.00
04445             -25.00    -5600.00
04446              25.00    -6200.00
04447               3.60    -6400.00
04448             -25.00    -6200.00
04449              25.00    -6800.00
04450              21.80    -6600.00
04451             -25.00    -7200.00
04452               4.80    -7200.00
04453              25.00    -7200.00
04454              -8.20    -7800.00
04455             -25.00    -7800.00
04456              25.00    -8000.00
04457              12.80    -8000.00
04458             -25.00    -8400.00
04459              21.40    -8800.00
04460              21.00    -8600.00
04461             -16.60    -8800.00
04462             -20.40    -9000.00
04463              25.00    -9200.00
04464              -3.60    -9200.00
04465             -25.00    -9400.00
04466              15.00    -9800.00
04467               8.40    -9600.00
04468             -15.20   -10000.00
04469              -7.00   -10000.00
04470              19.60   -10400.00
04471              -9.20   -10400.00
04472             -14.20   -10600.00
04473              11.40   -10800.00
04474               3.00   -10800.00
04475             -15.40   -11200.00
04476              -1.00   -11200.00
04477              11.40   -11400.00
04478             -11.80   -11400.00
04479              -2.60   -11600.00
04480               8.40   -11600.00
04481              -5.40   -12000.00
04482              -7.40   -12000.00
04483               3.40   -12000.00
04484               0.60   -12400.00
04485              -8.60   -12400.00
04486               1.20   -12400.00
04487               3.00   -12800.00
04488              -6.00   -12600.00
04489              -2.00   -13000.00
04490               3.60   -13000.00
04491              -3.80   -13000.00
04492              -5.40   -13200.00
04493               1.80   -13200.00
04494              -0.20   -13200.00
04495              -5.40   -13600.00
04496              -1.80   -13600.00
04497               2.80   -13600.00
04498              -3.60   -13600.00
04499              -4.60   -13800.00
04500               1.40   -13800.00
04501              -1.00   -14000.00
04502              -3.80   -13800.00
04503              -2.80   -14000.00
04504               1.00   -14000.00
04505              -3.20   -14000.00
04506              -5.00   -14200.00
04507               2.60   -14000.00
04508              -2.00   -14400.00
04509              -5.00   -14400.00
04510              -1.40   -14400.00
04511               1.00   -14600.00
04512              -3.00   -14600.00
04513              -5.20   -14600.00
04514               0.40   -14600.00
04515              -1.20   -14600.00
04516              -3.40   -14600.00
04517              -2.20   -14600.00
04518              -2.00   -14600.00
04519              -0.60   -14600.00
04520              -2.80   -14800.00
04521              -2.80   -14800.00
04522              -2.00   -14800.00
04523              -1.20   -14800.00
04524              -2.00   -14800.00
04525              -3.60   -14800.00
04526              -0.60   -14800.00
04527              -1.00   -14600.00
04528              -4.60   -14800.00
04529              -2.00   -14800.00
04530               0.60   -14600.00
04531              -3.00   -14600.00
04532              -4.20   -14600.00
04533              -0.20   -14600.00
04534              -0.60   -14600.00
04535              -4.20   -14600.00
04536              -1.60   -14400.00
04537              -0.40   -14600.00
04538              -2.40   -14400.00
04539              -3.40   -14400.00
04540              -1.00   -14400.00
04541              -1.20   -14200.00
04542              -2.80   -14200.00
04543              -1.80   -14000.00
04544              -1.00   -14000.00
04545              -2.00   -14000.00
04546              -2.00   -13800.00
04547              -1.20   -13800.00
04548              -2.20   -13600.00
04549              -2.40   -13600.00
04550              -1.40   -13800.00
04551              -1.80   -13600.00
04552              -2.40   -13400.00
04553              -1.20   -13200.00
04554              -1.20   -13200.00
04555              -2.00   -13200.00
04556              -1.40   -13200.00
04557              -1.00   -13200.00
04558              -2.20   -12800.00
04559              -2.20   -12800.00
04560              -1.00   -12800.00
04561              -1.20   -12800.00
04562              -2.40   -12400.00
04563              -1.80   -12400.00
04564              -0.60   -12200.00
04565              -2.00   -12000.00
04566              -2.20   -12000.00
04567              -1.00   -11800.00
04568              -1.20   -11600.00
04569              -1.40   -11600.00
04570              -2.00   -11400.00
04571              -0.60   -11200.00
04572              -2.00   -11000.00
04573              -2.60   -11200.00
04574              -0.60   -10800.00
04575              -1.00   -10800.00
04576              -2.60   -10600.00
04577              -1.00   -10400.00
04578              -0.40   -10400.00
04579              -2.20   -10000.00
04580              -2.60   -10000.00
04581              -0.60    -9800.00
04582              -2.20    -9800.00
04583              -1.80    -9600.00
04584              -0.40    -9200.00
04585              -1.00    -9200.00
04586              -2.20    -9000.00
04587              -1.20    -8800.00
04588              -1.00    -8600.00
04589              -2.00    -8400.00
04590              -1.80    -8200.00
04591              -0.80    -8200.00
04592              -0.60    -7800.00
04593              -1.80    -7800.00
04594              -1.00    -7400.00
04595              -1.20    -7200.00
04596              -1.40    -7200.00
04597              -1.20    -7000.00
04598              -1.00    -6600.00
04599              -1.00    -6600.00
04600              -0.60    -6600.00
04601              -0.60    -6400.00
04602              -1.20    -6000.00
04603              -1.40    -5800.00
04604              -1.20    -5800.00
04605              -1.00    -5400.00
04606              -1.00    -5200.00
04607              -0.60    -5000.00
04608              -1.00    -4800.00
04609              -0.80    -4600.00
04610              -0.60    -4400.00
04611              -0.60    -4200.00
04612              -0.80    -4000.00
04613              -0.60    -3800.00
04614              -0.60    -3600.00
04615              -0.40    -3400.00
04616              -0.40    -3200.00
04617              -1.00    -3000.00
04618              -1.00    -2800.00
04619              -0.40    -2600.00
04620              -0.60    -2400.00
04621              -0.20    -2000.00
04622              -0.40    -2000.00
04623              -0.40    -1600.00
04624              -0.40    -1600.00
04625              -0.40    -1200.00
04626              -0.60    -1200.00
04627              -0.60    -1000.00
04628              -0.40     -600.00
04629               0.20     -400.00
04630              -0.60     -200.00
04631              -0.20        0.00
04632               0.20      400.00
04633               0.00      400.00
04634               2.00      600.00
04635              -0.20      800.00
04636              -2.00      800.00
04637               1.00     1200.00
04638               1.80     1400.00
04639              -1.40     1800.00
04640               1.60     1800.00
04641              16.20     2200.00
04642              13.00     2400.00
04643             -25.00     2600.00
04644             -18.60     2800.00
04645              11.40     3000.00
04646              -1.20     3000.00
04647              25.00     3400.00
04648             -25.00     3400.00
04649             -25.00     3800.00
04650              25.00     4000.00
04651               2.00     4000.00
04652             -25.00     4400.00
04653              25.00     4600.00
04654              17.80     4600.00
04655             -25.00     5200.00
04656              25.00     5000.00
04657              11.60     5400.00
04658              -8.20     5600.00
04659             -15.00     5800.00
04660              10.00     6000.00
04661              22.60     6200.00
04662             -25.00     6400.00
04663               1.80     6800.00
04664              25.00     6800.00
04665             -15.00     7000.00
04666             -23.60     7200.00
04667              16.40     7200.00
04668              21.00     7800.00
04669             -25.00     7800.00
04670              -5.40     8000.00
04671              25.00     8200.00
04672              -9.20     8400.00
04673             -16.20     8600.00
04674              18.20     8400.00
04675               6.60     8800.00
04676             -21.80     9200.00
04677               8.20     9200.00
04678              17.80     9600.00
04679             -15.00     9600.00
04680              -3.20     9800.00
04681              16.80    10000.00
04682              -3.80    10000.00
04683             -11.60    10200.00
04684               9.80    10200.00
04685               6.80    10400.00
04686              -8.40    10400.00
04687               1.00    10800.00
04688               9.60    10800.00
04689              -3.00    11000.00
04690              -5.40    11200.00
04691               8.40    11200.00
04692               2.20    11600.00
04693              -6.60    11600.00
04694               6.00    11800.00
04695               5.20    12000.00
04696              -5.40    12000.00
04697               1.20    12000.00
04698               6.20    12200.00
04699              -2.80    12400.00
04700              -1.40    12600.00
04701               6.00    12400.00
04702               0.60    12600.00
04703              -2.60    13000.00
04704               3.40    12800.00
04705               2.40    13200.00
04706              -1.80    13200.00
04707               1.40    13200.00
04708               3.00    13400.00
04709               0.20    13400.00
04710              -0.20    13600.00
04711               3.00    13600.00
04712               1.80    13600.00
04713              -1.20    13600.00
04714               1.40    13600.00
04715               3.00    14000.00
04716               0.20    14000.00
04717               0.00    14000.00
04718               2.60    14000.00
04719               1.40    14000.00
04720               0.20    14200.00
04721               1.80    14200.00
04722               1.80    14600.00
04723               0.40    14400.00
04724               1.00    14400.00
04725               2.20    14600.00
04726               1.20    14400.00
04727               0.00    14600.00
04728               2.00    14600.00
04729               2.00    14600.00
04730               0.60    14600.00
04731               1.00    14600.00
04732               2.00    14800.00
04733               1.20    14600.00
04734               1.00    14600.00
04735               1.40    14600.00
04736               1.40    14800.00
04737               1.20    14800.00
04738               1.40    14800.00
04739               1.80    14800.00
04740               1.20    14800.00
04741               1.20    14600.00
04742               1.60    14800.00
04743               1.80    14800.00
04744               1.20    14600.00
04745               1.20    14600.00
04746               1.40    14600.00
04747               1.40    14600.00
04748               1.40    14600.00
04749               1.00    14400.00
04750               2.00    14600.00
04751               1.20    14400.00
04752               1.40    14400.00
04753               1.40    14600.00
04754               1.20    14200.00
04755               1.20    14200.00
04756               2.20    14200.00
04757               1.20    14200.00
04758               1.40    14200.00
04759               1.20    14000.00
04760               1.40    14000.00
04761               1.20    13800.00
04762               1.20    13600.00
04763               1.00    13800.00
04764               1.20    13600.00
04765               1.00    13400.00
04766               1.40    13400.00
04767               1.00    13400.00
04768               1.20    13200.00
04769               1.20    13200.00
04770               1.00    13000.00
04771               1.20    12800.00
04772               1.00    12800.00
04773               1.00    12600.00
04774               1.00    12600.00
04775               1.00    12400.00
04776               0.60    12400.00
04777               0.80    12400.00
04778               1.00    12400.00
04779               1.00    12000.00
04780               0.60    11800.00
04781               0.60    11600.00
04782               1.20    11600.00
04783               0.60    11600.00
04784               0.80    11200.00
04785               1.60    11200.00
04786               0.40    11000.00
04787               0.40    10800.00
04788               1.80    10800.00
04789               0.60    10400.00
04790              -0.20    10400.00
04791               1.20    10400.00
04792               1.00    10200.00
04793               0.00    10000.00
04794               1.00     9800.00
04795               0.80     9600.00
04796               0.20     9600.00
04797               1.00     9400.00
04798               1.20     9200.00
04799               0.40     8800.00
04800               0.40     8800.00
04801               1.00     8800.00
04802               1.00     8600.00
04803               0.20     8400.00
04804               1.00     8200.00
04805               1.00     8000.00
04806              -0.20     7800.00
04807               0.40     7600.00
04808               1.20     7600.00
04809              -0.40     7400.00
04810               0.20     7000.00
04811               1.80     7000.00
04812               0.40     6600.00
04813              -0.40     6600.00
04814               0.60     6400.00
04815               1.00     6200.00
04816              -0.20     6000.00
04817               0.00     5800.00
04818               0.80     5600.00
04819               0.20     5400.00
04820              -0.40     5200.00
04821               0.60     5000.00
04822               0.40     4600.00
04823              -0.60     4400.00
04824               0.40     4200.00
04825               0.60     4000.00
04826              -0.20     3800.00
04827              -0.20     3600.00
04828               0.20     3400.00
04829               0.20     3200.00
04830              -0.20     3200.00
04831              -0.40     2800.00
04832               0.00     2800.00
04833              -0.40     2400.00
04834              -0.20     2200.00
04835               0.20     2000.00
04836              -0.20     1800.00
04837              -0.60     1600.00
04838              -0.20     1400.00
04839              -0.20     1200.00
04840              -0.40      800.00
04841              -0.40      800.00
04842              -0.40      600.00
04843              -0.20      400.00
04844              -0.20        0.00
04845              -0.60     -200.00
04846              -0.20     -200.00
04847               1.00     -600.00
04848               1.20     -800.00
04849              -1.60    -1000.00
04850              -1.00    -1200.00
04851               0.60    -1400.00
04852              -0.40    -1600.00
04853              -0.20    -1800.00
04854              16.40    -2000.00
04855              17.80    -2400.00
04856             -25.00    -2600.00
04857             -20.40    -2800.00
04858               9.60    -2800.00
04859              25.00    -2800.00
04860              25.00    -3600.00
04861             -25.00    -3200.00
04862              16.20    -3400.00
04863              25.00    -4200.00
04864             -25.00    -4000.00
04865             -25.00    -4400.00
04866              25.00    -4800.00
04867             -25.00    -4400.00
04868             -25.00    -5000.00
04869              25.00    -5000.00
04870             -17.20    -5200.00
04871               7.40    -5800.00
04872             -25.00    -5600.00
04873              25.00    -6000.00
04874              25.00    -6200.00
04875             -25.00    -6200.00
04876              25.00    -6600.00
04877              25.00    -6800.00
04878             -25.00    -7000.00
04879              -9.80    -7400.00
04880              25.00    -7200.00
04881               9.00    -7600.00
04882             -25.00    -7600.00
04883              25.00    -8000.00
04884              25.00    -8200.00
04885             -25.00    -8400.00
04886               2.60    -8600.00
04887              25.00    -8400.00
04888              -7.40    -8800.00
04889             -25.00    -9000.00
04890              17.80    -9200.00
04891              15.80    -9200.00
04892             -25.00    -9400.00
04893               5.80    -9800.00
04894              15.00    -9800.00
04895             -12.60   -10000.00
04896             -13.40   -10000.00
04897              15.20   -10400.00
04898               0.80   -10600.00
04899             -17.60   -10600.00
04900               7.40   -10800.00
04901               7.40   -10800.00
04902             -11.80   -11200.00
04903              -6.80   -11200.00
04904              12.60   -11400.00
04905              -7.60   -11400.00
04906              -9.00   -11600.00
04907               9.20   -11800.00
04908              -1.20   -12000.00
04909              -9.80   -12200.00
04910               1.80   -12200.00
04911               4.60   -12400.00
04912             -10.00   -12400.00
04913              -2.20   -12400.00
04914               5.40   -12600.00
04915              -4.40   -12800.00
04916              -5.80   -13000.00
04917               2.80   -12800.00
04918              -1.40   -13000.00
04919              -6.40   -13000.00
04920               0.20   -13200.00
04921               1.20   -13200.00
04922              -4.20   -13600.00
04923              -3.60   -13400.00
04924               2.60   -13600.00
04925              -2.60   -13600.00
04926              -5.40   -13600.00
04927               0.60   -13800.00
04928               0.20   -14000.00
04929              -3.80   -14000.00
04930              -2.80   -14000.00
04931               0.40   -14000.00
04932              -2.40   -14200.00
04933              -3.60   -14200.00
04934              -0.20   -14400.00
04935              -1.20   -14400.00
04936              -3.00   -14400.00
04937              -1.80   -14400.00
04938              -0.60   -14400.00
04939              -2.20   -14600.00
04940              -3.00   -14400.00
04941              -0.60   -14600.00
04942              -0.60   -14600.00
04943              -2.80   -14600.00
04944              -2.20   -14600.00
04945              -1.00   -14600.00
04946              -1.20   -14600.00
04947              -3.00   -14800.00
04948              -1.80   -14800.00
04949              -1.00   -14800.00
04950              -2.20   -14800.00
04951              -2.20   -14800.00
04952              -1.20   -14600.00
04953              -2.00   -14800.00
04954              -2.20   -14800.00
04955              -1.40   -14800.00
04956              -1.20   -14800.00
04957              -2.20   -14600.00
04958              -2.40   -14800.00
04959              -1.60   -14600.00
04960              -2.00   -14600.00
04961              -1.80   -14600.00
04962              -2.20   -14600.00
04963              -2.00   -14600.00
04964              -1.80   -14400.00
04965              -2.20   -14400.00
04966              -1.40   -14400.00
04967              -2.00   -14400.00
04968              -2.20   -14200.00
04969              -1.40   -14400.00
04970              -1.40   -14000.00
04971              -2.20   -14000.00
04972              -2.20   -14000.00
04973              -1.40   -14000.00
04974              -2.00   -13800.00
04975              -2.00   -13800.00
04976              -2.00   -13800.00
04977              -1.80   -13600.00
04978              -1.80   -13600.00
04979              -2.00   -13600.00
04980              -2.20   -13400.00
04981              -1.40   -13200.00
04982              -1.80   -13200.00
04983              -1.80   -13200.00
04984              -1.60   -13200.00
04985              -2.20   -13000.00
04986              -1.80   -12800.00
04987              -1.80   -12600.00
04988              -1.40   -12800.00
04989              -2.20   -12400.00
04990              -2.00   -12400.00
04991              -1.20   -12200.00
04992              -2.00   -12000.00
04993              -2.00   -12200.00
04994              -1.60   -12000.00
04995              -2.00   -11600.00
04996              -1.20   -11800.00
04997              -0.60   -11400.00
04998              -2.60   -11400.00
04999              -1.00   -11000.00
05000              -1.20   -11000.00
