Unit:(mV)
                     CH1         CH2
Frequency              ? 262.447 kHz
00001               0.40     5000.00
00002              -0.40     4600.00
00003               0.40     4400.00
00004               0.40     4000.00
00005              -0.80     3800.00
00006               0.40     3600.00
00007               0.40     3200.00
00008              -0.40     3000.00
00009               0.00     2800.00
00010               0.40     2800.00
00011              -0.40     2200.00
00012              -0.80     2000.00
00013               0.40     1600.00
00014               0.40     1400.00
00015              -0.80     1200.00
00016               0.40      800.00
00017               0.40      600.00
00018              -0.80      400.00
00019               0.40        0.00
00020               0.40     -200.00
00021              -0.40     -400.00
00022               2.80     -800.00
00023              -0.80    -1000.00
00024              -1.20    -1200.00
00025               0.80    -1600.00
00026               0.80    -1800.00
00027              -1.20    -2000.00
00028               4.80    -2200.00
00029              32.40    -2800.00
00030             -11.60    -3200.00
00031             -50.00    -3400.00
00032              10.80    -3600.00
00033               9.60    -3600.00
00034              -7.60    -3600.00
00035              50.00    -4400.00
00036             -50.00    -4200.00
00037               5.20    -4400.00
00038              50.00    -5200.00
00039             -50.00    -5000.00
00040              -8.80    -5600.00
00041              50.00    -6000.00
00042             -50.00    -5800.00
00043              10.00    -6400.00
00044              11.60    -6400.00
00045              -0.40    -6800.00
00046               8.80    -7200.00
00047             -46.00    -7200.00
00048              46.80    -7600.00
00049              -7.20    -7600.00
00050             -37.20    -8000.00
00051              36.00    -8400.00
00052              -0.40    -8400.00
00053             -10.00    -9000.00
00054             -20.40    -9000.00
00055              24.40    -9400.00
00056              -3.60    -9600.00
00057             -29.20    -9600.00
00058              23.20   -10000.00
00059              -0.80   -10000.00
00060              -2.00   -10400.00
00061             -13.20   -10400.00
00062              12.40   -10800.00
00063              -1.60   -11200.00
00064             -23.60   -11000.00
00065              17.20   -11400.00
00066              -3.60   -11600.00
00067              -9.20   -11800.00
00068               2.40   -12000.00
00069               7.20   -12200.00
00070              -7.20   -12400.00
00071              -7.60   -12600.00
00072               6.00   -12800.00
00073              -4.40   -13000.00
00074              -8.80   -13000.00
00075               2.00   -13200.00
00076               4.00   -13400.00
00077              -8.80   -13600.00
00078               2.40   -13800.00
00079               2.00   -13800.00
00080              -7.20   -14000.00
00081              -4.40   -14000.00
00082               2.00   -14400.00
00083              -3.60   -14600.00
00084              -5.60   -14600.00
00085               4.00   -14800.00
00086               0.00   -14800.00
00087              -5.20   -14800.00
00088              -1.60   -15200.00
00089               0.80   -15200.00
00090              -6.40   -15200.00
00091              -4.40   -15600.00
00092               2.80   -15600.00
00093              -2.40   -15600.00
00094              -3.20   -15600.00
00095               2.00   -15800.00
00096              -0.80   -15800.00
00097              -5.60   -16000.00
00098              -3.60   -16000.00
00099              -0.80   -16200.00
00100              -3.60   -16200.00
00101              -2.40   -16200.00
00102               1.20   -16400.00
00103              -0.80   -16400.00
00104              -4.00   -16400.00
00105              -2.80   -16400.00
00106              -2.40   -16800.00
00107              -4.00   -16400.00
00108              -2.80   -16400.00
00109               0.40   -16400.00
00110              -0.40   -16600.00
00111              -2.80   -16800.00
00112              -2.00   -16600.00
00113              -2.00   -16600.00
00114              -3.20   -16600.00
00115              -2.80   -16800.00
00116              -1.20   -16800.00
00117              -1.60   -16800.00
00118              -2.80   -16800.00
00119              -2.00   -16600.00
00120              -2.00   -16800.00
00121              -2.80   -16600.00
00122              -2.80   -16600.00
00123              -1.60   -16400.00
00124              -2.40   -16400.00
00125              -2.80   -16400.00
00126              -2.40   -16400.00
00127              -2.40   -16400.00
00128              -2.40   -16200.00
00129              -2.40   -16200.00
00130              -2.00   -16200.00
00131              -2.00   -16000.00
00132              -2.40   -16000.00
00133              -2.40   -15800.00
00134              -2.40   -15800.00
00135              -2.40   -15600.00
00136              -2.40   -15600.00
00137              -2.40   -15600.00
00138              -2.00   -15400.00
00139              -2.40   -15200.00
00140              -2.40   -15200.00
00141              -2.40   -15200.00
00142              -2.40   -14800.00
00143              -2.40   -14800.00
00144              -2.40   -14800.00
00145              -2.00   -14600.00
00146              -2.00   -14400.00
00147              -2.00   -14400.00
00148              -1.20   -14000.00
00149              -2.00   -14200.00
00150              -2.40   -13800.00
00151              -2.40   -13800.00
00152              -2.40   -13600.00
00153              -2.40   -13400.00
00154              -1.20   -13200.00
00155              -1.20   -13000.00
00156              -1.20   -12800.00
00157              -2.00   -12800.00
00158              -2.40   -12600.00
00159              -1.20   -12400.00
00160              -2.40   -12200.00
00161              -2.00   -12000.00
00162              -1.20   -11600.00
00163              -1.20   -11600.00
00164              -1.20   -11400.00
00165              -2.00   -11000.00
00166              -2.00   -11000.00
00167              -1.20   -10800.00
00168              -2.00   -10400.00
00169              -1.20   -10200.00
00170              -1.60   -10000.00
00171              -0.80    -9800.00
00172              -1.20    -9600.00
00173              -2.40    -9600.00
00174              -1.20    -9000.00
00175              -1.60    -9000.00
00176              -1.20    -8800.00
00177              -0.80    -8400.00
00178              -1.20    -8200.00
00179              -1.20    -8000.00
00180              -0.80    -8000.00
00181              -1.20    -7400.00
00182              -2.00    -7400.00
00183              -1.20    -6800.00
00184              -2.00    -6800.00
00185              -1.20    -6600.00
00186              -1.20    -6400.00
00187              -1.20    -6000.00
00188              -0.80    -5800.00
00189              -0.80    -5600.00
00190              -0.80    -5200.00
00191              -1.60    -5000.00
00192              -1.20    -4600.00
00193              -1.20    -4400.00
00194              -0.80    -4200.00
00195              -0.40    -4000.00
00196              -0.80    -3600.00
00197              -1.20    -3400.00
00198              -0.80    -3200.00
00199              -1.20    -2800.00
00200              -1.20    -2800.00
00201              -0.80    -2400.00
00202              -1.20    -2000.00
00203              -0.80    -1800.00
00204              -0.80    -1600.00
00205              -1.20    -1400.00
00206              -0.80    -1000.00
00207              -0.40     -800.00
00208              -0.80     -600.00
00209              -0.40     -200.00
00210               0.40        0.00
00211               0.40      200.00
00212               1.20      600.00
00213               1.60      800.00
00214              -0.40     1200.00
00215              -2.00     1200.00
00216               2.00     1600.00
00217               2.00     1800.00
00218              -2.40     2000.00
00219               6.00     2400.00
00220              23.20     3000.00
00221               0.40     3000.00
00222             -41.60     3200.00
00223              -2.80     3600.00
00224              23.60     3800.00
00225             -28.80     3800.00
00226              15.20     4400.00
00227              42.80     4400.00
00228             -50.00     4800.00
00229              31.20     5200.00
00230              50.00     5200.00
00231             -50.00     5600.00
00232               7.60     5800.00
00233              34.00     6000.00
00234             -14.00     6400.00
00235              -6.80     6800.00
00236              -0.80     6800.00
00237              26.40     7000.00
00238             -20.40     7200.00
00239             -14.00     7600.00
00240              34.00     7800.00
00241             -15.60     8400.00
00242             -13.20     8400.00
00243              24.40     8600.00
00244               5.60     8800.00
00245             -20.40     9000.00
00246               0.80     9200.00
00247              21.20     9400.00
00248             -10.80     9600.00
00249              -7.60    10200.00
00250              12.40    10200.00
00251               6.80    10400.00
00252             -10.80    10600.00
00253              -1.20    10800.00
00254              15.20    11000.00
00255              -9.20    11200.00
00256              -4.40    11400.00
00257              14.00    11600.00
00258              -0.80    11800.00
00259              -8.40    12000.00
00260               7.60    12200.00
00261               5.60    12400.00
00262              -8.80    12600.00
00263               1.20    12800.00
00264               9.20    13000.00
00265              -1.60    13200.00
00266              -3.60    13400.00
00267               6.80    13600.00
00268               2.80    13600.00
00269              -5.20    13600.00
00270               2.80    13800.00
00271               6.00    14200.00
00272              -3.60    14200.00
00273              -0.40    14400.00
00274               8.00    14400.00
00275              -2.00    14600.00
00276              -2.40    14800.00
00277               5.60    14800.00
00278               1.20    15200.00
00279              -2.40    15000.00
00280               4.00    15200.00
00281               4.00    15200.00
00282              -2.00    15600.00
00283               1.20    15600.00
00284               4.80    15600.00
00285              -0.80    15800.00
00286               0.80    15800.00
00287               4.40    16000.00
00288               1.60    16000.00
00289               0.00    16000.00
00290               2.40    16400.00
00291               2.80    16200.00
00292              -0.40    16400.00
00293               1.20    16400.00
00294               4.00    16400.00
00295               0.80    16400.00
00296               0.40    16400.00
00297               2.80    16600.00
00298               2.00    16600.00
00299               0.80    16600.00
00300               2.40    16600.00
00301               2.80    16600.00
00302               1.60    16800.00
00303               2.00    16600.00
00304               2.00    16800.00
00305               1.20    16600.00
00306               1.60    16600.00
00307               2.00    16600.00
00308               2.00    16600.00
00309               1.20    16600.00
00310               2.00    16600.00
00311               2.00    16600.00
00312               1.20    16400.00
00313               2.00    16400.00
00314               2.00    16400.00
00315               2.00    16400.00
00316               1.20    16400.00
00317               1.20    16400.00
00318               1.60    16200.00
00319               1.20    16200.00
00320               1.20    16000.00
00321               2.00    16000.00
00322               1.60    16000.00
00323               0.80    16000.00
00324               0.80    15800.00
00325               1.20    15800.00
00326               1.60    15600.00
00327               2.00    15800.00
00328               1.20    15600.00
00329               1.20    15400.00
00330               1.20    15200.00
00331               1.20    15000.00
00332               0.80    15000.00
00333               2.00    14800.00
00334               1.20    14800.00
00335               1.20    14600.00
00336               0.80    14400.00
00337               1.20    14200.00
00338               2.00    14200.00
00339               0.80    14000.00
00340               1.20    13800.00
00341               2.00    13600.00
00342               1.20    13600.00
00343               0.80    13400.00
00344               2.00    13200.00
00345               0.80    13200.00
00346               0.80    13000.00
00347               2.00    12800.00
00348               2.00    12600.00
00349               0.80    12600.00
00350               0.80    12200.00
00351               1.20    12000.00
00352               0.80    11800.00
00353               1.20    11600.00
00354               1.20    11400.00
00355               0.80    11200.00
00356               0.80    11000.00
00357               0.80    10800.00
00358               0.80    10800.00
00359               1.20    10400.00
00360               0.80    10200.00
00361               0.80    10000.00
00362               1.20     9800.00
00363               0.80     9400.00
00364               0.80     9400.00
00365               0.80     9200.00
00366               0.40     8800.00
00367               0.80     8400.00
00368               1.20     8400.00
00369               0.80     8200.00
00370               0.40     8000.00
00371               0.80     7800.00
00372               0.80     7400.00
00373               0.40     7000.00
00374               0.40     6800.00
00375               0.40     6600.00
00376               0.40     6400.00
00377               0.00     6200.00
00378               0.40     6000.00
00379               0.40     5600.00
00380               0.40     5400.00
00381               0.80     5000.00
00382               0.40     4800.00
00383               0.40     4600.00
00384               0.40     4400.00
00385               0.40     4000.00
00386              -0.40     3600.00
00387               0.00     3600.00
00388               0.40     3200.00
00389               0.00     3000.00
00390              -0.40     2800.00
00391               0.00     2600.00
00392              -0.40     2200.00
00393               0.40     2000.00
00394              -0.40     1600.00
00395               0.40     1400.00
00396              -0.40     1200.00
00397              -0.40      800.00
00398               0.40      600.00
00399              -0.40      400.00
00400              -0.80        0.00
00401               0.40     -200.00
00402               0.40     -400.00
00403               2.00     -800.00
00404              -0.40     -800.00
00405              -2.00    -1200.00
00406               0.40    -1600.00
00407               0.80    -1800.00
00408              -1.20    -2000.00
00409               3.60    -2200.00
00410              31.20    -2600.00
00411              -8.80    -3200.00
00412             -50.00    -3400.00
00413               8.80    -3600.00
00414              11.60    -3600.00
00415             -10.40    -3600.00
00416              50.00    -4400.00
00417             -50.00    -4200.00
00418              -1.20    -4400.00
00419              50.00    -5200.00
00420             -50.00    -5000.00
00421             -15.60    -5600.00
00422              50.00    -6000.00
00423             -50.00    -5600.00
00424               6.00    -6400.00
00425              14.80    -6400.00
00426              -0.80    -6800.00
00427              10.40    -7200.00
00428             -46.80    -7200.00
00429              44.00    -7800.00
00430              -4.40    -7600.00
00431             -39.60    -8000.00
00432              34.80    -8400.00
00433               0.80    -8400.00
00434              -8.80    -9000.00
00435             -20.40    -9000.00
00436              25.20    -9200.00
00437              -1.20    -9600.00
00438             -30.40    -9600.00
00439              24.00   -10000.00
00440              -2.00   -10000.00
00441              -3.60   -10400.00
00442             -13.20   -10600.00
00443              11.20   -10800.00
00444               0.80   -11000.00
00445             -22.80   -11200.00
00446              18.40   -11400.00
00447              -2.40   -11600.00
00448             -10.40   -12000.00
00449               0.80   -12000.00
00450               5.60   -12200.00
00451              -8.80   -12400.00
00452              -6.80   -12600.00
00453               6.80   -13000.00
00454              -2.80   -12800.00
00455              -5.60   -13000.00
00456               0.80   -13200.00
00457               2.40   -13200.00
00458              -9.20   -13600.00
00459              -0.40   -13800.00
00460               1.20   -13800.00
00461              -5.20   -14000.00
00462              -4.00   -14200.00
00463               2.40   -14400.00
00464              -2.00   -14600.00
00465              -7.60   -14800.00
00466               2.40   -14800.00
00467              -1.20   -14800.00
00468              -5.60   -15000.00
00469              -0.80   -15000.00
00470               2.00   -15200.00
00471              -4.40   -15400.00
00472              -4.00   -15600.00
00473               1.20   -15600.00
00474              -4.00   -15600.00
00475              -4.40   -15800.00
00476               0.40   -15800.00
00477              -0.40   -16000.00
00478              -4.40   -16000.00
00479              -2.40   -16000.00
00480              -0.40   -16200.00
00481              -3.20   -16200.00
00482              -3.60   -16200.00
00483               0.00   -16400.00
00484              -1.20   -16400.00
00485              -4.00   -16400.00
00486              -1.60   -16400.00
00487              -1.20   -16800.00
00488              -2.80   -16600.00
00489              -2.80   -16600.00
00490              -0.40   -16600.00
00491              -2.00   -16600.00
00492              -3.60   -16800.00
00493              -2.00   -16800.00
00494              -2.00   -16800.00
00495              -2.80   -16600.00
00496              -2.40   -16600.00
00497              -1.20   -16600.00
00498              -2.00   -16600.00
00499              -2.40   -16400.00
00500              -2.00   -16600.00
00501              -2.00   -16600.00
00502              -2.40   -16400.00
00503              -2.40   -16600.00
00504              -2.00   -16400.00
00505              -1.20   -16400.00
00506              -2.80   -16400.00
00507              -2.40   -16400.00
00508              -2.00   -16400.00
00509              -2.80   -16400.00
00510              -2.40   -16200.00
00511              -1.20   -16200.00
00512              -2.40   -16200.00
00513              -2.80   -16000.00
00514              -2.40   -16000.00
00515              -2.00   -15800.00
00516              -2.40   -15800.00
00517              -2.40   -15600.00
00518              -2.00   -15600.00
00519              -2.40   -15400.00
00520              -2.40   -15200.00
00521              -2.40   -15400.00
00522              -2.40   -15000.00
00523              -2.00   -15000.00
00524              -2.00   -14800.00
00525              -2.40   -14800.00
00526              -2.40   -14600.00
00527              -2.40   -14400.00
00528              -2.40   -14400.00
00529              -2.00   -14000.00
00530              -2.00   -14000.00
00531              -2.00   -13800.00
00532              -2.00   -13800.00
00533              -2.40   -13600.00
00534              -2.00   -13400.00
00535              -2.00   -13200.00
00536              -2.00   -13000.00
00537              -1.20   -12800.00
00538              -1.60   -12800.00
00539              -2.80   -12400.00
00540              -1.20   -12200.00
00541              -2.40   -12200.00
00542              -2.40   -12000.00
00543              -0.80   -11600.00
00544              -1.20   -11400.00
00545              -2.00   -11400.00
00546              -1.20   -11200.00
00547              -1.20   -10800.00
00548              -2.00   -10800.00
00549              -1.20   -10600.00
00550              -1.20   -10400.00
00551              -2.00   -10000.00
00552              -1.20    -9800.00
00553              -2.00    -9600.00
00554              -1.20    -9600.00
00555              -1.20    -9200.00
00556              -1.20    -9000.00
00557              -1.20    -8800.00
00558              -0.80    -8400.00
00559              -1.60    -8400.00
00560              -1.20    -8200.00
00561              -0.80    -8000.00
00562              -1.20    -7600.00
00563              -1.20    -7400.00
00564              -0.80    -7000.00
00565              -1.20    -6800.00
00566              -1.20    -6600.00
00567              -0.80    -6200.00
00568              -1.20    -6000.00
00569              -1.20    -5800.00
00570              -0.80    -5600.00
00571              -0.80    -5200.00
00572              -1.20    -5000.00
00573              -1.20    -4800.00
00574              -1.20    -4400.00
00575              -1.20    -4400.00
00576              -0.40    -4000.00
00577              -0.40    -3800.00
00578              -0.80    -3600.00
00579              -1.20    -3200.00
00580              -0.80    -3000.00
00581              -0.80    -2600.00
00582              -1.20    -2400.00
00583              -0.80    -2200.00
00584              -0.40    -1800.00
00585              -1.20    -1600.00
00586              -1.20    -1200.00
00587              -0.40    -1000.00
00588              -0.40     -800.00
00589              -1.20     -400.00
00590               0.40     -200.00
00591               0.40        0.00
00592              -0.80      400.00
00593               2.00      400.00
00594               1.60      800.00
00595              -1.60     1200.00
00596               0.00     1400.00
00597               2.00     1800.00
00598              -0.80     2000.00
00599              -0.40     2000.00
00600               6.00     2400.00
00601              20.00     2800.00
00602               3.60     3200.00
00603             -40.80     3200.00
00604              -6.80     3400.00
00605              25.20     3600.00
00606             -26.40     3800.00
00607              10.80     4400.00
00608              44.40     4400.00
00609             -50.00     4800.00
00610              26.40     5000.00
00611              50.00     5200.00
00612             -50.00     5600.00
00613               4.40     6000.00
00614              34.40     6000.00
00615             -13.20     6400.00
00616              -6.80     6800.00
00617              -2.40     6800.00
00618              26.40     7200.00
00619             -17.60     7400.00
00620             -16.80     7600.00
00621              33.60     7800.00
00622             -13.60     8200.00
00623             -14.00     8400.00
00624              23.20     8600.00
00625               6.40     8800.00
00626             -20.00     9000.00
00627              -0.80     9200.00
00628              21.20     9400.00
00629              -9.60     9800.00
00630              -8.40    10000.00
00631              12.00    10200.00
00632               7.60    10400.00
00633             -10.40    10600.00
00634              -2.40    10800.00
00635              15.20    11000.00
00636              -8.40    11200.00
00637              -5.20    11400.00
00638              13.60    11600.00
00639               0.80    12000.00
00640              -8.80    12000.00
00641               6.80    12200.00
00642               6.80    12400.00
00643              -8.40    12600.00
00644               0.40    12800.00
00645               9.20    13000.00
00646              -0.80    13200.00
00647              -4.80    13200.00
00648               6.00    13400.00
00649               4.00    13600.00
00650              -5.60    13800.00
00651               2.00    14000.00
00652               7.20    14000.00
00653              -3.60    14200.00
00654              -1.20    14200.00
00655               7.60    14600.00
00656              -1.20    14800.00
00657              -2.80    14800.00
00658               5.20    14800.00
00659               2.40    15200.00
00660              -2.00    15200.00
00661               2.40    15200.00
00662               4.00    15400.00
00663              -0.80    15600.00
00664               0.80    15600.00
00665               3.60    15800.00
00666               0.80    15800.00
00667               0.80    15800.00
00668               2.40    16000.00
00669               2.80    16000.00
00670               0.80    16000.00
00671               0.80    16000.00
00672               2.80    16400.00
00673               1.20    16400.00
00674               0.40    16400.00
00675               2.80    16400.00
00676               2.40    16400.00
00677               0.40    16600.00
00678               2.00    16400.00
00679               2.40    16600.00
00680               0.80    16600.00
00681               1.20    16600.00
00682               2.80    16600.00
00683               2.00    16600.00
00684               1.20    16600.00
00685               2.40    16800.00
00686               2.00    16600.00
00687               1.20    16600.00
00688               2.00    16600.00
00689               2.00    16600.00
00690               2.00    16600.00
00691               1.20    16600.00
00692               1.20    16400.00
00693               2.40    16600.00
00694               2.00    16600.00
00695               1.60    16400.00
00696               2.00    16400.00
00697               2.00    16400.00
00698               2.00    16400.00
00699               2.00    16400.00
00700               2.00    16200.00
00701               2.00    16000.00
00702               2.00    16000.00
00703               0.80    16000.00
00704               1.20    16000.00
00705               2.40    15800.00
00706               1.20    15800.00
00707               0.40    15800.00
00708               2.00    15600.00
00709               2.00    15600.00
00710               0.40    15600.00
00711               1.20    15400.00
00712               2.00    15200.00
00713               0.80    15000.00
00714               1.20    14800.00
00715               2.00    14800.00
00716               1.20    14400.00
00717               0.80    14600.00
00718               2.00    14400.00
00719               1.20    14200.00
00720               0.80    14200.00
00721               1.20    13800.00
00722               1.60    13800.00
00723               0.80    13600.00
00724               1.20    13400.00
00725               1.20    13200.00
00726               0.80    13200.00
00727               1.20    12800.00
00728               2.00    12800.00
00729               0.80    12600.00
00730               0.80    12400.00
00731               2.00    12200.00
00732               0.80    12000.00
00733               0.40    12000.00
00734               2.00    11600.00
00735               1.60    11400.00
00736              -0.40    11200.00
00737               1.20    11000.00
00738               2.00    10800.00
00739               0.40    10800.00
00740               0.80    10400.00
00741               2.00    10200.00
00742               0.80    10000.00
00743               0.40     9800.00
00744               1.20     9600.00
00745               0.80     9400.00
00746               0.80     9200.00
00747               0.40     8800.00
00748               1.20     8800.00
00749               0.80     8400.00
00750               0.40     8200.00
00751               0.80     7800.00
00752               0.40     7600.00
00753               0.80     7600.00
00754               0.80     7000.00
00755               0.40     7000.00
00756               0.40     6800.00
00757               0.80     6400.00
00758               0.40     6200.00
00759               0.40     6000.00
00760               0.40     5600.00
00761               0.80     5400.00
00762               0.40     5200.00
00763               0.40     4800.00
00764               0.40     4600.00
00765               0.80     4400.00
00766              -0.40     4200.00
00767               0.00     3800.00
00768               0.80     3600.00
00769              -0.40     3400.00
00770              -0.40     3000.00
00771               0.40     2800.00
00772              -0.40     2400.00
00773              -0.40     2200.00
00774               0.40     2000.00
00775               0.40     1600.00
00776              -0.40     1400.00
00777              -0.40     1200.00
00778              -0.40      800.00
00779              -0.40      600.00
00780              -0.40      400.00
00781              -0.40        0.00
00782               0.00     -200.00
00783              -0.40     -400.00
00784               2.00     -800.00
00785               0.00    -1000.00
00786              -2.00    -1000.00
00787               0.40    -1600.00
00788               0.40    -1800.00
00789              -1.20    -2000.00
00790               3.60    -2000.00
00791              30.00    -2600.00
00792              -6.80    -3200.00
00793             -50.00    -3400.00
00794               6.00    -3600.00
00795              13.20    -3600.00
00796             -11.60    -3600.00
00797              50.00    -4400.00
00798             -50.00    -4200.00
00799              -6.00    -4400.00
00800              50.00    -5200.00
00801             -50.00    -5000.00
00802             -22.00    -5600.00
00803              50.00    -5800.00
00804             -50.00    -5800.00
00805               2.80    -6400.00
00806              16.80    -6200.00
00807              -2.40    -6800.00
00808              12.40    -7200.00
00809             -46.40    -7000.00
00810              42.40    -7800.00
00811              -2.00    -7600.00
00812             -41.20    -8000.00
00813              34.80    -8400.00
00814               1.20    -8200.00
00815              -8.80    -9000.00
00816             -20.40    -9000.00
00817              23.20    -9200.00
00818               1.20    -9200.00
00819             -31.20    -9400.00
00820              23.20   -10000.00
00821              -1.20   -10000.00
00822              -2.80   -10400.00
00823             -12.00   -10400.00
00824              10.00   -10800.00
00825               2.40   -10800.00
00826             -23.20   -11200.00
00827              18.00   -11400.00
00828              -1.20   -11600.00
00829             -10.40   -11800.00
00830               0.80   -12000.00
00831               5.60   -12200.00
00832              -8.40   -12400.00
00833              -7.20   -12600.00
00834               7.20   -12800.00
00835              -2.40   -13000.00
00836              -6.00   -13000.00
00837               0.40   -13200.00
00838               2.80   -13400.00
00839              -8.80   -13600.00
00840              -0.80   -13800.00
00841               1.20   -14000.00
00842              -4.40   -14000.00
00843              -4.00   -14200.00
00844               2.00   -14400.00
00845              -1.20   -14600.00
00846              -8.40   -14600.00
00847               2.40   -14800.00
00848              -2.00   -14800.00
00849              -6.00   -15000.00
00850              -0.80   -15200.00
00851               1.60   -15200.00
00852              -4.80   -15400.00
00853              -3.60   -15400.00
00854               1.20   -15600.00
00855              -4.00   -15600.00
00856              -4.40   -15600.00
00857               0.40   -15600.00
00858              -0.80   -16000.00
00859              -4.00   -16000.00
00860              -2.40   -16000.00
00861              -0.40   -16200.00
00862              -3.60   -16200.00
00863              -3.60   -16400.00
00864               0.40   -16200.00
00865              -2.00   -16400.00
00866              -4.00   -16400.00
00867              -2.00   -16400.00
00868              -1.20   -16400.00
00869              -2.80   -16400.00
00870              -2.80   -16600.00
00871              -0.40   -16600.00
00872              -1.60   -16800.00
00873              -3.60   -16600.00
00874              -2.00   -16800.00
00875              -2.00   -16600.00
00876              -2.80   -16600.00
00877              -2.40   -16600.00
00878              -1.20   -16600.00
00879              -2.00   -16600.00
00880              -2.40   -16800.00
00881              -2.00   -16600.00
00882              -2.00   -16600.00
00883              -2.40   -16400.00
00884              -2.00   -16400.00
00885              -2.00   -16400.00
00886              -1.60   -16400.00
00887              -2.40   -16400.00
00888              -2.40   -16400.00
00889              -2.40   -16200.00
00890              -2.00   -16400.00
00891              -2.40   -16200.00
00892              -2.00   -16200.00
00893              -1.60   -16000.00
00894              -2.40   -16000.00
00895              -2.40   -15800.00
00896              -2.00   -15600.00
00897              -2.00   -15800.00
00898              -2.40   -15600.00
00899              -2.40   -15600.00
00900              -2.00   -15400.00
00901              -2.40   -15200.00
00902              -2.40   -15200.00
00903              -2.40   -15200.00
00904              -2.00   -14800.00
00905              -2.40   -14800.00
00906              -2.40   -14600.00
00907              -2.00   -14600.00
00908              -2.00   -14400.00
00909              -2.40   -14400.00
00910              -2.00   -14000.00
00911              -2.00   -14000.00
00912              -2.40   -13800.00
00913              -2.40   -13600.00
00914              -1.60   -13600.00
00915              -2.00   -13400.00
00916              -2.40   -13200.00
00917              -1.20   -13000.00
00918              -1.20   -12800.00
00919              -2.00   -12800.00
00920              -2.40   -12600.00
00921              -1.20   -12400.00
00922              -2.40   -12200.00
00923              -2.00   -12000.00
00924              -1.20   -11600.00
00925              -1.20   -11600.00
00926              -2.00   -11200.00
00927              -1.60   -11000.00
00928              -2.00   -11000.00
00929              -1.20   -10600.00
00930              -1.60   -10600.00
00931              -1.20   -10200.00
00932              -1.20   -10000.00
00933              -1.20    -9800.00
00934              -2.40    -9600.00
00935              -1.20    -9400.00
00936              -2.00    -9200.00
00937              -1.20    -9000.00
00938              -0.80    -8800.00
00939              -1.20    -8400.00
00940              -2.00    -8200.00
00941              -0.80    -8000.00
00942              -1.20    -7800.00
00943              -2.00    -7600.00
00944              -0.40    -7400.00
00945              -0.80    -7000.00
00946              -2.00    -6800.00
00947              -0.80    -6600.00
00948              -0.40    -6400.00
00949              -2.00    -6000.00
00950              -1.20    -5800.00
00951               0.00    -5600.00
00952              -1.20    -5400.00
00953              -1.20    -5000.00
00954               0.40    -4600.00
00955              -1.20    -4400.00
00956              -1.20    -4200.00
00957               0.00    -3800.00
00958              -1.20    -3800.00
00959              -0.80    -3400.00
00960              -0.80    -3200.00
00961              -0.80    -2800.00
00962              -0.80    -2800.00
00963              -1.20    -2400.00
00964              -1.20    -2200.00
00965              -0.40    -1800.00
00966              -0.80    -1600.00
00967              -1.20    -1600.00
00968              -0.40    -1000.00
00969               0.40     -800.00
00970              -1.20     -400.00
00971              -0.80     -200.00
00972               0.40        0.00
00973              -0.80      200.00
00974               0.80      400.00
00975               2.40      800.00
00976              -1.20     1000.00
00977              -0.80     1400.00
00978               2.00     1600.00
00979               0.40     1800.00
00980              -0.80     2000.00
00981               4.40     2200.00
00982              20.00     2800.00
00983               4.40     3200.00
00984             -40.80     3400.00
00985              -8.40     3600.00
00986              25.20     3600.00
00987             -25.60     3800.00
00988               8.80     4400.00
00989              46.80     4400.00
00990             -50.00     4800.00
00991              23.60     5200.00
00992              50.00     5200.00
00993             -50.00     5400.00
00994               2.00     6000.00
00995              35.60     6000.00
00996             -12.40     6400.00
00997              -6.80     6600.00
00998              -3.60     6800.00
00999              26.00     7200.00
01000             -16.40     7200.00
01001             -18.00     7600.00
01002              34.00     7800.00
01003             -12.40     8200.00
01004             -15.20     8400.00
01005              23.20     8600.00
01006               6.80     8800.00
01007             -20.00     8800.00
01008              -1.20     9200.00
01009              21.20     9600.00
01010              -9.20     9800.00
01011              -9.20    10000.00
01012              11.60    10200.00
01013               8.00    10400.00
01014             -10.00    10800.00
01015              -2.40    10800.00
01016              15.60    11000.00
01017              -8.80    11200.00
01018              -5.60    11600.00
01019              14.00    11800.00
01020              -0.40    12000.00
01021              -8.40    12000.00
01022               7.60    12200.00
01023               6.80    12400.00
01024              -8.80    12600.00
01025               0.80    12800.00
01026              10.40    13200.00
01027              -1.20    13200.00
01028              -4.40    13200.00
01029               7.20    13400.00
01030               2.80    13600.00
01031              -6.00    13800.00
01032               2.80    14000.00
01033               6.80    14200.00
01034              -3.60    14200.00
01035              -0.80    14400.00
01036               8.40    14600.00
01037              -1.20    14800.00
01038              -3.20    14800.00
01039               5.60    15000.00
01040               2.00    15000.00
01041              -2.40    15200.00
01042               3.60    15200.00
01043               4.40    15200.00
01044              -1.20    15400.00
01045               0.40    15600.00
01046               4.00    15800.00
01047               0.80    15800.00
01048               0.40    16000.00
01049               3.60    16000.00
01050               2.40    16000.00
01051               0.00    16000.00
01052               0.80    16400.00
01053               2.80    16200.00
01054               0.80    16400.00
01055               0.40    16400.00
01056               4.40    16400.00
01057               2.80    16400.00
01058              -0.80    16600.00
01059               2.80    16600.00
01060               3.60    16600.00
01061              -1.20    16400.00
01062               2.00    16400.00
01063               4.40    16800.00
01064               0.80    16600.00
01065               0.40    16600.00
01066               4.00    16600.00
01067               2.00    16600.00
01068              -0.40    16600.00
01069               3.60    16600.00
01070               3.60    16600.00
01071               1.20    16600.00
01072               1.20    16400.00
01073               2.00    16600.00
01074               2.00    16400.00
01075               0.80    16400.00
01076               2.40    16400.00
01077               2.40    16400.00
01078               1.20    16400.00
01079               1.20    16400.00
01080               2.40    16400.00
01081               2.00    16200.00
01082               1.20    16200.00
01083               2.00    16000.00
01084               2.00    15800.00
01085               2.00    16000.00
01086               1.20    16000.00
01087               2.00    15800.00
01088               2.40    15800.00
01089               2.80    15600.00
01090               0.80    15400.00
01091               0.80    15200.00
01092               2.00    15200.00
01093               1.20    15200.00
01094               0.80    15000.00
01095               2.00    14800.00
01096               2.00    14800.00
01097               1.20    14600.00
01098               0.80    14600.00
01099               1.20    14400.00
01100               1.20    14200.00
01101               0.80    14000.00
01102               1.20    13800.00
01103               2.00    13800.00
01104               1.20    13600.00
01105               0.40    13400.00
01106               1.20    13200.00
01107               1.60    13000.00
01108               0.80    12800.00
01109               1.20    12600.00
01110               2.00    12600.00
01111               0.80    12400.00
01112               0.80    12400.00
01113               0.80    12000.00
01114               1.20    12000.00
01115               0.80    11600.00
01116               0.40    11400.00
01117               1.60    11200.00
01118               0.80    11000.00
01119               0.40    10800.00
01120               2.00    10800.00
01121               0.80    10400.00
01122               0.80    10200.00
01123               1.20    10000.00
01124               0.80     9600.00
01125               0.40     9600.00
01126               0.80     9200.00
01127               0.80     9200.00
01128               0.80     8800.00
01129               1.20     8600.00
01130               0.40     8400.00
01131               0.40     8400.00
01132               2.00     8000.00
01133               0.40     7600.00
01134               0.40     7400.00
01135               0.80     7200.00
01136               0.80     7000.00
01137               0.40     6600.00
01138               0.40     6400.00
01139               0.80     6200.00
01140               0.80     5800.00
01141              -0.40     5600.00
01142               0.80     5400.00
01143               0.80     5200.00
01144              -0.40     4800.00
01145               0.40     4600.00
01146               0.80     4400.00
01147               0.40     4000.00
01148              -0.40     3800.00
01149               0.40     3600.00
01150               0.80     3400.00
01151              -0.40     3000.00
01152               0.40     2800.00
01153               0.00     2600.00
01154               0.00     2200.00
01155               0.00     2000.00
01156              -0.80     1800.00
01157               0.40     1400.00
01158              -0.40     1200.00
01159              -0.80      800.00
01160              -0.40      600.00
01161              -0.40      400.00
01162              -0.80        0.00
01163               0.40     -200.00
01164               0.40     -400.00
01165               2.00     -600.00
01166              -0.40     -800.00
01167              -2.00    -1200.00
01168               0.00    -1600.00
01169               0.40    -1800.00
01170              -1.20    -2000.00
01171               3.60    -2200.00
01172              31.20    -2800.00
01173              -5.60    -3200.00
01174             -50.00    -3400.00
01175               5.60    -3600.00
01176              13.60    -3600.00
01177             -14.00    -3600.00
01178              50.00    -4200.00
01179             -50.00    -4200.00
01180             -13.60    -4400.00
01181              50.00    -5200.00
01182             -50.00    -5000.00
01183             -31.20    -5600.00
01184              50.00    -6000.00
01185             -50.00    -5800.00
01186              -2.40    -6400.00
01187              18.00    -6400.00
01188              -1.20    -6800.00
01189              13.20    -7200.00
01190             -48.40    -7000.00
01191              40.80    -7600.00
01192               2.00    -7600.00
01193             -44.00    -8000.00
01194              34.40    -8400.00
01195               2.80    -8400.00
01196              -8.80    -9000.00
01197             -21.20    -8800.00
01198              22.00    -9200.00
01199               3.20    -9400.00
01200             -32.80    -9600.00
01201              23.20   -10000.00
01202               0.00   -10000.00
01203              -4.00   -10400.00
01204             -12.40   -10400.00
01205               9.20   -10600.00
01206               4.00   -11000.00
01207             -23.60   -11200.00
01208              18.00   -11400.00
01209              -0.40   -11400.00
01210             -10.80   -11800.00
01211               0.80   -12000.00
01212               6.00   -12200.00
01213              -8.40   -12400.00
01214              -7.60   -12600.00
01215               7.60   -12800.00
01216              -2.40   -13000.00
01217              -6.00   -13000.00
01218               0.80   -13200.00
01219               3.60   -13600.00
01220              -9.20   -13600.00
01221              -0.80   -13800.00
01222               2.00   -13800.00
01223              -4.40   -14000.00
01224              -4.00   -14200.00
01225               2.40   -14400.00
01226              -1.20   -14400.00
01227              -8.40   -14600.00
01228               2.00   -14800.00
01229              -1.20   -14800.00
01230              -5.60   -15200.00
01231              -0.80   -15200.00
01232               1.20   -15200.00
01233              -4.00   -15400.00
01234              -4.00   -15600.00
01235               0.80   -15600.00
01236              -3.20   -15600.00
01237              -4.40   -15600.00
01238               0.00   -15800.00
01239              -0.40   -16000.00
01240              -4.00   -16200.00
01241              -2.80   -16000.00
01242              -0.40   -16200.00
01243              -2.80   -16400.00
01244              -3.60   -16400.00
01245              -0.80   -16400.00
01246              -1.20   -16400.00
01247              -3.60   -16400.00
01248              -2.40   -16400.00
01249              -1.20   -16400.00
01250              -2.80   -16600.00
01251              -3.60   -16600.00
01252              -0.80   -16600.00
01253              -1.20   -16600.00
01254              -2.80   -16800.00
01255              -2.00   -16600.00
01256              -2.00   -16800.00
01257              -2.80   -16600.00
01258              -2.40   -16800.00
01259              -1.20   -16600.00
01260              -1.20   -16800.00
01261              -2.80   -16800.00
01262              -2.40   -16800.00
01263              -2.00   -16600.00
01264              -2.40   -16800.00
01265              -2.00   -16400.00
01266              -2.00   -16400.00
01267              -1.20   -16400.00
01268              -2.40   -16400.00
01269              -2.40   -16400.00
01270              -1.60   -16400.00
01271              -2.00   -16200.00
01272              -2.40   -16200.00
01273              -2.00   -16200.00
01274              -2.00   -16000.00
01275              -2.40   -16000.00
01276              -2.40   -16000.00
01277              -2.00   -15800.00
01278              -2.00   -15600.00
01279              -2.40   -15600.00
01280              -2.00   -15600.00
01281              -1.20   -15400.00
01282              -2.40   -15200.00
01283              -2.00   -15200.00
01284              -1.60   -15000.00
01285              -2.40   -14800.00
01286              -2.00   -14800.00
01287              -2.00   -14600.00
01288              -2.40   -14800.00
01289              -2.40   -14600.00
01290              -2.00   -14200.00
01291              -2.00   -14200.00
01292              -2.00   -14000.00
01293              -2.00   -13800.00
01294              -2.40   -13800.00
01295              -2.00   -13600.00
01296              -2.00   -13400.00
01297              -2.40   -13200.00
01298              -1.20   -13000.00
01299              -2.00   -13000.00
01300              -2.40   -12800.00
01301              -2.00   -12600.00
01302              -2.00   -12400.00
01303              -2.00   -12200.00
01304              -1.60   -12000.00
01305              -2.00   -11600.00
01306              -1.20   -11600.00
01307              -2.00   -11400.00
01308              -2.40   -11200.00
01309              -2.00   -11000.00
01310              -2.00   -10800.00
01311              -2.00   -10600.00
01312              -1.20   -10200.00
01313              -2.00   -10000.00
01314              -0.80    -9800.00
01315              -2.00    -9800.00
01316              -2.40    -9600.00
01317              -1.20    -9200.00
01318              -1.20    -9000.00
01319              -1.20    -8800.00
01320              -0.40    -8400.00
01321              -1.60    -8400.00
01322              -1.60    -8000.00
01323              -1.20    -7800.00
01324              -1.20    -7400.00
01325              -2.00    -7400.00
01326              -0.80    -7200.00
01327              -1.20    -6800.00
01328              -1.20    -6600.00
01329              -1.20    -6400.00
01330              -0.80    -6000.00
01331              -1.20    -5800.00
01332              -0.80    -5600.00
01333              -0.80    -5200.00
01334              -1.20    -5000.00
01335              -0.80    -4800.00
01336              -0.80    -4400.00
01337              -1.20    -4200.00
01338              -0.80    -4000.00
01339              -0.40    -3800.00
01340              -1.20    -3400.00
01341              -0.40    -3200.00
01342              -0.80    -2800.00
01343              -1.20    -2600.00
01344              -0.40    -2400.00
01345              -1.20    -2200.00
01346              -0.40    -2000.00
01347               0.00    -1600.00
01348              -0.40    -1400.00
01349              -1.20    -1000.00
01350              -0.80     -800.00
01351              -0.40     -400.00
01352              -0.40     -200.00
01353              -0.80        0.00
01354               0.00      400.00
01355               1.20      600.00
01356               1.20      800.00
01357              -2.00     1200.00
01358               0.40     1200.00
01359               1.60     1800.00
01360              -1.20     1800.00
01361               0.80     2000.00
01362               5.20     2400.00
01363              17.60     2800.00
01364               7.20     3000.00
01365             -40.40     3200.00
01366             -12.00     3600.00
01367              26.00     3800.00
01368             -22.80     3800.00
01369               4.80     4400.00
01370              48.40     4400.00
01371             -50.00     4800.00
01372              18.80     5200.00
01373              50.00     5200.00
01374             -50.00     5400.00
01375              -1.20     6000.00
01376              36.40     6000.00
01377             -12.00     6400.00
01378              -7.20     6800.00
01379              -3.60     6800.00
01380              26.40     7200.00
01381             -14.00     7200.00
01382             -20.00     7600.00
01383              32.80     7800.00
01384             -10.40     8200.00
01385             -16.40     8400.00
01386              21.60     8600.00
01387               8.00     8800.00
01388             -19.20     9000.00
01389              -2.80     9200.00
01390              21.60     9400.00
01391              -8.40     9800.00
01392             -10.00    10000.00
01393              12.00    10200.00
01394               8.80    10400.00
01395              -9.20    10400.00
01396              -3.60    10800.00
01397              16.00    11000.00
01398              -7.60    11200.00
01399              -6.80    11600.00
01400              14.40    11600.00
01401               1.60    11800.00
01402              -9.20    12000.00
01403               6.80    12200.00
01404               7.20    12400.00
01405              -8.40    12600.00
01406               0.80    12800.00
01407              10.00    12800.00
01408              -1.20    13200.00
01409              -4.40    13200.00
01410               6.80    13600.00
01411               3.60    13400.00
01412              -4.40    13600.00
01413               2.80    14000.00
01414               6.80    14200.00
01415              -2.80    14200.00
01416              -0.80    14200.00
01417               7.60    14600.00
01418               0.40    14600.00
01419              -4.00    14800.00
01420               5.20    15000.00
01421               3.60    15000.00
01422              -2.80    15200.00
01423               2.40    15200.00
01424               5.20    15400.00
01425              -1.20    15600.00
01426               0.00    15600.00
01427               4.40    15600.00
01428               0.40    15600.00
01429              -0.40    15800.00
01430               3.60    15800.00
01431               2.80    16000.00
01432              -0.40    16000.00
01433               1.20    16200.00
01434               3.60    16200.00
01435               1.20    16400.00
01436              -0.80    16400.00
01437               4.00    16600.00
01438               3.20    16400.00
01439              -1.20    16400.00
01440               2.40    16400.00
01441               3.60    16400.00
01442              -1.20    16600.00
01443               1.60    16400.00
01444               4.00    16600.00
01445               1.20    16600.00
01446               0.00    16600.00
01447               2.40    16800.00
01448               2.80    16600.00
01449              -0.40    16600.00
01450               2.40    16600.00
01451               3.60    16600.00
01452               0.40    16600.00
01453               1.60    16600.00
01454               2.40    16600.00
01455               0.80    16400.00
01456               1.60    16600.00
01457               1.20    16400.00
01458               2.80    16400.00
01459               1.60    16400.00
01460               1.20    16400.00
01461               1.60    16400.00
01462               2.80    16200.00
01463               1.20    16200.00
01464               0.40    16000.00
01465               2.40    16000.00
01466               2.40    16000.00
01467              -0.40    16000.00
01468               2.80    15800.00
01469               2.80    15800.00
01470               0.80    15600.00
01471               0.80    15400.00
01472               2.80    15400.00
01473               2.00    15200.00
01474               0.00    15200.00
01475               2.00    14800.00
01476               3.60    14800.00
01477              -0.80    14800.00
01478               1.20    14600.00
01479               2.80    14600.00
01480               0.40    14200.00
01481               0.80    14200.00
01482               3.60    14000.00
01483               0.80    14000.00
01484               0.40    13800.00
01485               2.00    13600.00
01486               0.40    13400.00
01487               0.40    13200.00
01488               2.00    13000.00
01489               0.80    12800.00
01490               0.80    12800.00
01491               1.60    12600.00
01492               0.80    12400.00
01493               0.40    12200.00
01494               1.20    12000.00
01495               0.80    11800.00
01496               1.20    11800.00
01497               0.80    11400.00
01498               0.80    11200.00
01499               0.40    11000.00
01500               0.80    10800.00
01501               0.80    10600.00
01502               1.20    10400.00
01503               0.80    10400.00
01504               1.20    10000.00
01505               0.40     9800.00
01506               0.40     9600.00
01507               0.80     9400.00
01508               0.00     9200.00
01509               0.80     8800.00
01510               1.20     8600.00
01511               0.80     8400.00
01512               0.40     8200.00
01513               1.20     8000.00
01514               0.40     7800.00
01515               0.00     7600.00
01516               0.80     7200.00
01517               1.20     7000.00
01518              -0.40     6600.00
01519               0.40     6600.00
01520               0.80     6200.00
01521               0.00     6000.00
01522               0.00     5800.00
01523               1.20     5600.00
01524               0.40     5200.00
01525              -0.40     5000.00
01526               0.80     4600.00
01527               0.40     4400.00
01528              -0.80     4000.00
01529              -0.40     3800.00
01530               0.80     3600.00
01531               0.40     3400.00
01532               0.00     3000.00
01533               0.40     2800.00
01534               0.40     2400.00
01535              -0.80     2200.00
01536              -0.40     2000.00
01537               0.40     1800.00
01538               0.40     1400.00
01539              -0.40     1200.00
01540              -0.40     1000.00
01541               0.00      600.00
01542              -0.40      400.00
01543              -0.40        0.00
01544               0.40     -200.00
01545               0.00     -400.00
01546               2.00     -800.00
01547               0.40     -800.00
01548              -1.60    -1200.00
01549               0.40    -1400.00
01550               0.40    -1800.00
01551              -1.60    -2000.00
01552               2.40    -2000.00
01553              29.60    -2600.00
01554              -2.80    -3000.00
01555             -50.00    -3400.00
01556               4.00    -3600.00
01557              16.40    -3600.00
01558             -16.40    -3400.00
01559              50.00    -4400.00
01560             -50.00    -4200.00
01561             -19.20    -4400.00
01562              50.00    -5200.00
01563             -50.00    -5000.00
01564             -36.40    -5600.00
01565              50.00    -6000.00
01566             -50.00    -5800.00
01567              -5.20    -6400.00
01568              20.00    -6200.00
01569              -4.40    -6600.00
01570              15.20    -7200.00
01571             -48.40    -7000.00
01572              37.60    -7600.00
01573               5.20    -7600.00
01574             -45.60    -8000.00
01575              32.80    -8400.00
01576               4.00    -8200.00
01577              -8.80    -8800.00
01578             -20.80    -8800.00
01579              21.20    -9200.00
01580               5.20    -9400.00
01581             -33.60    -9600.00
01582              22.00   -10000.00
01583               0.40   -10000.00
01584              -4.00   -10400.00
01585             -12.00   -10400.00
01586               8.40   -10600.00
01587               5.60   -11000.00
01588             -24.80   -11200.00
01589              16.80   -11400.00
01590               0.80   -11600.00
01591             -10.80   -11800.00
01592               0.40   -12000.00
01593               6.40   -12200.00
01594              -7.20   -12400.00
01595              -7.60   -12600.00
01596               7.60   -12800.00
01597              -2.40   -12800.00
01598              -6.00   -13200.00
01599               0.40   -13200.00
01600               3.60   -13400.00
01601              -8.00   -13600.00
01602              -0.80   -13600.00
01603               2.00   -13800.00
01604              -4.40   -14000.00
01605              -3.60   -14000.00
01606               2.80   -14200.00
01607              -1.20   -14400.00
01608              -7.60   -14600.00
01609               2.40   -14800.00
01610              -1.20   -15000.00
01611              -6.00   -14800.00
01612              -0.80   -15000.00
01613               2.00   -15400.00
01614              -4.40   -15400.00
01615              -4.00   -15400.00
01616               1.20   -15400.00
01617              -4.00   -15600.00
01618              -4.40   -15800.00
01619               0.40   -15600.00
01620              -0.80   -16000.00
01621              -4.00   -16000.00
01622              -2.80   -16000.00
01623              -0.40   -16200.00
01624              -3.20   -16200.00
01625              -4.00   -16200.00
01626              -0.40   -16400.00
01627              -1.20   -16200.00
01628              -4.00   -16400.00
01629              -2.40   -16600.00
01630              -1.60   -16400.00
01631              -3.60   -16400.00
01632              -2.40   -16600.00
01633              -2.00   -16600.00
01634              -2.00   -16800.00
01635              -2.40   -16600.00
01636              -3.60   -16800.00
01637              -2.00   -16800.00
01638              -1.60   -16800.00
01639              -3.60   -16800.00
01640              -1.20   -16600.00
01641              -0.80   -16800.00
01642              -2.80   -16800.00
01643              -2.80   -16600.00
01644              -2.00   -16600.00
01645              -2.00   -16800.00
01646              -3.60   -16400.00
01647              -2.00   -16400.00
01648              -0.80   -16400.00
01649              -3.20   -16400.00
01650              -2.40   -16400.00
01651              -1.20   -16200.00
01652              -2.40   -16400.00
01653              -2.40   -16200.00
01654              -2.00   -16200.00
01655              -1.60   -16000.00
01656              -2.40   -16000.00
01657              -2.40   -15800.00
01658              -1.60   -16000.00
01659              -2.00   -15600.00
01660              -2.40   -15600.00
01661              -2.00   -15600.00
01662              -1.20   -15400.00
01663              -2.40   -15400.00
01664              -2.40   -15200.00
01665              -1.60   -15200.00
01666              -2.00   -14800.00
01667              -2.40   -14800.00
01668              -2.00   -14800.00
01669              -2.00   -14600.00
01670              -2.40   -14400.00
01671              -1.60   -14400.00
01672              -2.00   -14000.00
01673              -1.20   -14000.00
01674              -2.00   -13800.00
01675              -2.40   -13600.00
01676              -1.60   -13600.00
01677              -2.00   -13400.00
01678              -2.40   -13200.00
01679              -2.00   -13000.00
01680              -1.60   -12800.00
01681              -2.40   -12800.00
01682              -2.40   -12400.00
01683              -2.00   -12400.00
01684              -2.00   -12200.00
01685              -2.40   -12000.00
01686              -2.00   -11600.00
01687              -1.20   -11400.00
01688              -2.40   -11400.00
01689              -2.00   -11200.00
01690              -2.00   -10800.00
01691              -2.00   -10800.00
01692              -2.00   -10400.00
01693              -1.20   -10400.00
01694              -2.40   -10000.00
01695              -0.80    -9800.00
01696              -2.40    -9600.00
01697              -2.00    -9600.00
01698              -1.20    -9200.00
01699              -2.40    -9000.00
01700              -1.60    -8800.00
01701              -0.80    -8600.00
01702              -2.00    -8400.00
01703              -2.00    -8000.00
01704              -1.20    -8000.00
01705              -1.20    -7600.00
01706              -1.20    -7200.00
01707              -1.20    -7000.00
01708              -1.20    -6800.00
01709              -1.20    -6600.00
01710              -1.60    -6400.00
01711              -1.20    -6000.00
01712              -1.20    -5800.00
01713              -1.20    -5600.00
01714              -1.20    -5200.00
01715              -0.80    -5000.00
01716              -1.20    -4600.00
01717              -1.20    -4400.00
01718              -0.40    -4000.00
01719              -0.80    -4000.00
01720              -1.20    -3600.00
01721               0.00    -3400.00
01722              -0.80    -3200.00
01723              -1.20    -3000.00
01724              -0.80    -2600.00
01725              -0.80    -2400.00
01726              -0.80    -2000.00
01727              -0.40    -1800.00
01728              -0.40    -1600.00
01729              -0.40    -1200.00
01730              -0.80    -1000.00
01731              -0.40     -800.00
01732              -0.80     -400.00
01733               0.00     -200.00
01734               0.40        0.00
01735              -0.40      200.00
01736               1.20      400.00
01737               2.00      800.00
01738              -1.20     1000.00
01739               0.00     1200.00
01740               2.00     1600.00
01741              -0.80     1800.00
01742              -0.40     2000.00
01743               5.20     2400.00
01744              18.00     2800.00
01745               7.60     3200.00
01746             -38.80     3200.00
01747             -12.40     3600.00
01748              26.00     3600.00
01749             -22.00     3800.00
01750               2.40     4200.00
01751              50.00     4600.00
01752             -50.00     4600.00
01753              14.80     5200.00
01754              50.00     5200.00
01755             -50.00     5600.00
01756              -4.40     6000.00
01757              38.00     6000.00
01758             -12.00     6400.00
01759              -7.20     6600.00
01760              -4.40     7000.00
01761              26.00     7200.00
01762             -12.80     7200.00
01763             -21.60     7400.00
01764              32.80     7800.00
01765              -8.80     8200.00
01766             -17.20     8400.00
01767              21.60     8600.00
01768               8.80     8800.00
01769             -19.60     9000.00
01770              -3.60     9200.00
01771              22.00     9600.00
01772              -7.20     9800.00
01773             -10.80    10000.00
01774              11.60    10200.00
01775               8.80    10400.00
01776              -9.20    10400.00
01777              -4.00    10800.00
01778              15.60    11000.00
01779              -6.00    11200.00
01780              -7.20    11600.00
01781              13.60    11800.00
01782               2.00    11800.00
01783              -8.80    12000.00
01784               6.00    12200.00
01785               8.00    12400.00
01786              -7.60    12600.00
01787              -0.80    12800.00
01788              10.00    13000.00
01789               0.00    13200.00
01790              -4.80    13200.00
01791               6.40    13400.00
01792               4.40    13600.00
01793              -5.20    14000.00
01794               1.20    13800.00
01795               7.20    14200.00
01796              -2.40    14200.00
01797              -1.20    14200.00
01798               8.40    14800.00
01799              -0.40    14600.00
01800              -3.60    14800.00
01801               5.60    15000.00
01802               2.80    15000.00
01803              -2.00    15000.00
01804               2.80    15200.00
01805               5.20    15200.00
01806              -1.20    15400.00
01807               0.40    15600.00
01808               4.40    15600.00
01809               0.80    15600.00
01810               0.40    15800.00
01811               2.80    16000.00
01812               2.80    16000.00
01813               0.40    16000.00
01814               0.80    16000.00
01815               2.80    16400.00
01816               0.80    16200.00
01817               0.00    16400.00
01818               3.60    16400.00
01819               2.00    16400.00
01820               0.40    16400.00
01821               1.60    16600.00
01822               2.40    16400.00
01823               0.80    16600.00
01824               0.80    16600.00
01825               2.80    16600.00
01826               2.00    16600.00
01827               0.80    16600.00
01828               2.00    16600.00
01829               1.60    16600.00
01830               0.80    16600.00
01831               2.00    16600.00
01832               2.40    16600.00
01833               0.80    16600.00
01834               1.60    16400.00
01835               1.20    16600.00
01836               1.20    16400.00
01837               2.00    16400.00
01838               2.00    16400.00
01839               2.00    16400.00
01840               1.20    16400.00
01841               2.00    16400.00
01842               2.00    16200.00
01843               1.20    16200.00
01844               2.00    16000.00
01845               2.00    16200.00
01846               1.20    16000.00
01847               1.20    16000.00
01848               2.00    15800.00
01849               1.20    15800.00
01850               2.00    15800.00
01851               2.40    15600.00
01852               1.20    15400.00
01853               1.20    15600.00
01854               2.00    15200.00
01855               1.20    15000.00
01856               1.20    15000.00
01857               2.00    14800.00
01858               1.20    14800.00
01859               1.20    14800.00
01860               1.20    14400.00
01861               1.60    14400.00
01862               1.20    14200.00
01863               1.20    14200.00
01864               1.20    14000.00
01865               2.00    13600.00
01866               1.20    13600.00
01867               0.80    13400.00
01868               2.00    13200.00
01869               1.20    13200.00
01870               0.80    13000.00
01871               1.20    12800.00
01872               1.20    12600.00
01873               0.40    12400.00
01874               0.80    12400.00
01875               0.80    12000.00
01876               0.80    11800.00
01877               0.80    11600.00
01878               0.80    11400.00
01879               1.20    11200.00
01880               0.40    11000.00
01881               0.80    11000.00
01882               0.80    10800.00
01883               0.40    10400.00
01884               0.80    10200.00
01885               1.20    10000.00
01886               0.80     9600.00
01887               0.40     9600.00
01888               0.80     9200.00
01889               0.40     9000.00
01890               0.40     8800.00
01891               0.40     8600.00
01892               0.80     8400.00
01893               0.40     8200.00
01894               0.40     8000.00
01895               0.40     7800.00
01896               0.40     7600.00
01897               0.40     7200.00
01898               0.80     6800.00
01899               0.80     6800.00
01900               0.40     6400.00
01901               0.40     6400.00
01902               0.40     6000.00
01903               0.40     5600.00
01904               0.80     5400.00
01905               0.00     5200.00
01906               0.40     4800.00
01907               0.40     4600.00
01908              -0.40     4400.00
01909               0.40     4200.00
01910               0.40     3800.00
01911               0.40     3600.00
01912               0.40     3200.00
01913               0.00     3200.00
01914               0.40     2800.00
01915               0.40     2400.00
01916               0.40     2200.00
01917               0.00     2000.00
01918               0.00     1800.00
01919              -0.40     1400.00
01920              -0.40     1200.00
01921              -0.40      800.00
01922              -0.40      800.00
01923              -0.40      400.00
01924              -0.40        0.00
01925               0.80     -200.00
01926               0.00     -400.00
01927               1.20     -600.00
01928               0.80    -1000.00
01929              -1.20    -1200.00
01930              -1.20    -1400.00
01931               1.20    -1800.00
01932               0.00    -2000.00
01933               1.20    -2200.00
01934              29.60    -2600.00
01935               0.40    -3200.00
01936             -50.00    -3400.00
01937               2.00    -3600.00
01938              19.20    -3800.00
01939             -18.00    -3600.00
01940              50.00    -4400.00
01941             -50.00    -4400.00
01942             -24.80    -4400.00
01943              50.00    -5200.00
01944             -50.00    -5000.00
01945             -42.80    -5600.00
01946              50.00    -5800.00
01947             -50.00    -5600.00
01948              -8.40    -6400.00
01949              21.20    -6400.00
01950              -5.60    -6600.00
01951              16.80    -7200.00
01952             -48.80    -7000.00
01953              34.80    -7600.00
01954               8.80    -7600.00
01955             -47.20    -7800.00
01956              32.40    -8400.00
01957               5.20    -8400.00
01958              -8.80    -8800.00
01959             -21.60    -9000.00
01960              19.60    -9200.00
01961               7.20    -9600.00
01962             -34.80    -9600.00
01963              21.60   -10000.00
01964               1.20   -10000.00
01965              -4.40   -10400.00
01966             -12.00   -10600.00
01967               7.60   -10800.00
01968               6.80   -11000.00
01969             -25.20   -11200.00
01970              15.60   -11400.00
01971               2.00   -11600.00
01972             -12.00   -11600.00
01973              -0.40   -12000.00
01974               6.00   -12200.00
01975              -6.80   -12400.00
01976              -8.40   -12600.00
01977               7.60   -12800.00
01978              -1.60   -12800.00
01979              -6.00   -13000.00
01980              -0.40   -13200.00
01981               3.60   -13400.00
01982              -8.80   -13600.00
01983              -2.00   -13800.00
01984               2.40   -13800.00
01985              -4.40   -14000.00
01986              -4.00   -14200.00
01987               2.40   -14200.00
01988               0.00   -14400.00
01989              -8.80   -14600.00
01990               2.00   -14800.00
01991               0.40   -14800.00
01992              -6.00   -15000.00
01993              -1.60   -15000.00
01994               2.80   -15200.00
01995              -4.00   -15400.00
01996              -5.20   -15400.00
01997               2.00   -15600.00
01998              -2.80   -15600.00
01999              -5.60   -15800.00
02000               0.00   -15800.00
02001               0.80   -16000.00
02002              -5.20   -16000.00
02003              -2.80   -16000.00
02004               0.40   -16200.00
02005              -4.00   -16400.00
02006              -4.40   -16400.00
02007               0.40   -16400.00
02008              -1.20   -16400.00
02009              -4.00   -16400.00
02010              -2.00   -16400.00
02011              -1.20   -16400.00
02012              -3.60   -16600.00
02013              -3.60   -16400.00
02014              -0.80   -16600.00
02015              -2.00   -16400.00
02016              -4.00   -16800.00
02017              -2.40   -16800.00
02018              -2.00   -16600.00
02019              -3.20   -16800.00
02020              -2.80   -16600.00
02021              -1.20   -16800.00
02022              -2.00   -16600.00
02023              -3.60   -16400.00
02024              -2.00   -16800.00
02025              -2.40   -16600.00
02026              -2.40   -16600.00
02027              -2.80   -16400.00
02028              -2.00   -16400.00
02029              -1.60   -16600.00
02030              -2.80   -16400.00
02031              -2.40   -16400.00
02032              -2.40   -16400.00
02033              -2.40   -16200.00
02034              -2.40   -16200.00
02035              -2.00   -16200.00
02036              -2.40   -16000.00
02037              -2.40   -16200.00
02038              -2.40   -15800.00
02039              -2.80   -15800.00
02040              -2.00   -15600.00
02041              -2.40   -15600.00
02042              -2.00   -15600.00
02043              -2.00   -15600.00
02044              -2.40   -15400.00
02045              -2.40   -15200.00
02046              -2.00   -15200.00
02047              -2.00   -15000.00
02048              -2.00   -14800.00
02049              -2.40   -14800.00
02050              -2.00   -14400.00
02051              -1.20   -14600.00
02052              -2.40   -14400.00
02053              -1.60   -14200.00
02054              -1.20   -14000.00
02055              -2.00   -14000.00
02056              -2.40   -13800.00
02057              -1.60   -13600.00
02058              -2.00   -13400.00
02059              -2.40   -13200.00
02060              -1.60   -13000.00
02061              -1.60   -12800.00
02062              -2.00   -12800.00
02063              -1.60   -12600.00
02064              -1.60   -12400.00
02065              -2.00   -12200.00
02066              -2.00   -12000.00
02067              -1.20   -11800.00
02068              -1.20   -11600.00
02069              -2.40   -11400.00
02070              -2.40   -11200.00
02071              -1.20   -11000.00
02072              -2.40   -10800.00
02073              -2.00   -10600.00
02074              -1.20   -10400.00
02075              -2.00   -10200.00
02076              -1.20   -10000.00
02077              -2.00    -9800.00
02078              -2.40    -9600.00
02079              -0.80    -9200.00
02080              -2.00    -9000.00
02081              -1.60    -8800.00
02082              -0.80    -8600.00
02083              -1.20    -8400.00
02084              -1.20    -8200.00
02085              -1.20    -7600.00
02086              -1.20    -7600.00
02087              -2.40    -7200.00
02088              -1.20    -7200.00
02089              -0.40    -6800.00
02090              -2.00    -6600.00
02091              -1.20    -6400.00
02092              -0.80    -6200.00
02093              -1.20    -5800.00
02094              -1.20    -5600.00
02095              -0.40    -5200.00
02096              -0.80    -5000.00
02097              -1.20    -4800.00
02098              -0.80    -4600.00
02099              -0.80    -4400.00
02100              -0.80    -4000.00
02101               0.00    -3600.00
02102              -1.20    -3400.00
02103              -0.80    -3200.00
02104              -0.40    -3000.00
02105              -1.20    -2800.00
02106              -1.20    -2400.00
02107               0.40    -2000.00
02108              -0.80    -2000.00
02109              -0.80    -1600.00
02110               0.00    -1400.00
02111              -0.80    -1000.00
02112              -0.80     -800.00
02113              -0.40     -400.00
02114               0.40     -200.00
02115              -0.40        0.00
02116              -0.40      400.00
02117               2.40      400.00
02118               2.00      800.00
02119              -1.20     1200.00
02120               0.40     1400.00
02121               1.20     1600.00
02122              -0.40     1800.00
02123              -0.80     2000.00
02124               4.40     2400.00
02125              18.80     2800.00
02126               8.80     3000.00
02127             -39.20     3200.00
02128             -13.20     3400.00
02129              26.00     3800.00
02130             -20.40     3800.00
02131               1.20     4400.00
02132              48.80     4400.00
02133             -50.00     4800.00
02134              14.00     5200.00
02135              50.00     5200.00
02136             -50.00     5600.00
02137              -5.20     6000.00
02138              40.40     6000.00
02139             -13.60     6400.00
02140              -8.00     6600.00
02141              -2.40     6800.00
02142              24.80     7200.00
02143             -12.00     7200.00
02144             -22.00     7400.00
02145              32.80     7800.00
02146              -8.40     8200.00
02147             -18.40     8400.00
02148              21.20     8800.00
02149               8.80     8800.00
02150             -19.20     9200.00
02151              -4.00     9200.00
02152              21.60     9400.00
02153              -6.80     9600.00
02154             -10.80    10000.00
02155              10.40    10200.00
02156               9.20    10400.00
02157              -8.80    10600.00
02158              -5.20    10800.00
02159              15.20    11000.00
02160              -5.60    11200.00
02161              -7.60    11600.00
02162              13.60    11800.00
02163               2.80    11800.00
02164              -9.20    12000.00
02165               5.60    12200.00
02166               7.60    12400.00
02167              -7.60    12600.00
02168              -1.20    12600.00
02169               9.20    13000.00
02170               0.80    13200.00
02171              -5.60    13200.00
02172               5.20    13400.00
02173               5.20    13600.00
02174              -5.60    13600.00
02175               1.60    13800.00
02176               7.60    14200.00
02177              -2.40    14200.00
02178              -1.20    14600.00
02179               8.40    14400.00
02180               0.40    14600.00
02181              -4.00    14800.00
02182               5.20    15000.00
02183               3.60    15000.00
02184              -2.40    15000.00
02185               2.40    15200.00
02186               4.40    15400.00
02187              -0.80    15600.00
02188               0.80    15600.00
02189               4.00    15800.00
02190               0.80    15600.00
02191               0.40    15800.00
02192               3.60    16000.00
02193               2.80    16000.00
02194               0.40    16200.00
02195               1.20    16000.00
02196               3.20    16400.00
02197               0.80    16400.00
02198               0.40    16400.00
02199               3.20    16400.00
02200               2.00    16400.00
02201               0.80    16600.00
02202               1.60    16400.00
02203               2.40    16600.00
02204               0.80    16600.00
02205               1.20    16600.00
02206               2.40    16600.00
02207               2.00    16600.00
02208               0.80    16600.00
02209               2.00    16600.00
02210               2.00    16600.00
02211               0.80    16600.00
02212               2.00    16600.00
02213               2.00    16600.00
02214               1.20    16600.00
02215               1.20    16600.00
02216               1.60    16600.00
02217               2.00    16600.00
02218               1.60    16400.00
02219               1.60    16400.00
02220               2.00    16400.00
02221               1.60    16400.00
02222               0.80    16400.00
02223               1.20    16400.00
02224               2.00    16200.00
02225               1.60    16200.00
02226               2.00    16000.00
02227               1.20    16000.00
02228               1.20    16000.00
02229               1.60    16000.00
02230               1.60    15800.00
02231               1.20    15600.00
02232               2.40    15600.00
02233               1.20    15600.00
02234               1.20    15200.00
02235               2.00    15200.00
02236               1.20    15200.00
02237               1.20    15000.00
02238               2.00    14800.00
02239               0.80    14800.00
02240               1.60    14800.00
02241               1.60    14400.00
02242               1.20    14600.00
02243               1.20    14200.00
02244               1.20    14000.00
02245               1.20    14000.00
02246               2.00    13600.00
02247               1.20    13800.00
02248               0.80    13400.00
02249               1.20    13200.00
02250               2.00    13200.00
02251               1.20    12800.00
02252               1.20    12800.00
02253               2.00    12600.00
02254               0.80    12400.00
02255               0.80    12400.00
02256               0.80    12000.00
02257               1.20    11800.00
02258               1.20    11800.00
02259               1.20    11400.00
02260               0.80    11200.00
02261               1.20    11000.00
02262               0.80    10800.00
02263               0.80    10800.00
02264               0.80    10400.00
02265               0.80    10200.00
02266               1.20    10000.00
02267               0.80     9800.00
02268               0.80     9600.00
02269               0.80     9200.00
02270               0.80     9200.00
02271               0.80     8800.00
02272               0.40     8800.00
02273               0.80     8400.00
02274               0.80     8000.00
02275               0.40     8200.00
02276              -0.40     7800.00
02277               0.40     7400.00
02278               0.40     7200.00
02279               0.00     6800.00
02280               0.80     6800.00
02281               0.40     6400.00
02282               0.00     6200.00
02283               0.80     6000.00
02284               0.40     5600.00
02285               0.40     5400.00
02286               0.40     5200.00
02287               0.40     4800.00
02288              -0.40     4800.00
02289              -0.40     4400.00
02290               0.40     4000.00
02291               0.40     3800.00
02292              -0.40     3600.00
02293               0.40     3400.00
02294               0.40     3000.00
02295               0.40     2800.00
02296               0.00     2600.00
02297              -0.40     2200.00
02298              -0.40     2000.00
02299              -0.40     1800.00
02300              -0.40     1400.00
02301               0.40     1200.00
02302               0.00      800.00
02303              -0.80      600.00
02304               0.40      400.00
02305              -0.40        0.00
02306              -0.80     -200.00
02307               0.80     -400.00
02308               2.40     -600.00
02309              -0.40    -1000.00
02310              -1.20    -1200.00
02311               0.40    -1600.00
02312               0.00    -1800.00
02313              -0.40    -2000.00
02314               2.40    -2000.00
02315              28.00    -2600.00
02316               2.00    -3200.00
02317             -50.00    -3200.00
02318              -0.40    -3600.00
02319              19.60    -3800.00
02320             -18.00    -3600.00
02321              50.00    -4200.00
02322             -50.00    -4200.00
02323             -30.00    -4200.00
02324              50.00    -5200.00
02325             -50.00    -5000.00
02326             -48.80    -5400.00
02327              50.00    -6000.00
02328             -50.00    -5600.00
02329             -12.00    -6400.00
02330              23.60    -6400.00
02331              -6.40    -6800.00
02332              18.40    -7200.00
02333             -48.40    -7000.00
02334              32.80    -7600.00
02335              12.00    -7600.00
02336             -48.80    -8000.00
02337              31.20    -8400.00
02338               6.00    -8200.00
02339              -8.80    -8800.00
02340             -20.80    -9000.00
02341              17.60    -9200.00
02342               9.60    -9600.00
02343             -34.80    -9600.00
02344              20.00   -10000.00
02345               2.00   -10000.00
02346              -4.40   -10400.00
02347             -12.00   -10600.00
02348               6.00   -10800.00
02349               8.40   -10800.00
02350             -25.20   -11000.00
02351              14.80   -11400.00
02352               2.40   -11400.00
02353             -12.00   -11800.00
02354              -0.40   -12000.00
02355               5.20   -12200.00
02356              -6.00   -12400.00
02357              -8.80   -12400.00
02358               7.20   -12600.00
02359              -2.00   -12800.00
02360              -6.00   -13000.00
02361              -0.40   -13200.00
02362               3.60   -13200.00
02363              -8.40   -13600.00
02364              -2.00   -13800.00
02365               2.40   -13800.00
02366              -4.40   -14000.00
02367              -4.00   -14200.00
02368               2.40   -14200.00
02369              -0.80   -14400.00
02370              -7.60   -14600.00
02371               2.00   -14600.00
02372              -0.80   -14800.00
02373              -5.60   -14800.00
02374              -1.20   -15000.00
02375               2.00   -15200.00
02376              -4.00   -15200.00
02377              -4.40   -15400.00
02378               2.00   -15600.00
02379              -3.20   -15600.00
02380              -4.40   -15600.00
02381              -0.40   -15600.00
02382              -0.40   -16000.00
02383              -4.40   -16000.00
02384              -2.80   -16200.00
02385               0.40   -16200.00
02386              -2.40   -16400.00
02387              -4.40   -16200.00
02388              -0.80   -16200.00
02389              -1.20   -16400.00
02390              -3.20   -16400.00
02391              -1.60   -16800.00
02392              -1.20   -16600.00
02393              -3.60   -16600.00
02394              -3.60   -16400.00
02395              -0.80   -16400.00
02396              -2.00   -16600.00
02397              -3.60   -16800.00
02398              -2.00   -16800.00
02399              -2.00   -16800.00
02400              -3.60   -16800.00
02401              -2.40   -16600.00
02402              -2.00   -16800.00
02403              -2.80   -16600.00
02404              -2.40   -16600.00
02405              -1.20   -16800.00
02406              -2.40   -16400.00
02407              -2.80   -16600.00
02408              -2.40   -16400.00
02409              -2.00   -16400.00
02410              -2.00   -16400.00
02411              -2.40   -16400.00
02412              -2.80   -16400.00
02413              -2.00   -16400.00
02414              -2.80   -16200.00
02415              -2.80   -16200.00
02416              -2.00   -16200.00
02417              -2.00   -16000.00
02418              -2.40   -16000.00
02419              -2.00   -16000.00
02420              -2.00   -15800.00
02421              -2.00   -15600.00
02422              -2.40   -15600.00
02423              -2.00   -15600.00
02424              -2.00   -15400.00
02425              -2.40   -15400.00
02426              -2.40   -15200.00
02427              -2.00   -15200.00
02428              -2.40   -14800.00
02429              -2.00   -14800.00
02430              -2.40   -14800.00
02431              -2.40   -14600.00
02432              -2.00   -14400.00
02433              -2.00   -14400.00
02434              -2.00   -14000.00
02435              -1.60   -14000.00
02436              -1.20   -13800.00
02437              -2.00   -13600.00
02438              -2.00   -13600.00
02439              -2.00   -13600.00
02440              -1.60   -13200.00
02441              -1.60   -13000.00
02442              -1.20   -12800.00
02443              -1.60   -12600.00
02444              -0.80   -12400.00
02445              -2.80   -12400.00
02446              -5.60   -12200.00
02447               6.80   -12000.00
02448             -15.20   -11600.00
02449               5.60   -11600.00
02450               0.40   -11200.00
02451              -2.40   -11000.00
02452               8.00   -11000.00
02453             -10.80   -10600.00
02454              -0.80   -10600.00
02455              -1.20   -10400.00
02456              -7.20   -10000.00
02457               0.40    -9800.00
02458              -0.80    -9800.00
02459              -0.40    -9400.00
02460               4.00    -9200.00
02461              -2.80    -9000.00
02462              -2.40    -8800.00
02463              -2.00    -8800.00
02464              -5.20    -8400.00
02465              -4.40    -8200.00
02466              -1.20    -8000.00
02467               4.00    -7600.00
02468               0.80    -7200.00
02469              -0.40    -7200.00
02470              -2.40    -6800.00
02471              -2.40    -6600.00
02472              -3.60    -6400.00
02473              -2.40    -6000.00
02474              -0.40    -5800.00
02475              -0.40    -5600.00
02476               0.00    -5200.00
02477              -0.40    -5000.00
02478              -0.40    -4800.00
02479              -2.00    -4400.00
02480              -2.00    -4400.00
02481              -2.80    -4000.00
02482              -0.40    -3800.00
02483               0.00    -3400.00
02484              -0.40    -3200.00
02485               0.00    -2800.00
02486              -0.80    -2600.00
02487              -1.20    -2400.00
02488              -0.80    -2200.00
02489              -0.40    -1800.00
02490              -1.20    -1600.00
02491              -0.80    -1200.00
02492              -0.80    -1200.00
02493              -0.80     -800.00
02494               0.40     -400.00
02495               0.40     -200.00
02496               0.40        0.00
02497               0.40      200.00
02498               1.20      600.00
02499               2.00      800.00
02500              -0.80     1200.00
02501              -0.40     1200.00
02502               1.20     1800.00
02503               0.40     2000.00
02504               1.20     2000.00
02505               3.60     2400.00
02506              18.00     2800.00
02507              12.00     3200.00
02508             -40.80     3200.00
02509             -15.20     3400.00
02510              28.00     3600.00
02511             -19.60     3800.00
02512              -2.40     4400.00
02513              50.00     4600.00
02514             -50.00     4600.00
02515               6.80     5200.00
02516              50.00     5200.00
02517             -50.00     5600.00
02518             -10.40     6000.00
02519              40.80     6000.00
02520              -9.20     6400.00
02521              -7.20     6800.00
02522              -5.20     6800.00
02523              24.80     7000.00
02524              -9.20     7200.00
02525             -24.80     7600.00
02526              31.20     7800.00
02527              -5.20     8200.00
02528             -18.80     8400.00
02529              20.00     8600.00
02530              10.40     8800.00
02531             -18.00     9000.00
02532              -5.60     9200.00
02533              21.20     9400.00
02534              -5.60     9800.00
02535             -12.00    10000.00
02536              10.00    10200.00
02537              10.00    10400.00
02538              -7.20    10400.00
02539              -6.00    10800.00
02540              14.80    11000.00
02541              -5.20    11200.00
02542              -8.40    11600.00
02543              13.20    11800.00
02544               2.40    11800.00
02545              -8.80    12000.00
02546               5.20    12200.00
02547               7.60    12400.00
02548              -7.60    12600.00
02549              -1.20    12800.00
02550               9.20    13000.00
02551               0.80    13200.00
02552              -5.20    13400.00
02553               5.60    13400.00
02554               5.20    13400.00
02555              -5.20    13800.00
02556               1.20    13800.00
02557               7.20    14200.00
02558              -1.60    14200.00
02559              -1.20    14400.00
02560               7.20    14400.00
02561               0.80    14800.00
02562              -3.60    14800.00
02563               4.40    15000.00
02564               3.60    15000.00
02565              -2.00    15200.00
02566               2.00    15200.00
02567               5.20    15400.00
02568              -0.40    15600.00
02569              -0.80    15600.00
02570               4.00    15600.00
02571               1.20    15800.00
02572              -0.40    15800.00
02573               2.80    16000.00
02574               4.00    16000.00
02575               0.40    16000.00
02576               0.80    16000.00
02577               4.00    16400.00
02578               1.20    16400.00
02579              -0.40    16400.00
02580               3.20    16400.00
02581               3.60    16400.00
02582              -0.40    16600.00
02583               2.00    16400.00
02584               3.60    16600.00
02585               0.80    16600.00
02586               0.40    16600.00
02587               2.40    16800.00
02588               2.40    16400.00
02589               2.00    16600.00
02590               2.00    16600.00
02591               2.40    16800.00
02592               0.80    16600.00
02593               0.80    16600.00
02594               2.40    16600.00
02595               1.60    16600.00
02596               2.00    16400.00
02597               2.00    16400.00
02598               1.20    16400.00
02599               1.60    16400.00
02600               2.00    16400.00
02601               0.80    16400.00
02602               1.60    16400.00
02603               2.40    16400.00
02604               2.40    16400.00
02605               0.80    16200.00
02606               0.80    16000.00
02607               2.00    16000.00
02608               1.60    16000.00
02609               1.60    16000.00
02610               2.80    15800.00
02611               2.40    15800.00
02612               0.40    15600.00
02613               1.20    15600.00
02614               1.60    15600.00
02615               0.40    15600.00
02616               1.60    15200.00
02617               2.40    15200.00
02618               1.20    15000.00
02619               2.00    14800.00
02620               2.00    14800.00
02621               1.20    14800.00
02622               0.80    14400.00
02623               2.00    14600.00
02624               2.00    14200.00
02625               1.20    14200.00
02626               1.20    13800.00
02627               2.00    13600.00
02628               1.20    13600.00
02629               0.80    13400.00
02630               2.00    13200.00
02631               1.20    13200.00
02632               0.80    13000.00
02633               1.60    12800.00
02634               2.00    12600.00
02635               0.80    12400.00
02636               0.80    12200.00
02637               1.20    12000.00
02638               1.20    11800.00
02639               1.20    11800.00
02640               2.00    11400.00
02641               1.60    11200.00
02642               0.80    11000.00
02643               0.80    10800.00
02644               0.80    10800.00
02645               0.80    10400.00
02646               0.80    10400.00
02647               1.20    10000.00
02648               1.20    10000.00
02649               0.80     9600.00
02650               0.80     9400.00
02651               0.80     9200.00
02652               0.40     8800.00
02653               0.80     8600.00
02654               0.80     8400.00
02655               0.80     8200.00
02656               0.40     8000.00
02657               0.40     7600.00
02658               0.40     7600.00
02659               0.40     7200.00
02660               0.40     7000.00
02661               0.80     6800.00
02662               0.40     6400.00
02663               0.40     6200.00
02664               0.40     6000.00
02665               0.40     5600.00
02666               0.40     5400.00
02667              -0.40     5200.00
02668               0.80     4800.00
02669               0.80     4600.00
02670              -0.80     4400.00
02671               0.40     4200.00
02672               0.80     4000.00
02673              -0.40     3600.00
02674              -0.40     3200.00
02675               0.80     3000.00
02676               0.40     2800.00
02677              -1.20     2600.00
02678               0.40     2400.00
02679               0.80     2000.00
02680              -0.80     1600.00
02681              -0.40     1400.00
02682               0.80     1200.00
02683              -0.80     1000.00
02684              -0.80      600.00
02685               0.40      400.00
02686               0.00        0.00
02687               0.40     -200.00
02688              -0.40     -400.00
02689               2.00     -600.00
02690               0.40     -800.00
02691              -2.00    -1200.00
02692               0.40    -1400.00
02693               1.20    -1600.00
02694              -1.20    -1800.00
02695               1.20    -2000.00
02696              28.00    -2600.00
02697               3.60    -3200.00
02698             -50.00    -3400.00
02699              -1.20    -3600.00
02700              21.20    -3600.00
02701             -20.40    -3600.00
02702              50.00    -4200.00
02703             -46.80    -4200.00
02704             -36.00    -4200.00
02705              50.00    -5200.00
02706             -50.00    -5000.00
02707             -50.00    -5400.00
02708              50.00    -5800.00
02709             -49.60    -5600.00
02710             -16.40    -6400.00
02711              24.80    -6400.00
02712              -6.40    -6800.00
02713              20.00    -7200.00
02714             -48.80    -7000.00
02715              30.80    -7600.00
02716              16.40    -7600.00
02717             -50.00    -8000.00
02718              30.00    -8400.00
02719               8.00    -8200.00
02720              -8.80    -9000.00
02721             -21.20    -8800.00
02722              16.40    -9200.00
02723              11.60    -9600.00
02724             -36.40    -9600.00
02725              19.60    -9800.00
02726               3.60   -10000.00
02727              -5.20   -10400.00
02728             -11.20   -10600.00
02729               5.20   -10600.00
02730               9.20   -11000.00
02731             -26.40   -11000.00
02732              14.00   -11400.00
02733               3.60   -11400.00
02734             -12.40   -11800.00
02735              -0.80   -12000.00
02736               5.60   -12200.00
02737              -5.60   -12400.00
02738              -9.20   -12400.00
02739               6.80   -12800.00
02740              -1.20   -12800.00
02741              -6.00   -13000.00
02742              -1.20   -13200.00
02743               4.00   -13200.00
02744              -8.40   -13600.00
02745              -2.40   -13800.00
02746               2.80   -13800.00
02747              -4.40   -14000.00
02748              -4.40   -14200.00
02749               2.80   -14200.00
02750              -0.40   -14400.00
02751              -8.40   -14600.00
02752               2.00   -14800.00
02753              -0.40   -14800.00
02754              -6.40   -15000.00
02755              -1.20   -15000.00
02756               2.40   -15200.00
02757              -3.60   -15400.00
02758              -5.20   -15600.00
02759               2.00   -15600.00
02760              -2.40   -15600.00
02761              -5.20   -15600.00
02762               0.40   -15800.00
02763               0.80   -16000.00
02764              -4.00   -16000.00
02765              -3.60   -16000.00
02766               0.40   -16200.00
02767              -2.80   -16200.00
02768              -4.40   -16200.00
02769              -0.40   -16200.00
02770              -0.80   -16400.00
02771              -3.60   -16400.00
02772              -2.80   -16400.00
02773              -0.80   -16400.00
02774              -2.40   -16600.00
02775              -3.60   -16600.00
02776              -0.80   -16600.00
02777              -0.80   -16600.00
02778              -3.20   -16800.00
02779              -2.00   -16800.00
02780              -2.00   -16800.00
02781              -2.40   -16600.00
02782              -2.80   -16800.00
02783              -1.20   -16800.00
02784              -2.00   -16800.00
02785              -3.20   -16800.00
02786              -2.40   -16800.00
02787              -2.40   -16400.00
02788              -2.80   -16800.00
02789              -2.40   -16600.00
02790              -2.00   -16400.00
02791              -2.00   -16400.00
02792              -2.40   -16600.00
02793              -2.40   -16400.00
02794              -2.40   -16200.00
02795              -2.00   -16200.00
02796              -2.00   -16200.00
02797              -2.40   -16200.00
02798              -2.00   -16200.00
02799              -2.40   -16200.00
02800              -2.40   -16000.00
02801              -2.40   -15800.00
02802              -2.00   -15600.00
02803              -2.00   -15600.00
02804              -2.40   -15600.00
02805              -1.60   -15600.00
02806              -2.00   -15400.00
02807              -2.80   -15200.00
02808              -2.00   -15200.00
02809              -1.20   -15000.00
02810              -2.40   -14800.00
02811              -2.00   -14800.00
02812              -1.20   -14600.00
02813              -2.40   -14400.00
02814              -2.40   -14400.00
02815              -1.60   -14000.00
02816              -1.20   -14000.00
02817              -2.40   -13800.00
02818              -2.40   -13800.00
02819              -1.20   -13600.00
02820              -2.40   -13400.00
02821              -2.00   -13200.00
02822              -0.80   -13000.00
02823              -2.00   -13000.00
02824              -2.00   -12800.00
02825              -1.60   -12400.00
02826              -1.20   -12400.00
02827              -2.40   -12200.00
02828              -1.20   -12000.00
02829              -1.20   -12000.00
02830              -2.40   -11600.00
02831              -1.20   -11400.00
02832              -0.80   -11200.00
02833              -2.40   -11000.00
02834              -1.60   -10800.00
02835              -0.80   -10600.00
02836              -1.60   -10400.00
02837              -2.00   -10000.00
02838              -0.80   -10000.00
02839              -2.00    -9600.00
02840              -2.00    -9400.00
02841              -0.80    -9200.00
02842              -1.20    -9000.00
02843              -1.20    -8800.00
02844              -0.40    -8600.00
02845              -2.00    -8400.00
02846              -1.20    -8200.00
02847              -0.80    -7800.00
02848              -1.20    -7600.00
02849              -1.60    -7200.00
02850              -0.80    -7200.00
02851              -2.00    -6800.00
02852              -1.20    -6400.00
02853              -1.20    -6400.00
02854              -2.00    -6000.00
02855              -1.20    -5800.00
02856              -0.40    -5600.00
02857              -1.20    -5200.00
02858              -2.00    -5000.00
02859              -0.80    -4800.00
02860              -1.20    -4600.00
02861              -1.20    -4400.00
02862              -0.80    -4000.00
02863              -0.40    -3800.00
02864              -1.20    -3600.00
02865              -0.80    -3200.00
02866              -0.80    -3000.00
02867              -0.80    -2800.00
02868              -0.80    -2400.00
02869              -0.40    -2400.00
02870              -0.80    -2000.00
02871              -0.80    -1800.00
02872              -1.20    -1400.00
02873              -1.20    -1000.00
02874              -0.40     -800.00
02875              -0.80     -400.00
02876              -0.40     -200.00
02877               0.40        0.00
02878              -0.40      200.00
02879               0.80      400.00
02880               2.40      600.00
02881              -0.80      800.00
02882              -0.80     1200.00
02883               2.40     1600.00
02884               0.40     1800.00
02885              -1.20     2000.00
02886               4.40     2200.00
02887              18.00     2800.00
02888              10.80     3000.00
02889             -37.60     3200.00
02890             -16.00     3600.00
02891              26.40     3600.00
02892             -18.00     3600.00
02893              -4.40     4400.00
02894              50.00     4400.00
02895             -50.00     4600.00
02896               3.60     5200.00
02897              50.00     5200.00
02898             -50.00     5400.00
02899             -12.40     6000.00
02900              41.20     6000.00
02901              -9.60     6400.00
02902              -7.60     6600.00
02903              -5.60     6800.00
02904              24.40     7000.00
02905              -7.20     7400.00
02906             -26.00     7600.00
02907              31.20     7800.00
02908              -3.60     8000.00
02909             -19.60     8400.00
02910              19.60     8600.00
02911              10.80     8800.00
02912             -17.20     8800.00
02913              -6.80     9200.00
02914              21.20     9400.00
02915              -4.00     9600.00
02916             -12.00    10000.00
02917               9.20    10200.00
02918              10.40    10400.00
02919              -7.20    10400.00
02920              -7.20    10600.00
02921              15.20    10800.00
02922              -3.60    11200.00
02923             -10.00    11600.00
02924              13.20    11800.00
02925               3.60    11800.00
02926              -9.20    12000.00
02927               4.40    12000.00
02928               8.80    12400.00
02929              -7.20    12600.00
02930              -2.00    12600.00
02931               9.20    12800.00
02932               0.80    13200.00
02933              -5.20    13200.00
02934               4.40    13400.00
02935               5.20    13600.00
02936              -4.80    13600.00
02937               0.80    13800.00
02938               7.20    14000.00
02939              -1.20    14200.00
02940              -2.80    14200.00
02941               7.20    14600.00
02942               1.20    14600.00
02943              -4.40    14800.00
02944               5.20    15000.00
02945               4.00    15000.00
02946              -2.40    15200.00
02947               2.00    15200.00
02948               5.20    15400.00
02949              -0.80    15600.00
02950              -0.40    15600.00
02951               4.00    15800.00
02952               0.80    15800.00
02953              -0.40    15800.00
02954               3.60    16000.00
02955               2.80    16000.00
02956               0.40    16000.00
02957               1.20    16200.00
02958               3.60    16400.00
02959               0.80    16400.00
02960               0.80    16400.00
02961               3.60    16400.00
02962               2.00    16400.00
02963               0.40    16400.00
02964               2.40    16400.00
02965               2.40    16600.00
02966               0.80    16400.00
02967               2.00    16600.00
02968               3.60    16600.00
02969               0.80    16600.00
02970               1.20    16600.00
02971               2.40    16600.00
02972               2.00    16800.00
02973               0.80    16600.00
02974               2.00    16600.00
02975               2.80    16600.00
02976               1.60    16600.00
02977               1.20    16600.00
02978               2.00    16600.00
02979               2.00    16600.00
02980               1.20    16400.00
02981               1.60    16400.00
02982               2.00    16400.00
02983               0.80    16400.00
02984               1.60    16200.00
02985               2.00    16400.00
02986               1.20    16200.00
02987               1.60    16200.00
02988               2.00    16000.00
02989               1.20    16000.00
02990               2.80    16000.00
02991               1.20    16000.00
02992               0.40    15800.00
02993               2.00    15600.00
02994               2.40    15600.00
02995               0.40    15600.00
02996               1.20    15600.00
02997               2.80    15200.00
02998               0.80    15200.00
02999               0.40    15000.00
03000               2.00    14800.00
03001               2.40    14800.00
03002              -0.40    14800.00
03003               2.00    14400.00
03004               2.00    14600.00
03005              -0.40    14200.00
03006               0.80    14200.00
03007               3.60    14000.00
03008               1.20    13600.00
03009              -0.40    13600.00
03010               2.00    13400.00
03011               2.40    13200.00
03012              -0.40    13200.00
03013               2.00    12800.00
03014               2.40    12800.00
03015               0.40    12400.00
03016              -0.40    12400.00
03017               2.80    12400.00
03018               0.80    12200.00
03019               0.00    12000.00
03020               2.40    11800.00
03021               1.20    11200.00
03022              -0.40    11200.00
03023               2.00    11000.00
03024               0.80    11000.00
03025               0.80    10600.00
03026               2.00    10400.00
03027               1.20    10400.00
03028               0.40    10000.00
03029               0.80     9800.00
03030               0.80     9600.00
03031               0.40     9400.00
03032               0.80     9200.00
03033               1.20     8800.00
03034               0.80     8800.00
03035               0.80     8400.00
03036               0.40     8400.00
03037               0.80     8000.00
03038               0.80     7800.00
03039               0.00     7600.00
03040               0.40     7200.00
03041               1.20     7000.00
03042               0.40     6800.00
03043               0.40     6600.00
03044               0.80     6200.00
03045               0.00     6000.00
03046               0.00     5600.00
03047               0.40     5400.00
03048               0.40     5200.00
03049              -0.40     4800.00
03050               0.40     4600.00
03051               0.80     4400.00
03052              -0.40     4000.00
03053               0.40     3800.00
03054               0.80     3600.00
03055              -0.80     3200.00
03056               0.00     3000.00
03057               0.40     3000.00
03058              -0.40     2600.00
03059              -0.40     2400.00
03060              -0.80     2000.00
03061              -0.40     1800.00
03062              -0.40     1400.00
03063               0.40     1200.00
03064              -0.80      800.00
03065               0.40      600.00
03066              -0.80      400.00
03067              -0.40        0.00
03068              -0.40     -200.00
03069              -0.80     -400.00
03070               2.80     -600.00
03071               0.40     -800.00
03072              -2.40    -1200.00
03073               0.80    -1400.00
03074               0.80    -1800.00
03075              -2.00    -1800.00
03076               2.40    -2000.00
03077              27.60    -2400.00
03078               4.40    -3000.00
03079             -50.00    -3200.00
03080              -4.00    -3600.00
03081              21.20    -3800.00
03082             -20.40    -3400.00
03083              50.00    -4200.00
03084             -42.40    -4200.00
03085             -40.80    -4400.00
03086              50.00    -5200.00
03087             -50.00    -5000.00
03088             -50.00    -5600.00
03089              50.00    -5800.00
03090             -46.80    -5600.00
03091             -20.00    -6200.00
03092              26.80    -6200.00
03093              -7.20    -6600.00
03094              20.00    -7200.00
03095             -48.80    -7200.00
03096              28.00    -7600.00
03097              19.60    -7600.00
03098             -50.00    -7800.00
03099              29.60    -8400.00
03100              10.00    -8200.00
03101              -8.80    -9000.00
03102             -21.60    -8800.00
03103              15.20    -9200.00
03104              14.00    -9600.00
03105             -37.20    -9600.00
03106              19.60   -10000.00
03107               4.80   -10000.00
03108              -6.00   -10200.00
03109             -10.80   -10600.00
03110               4.00   -10600.00
03111              10.40   -11000.00
03112             -26.80   -11000.00
03113              13.20   -11400.00
03114               5.20   -11600.00
03115             -12.00   -11800.00
03116              -1.20   -12000.00
03117               5.60   -12000.00
03118              -5.20   -12400.00
03119             -10.00   -12600.00
03120               6.80   -12800.00
03121              -0.80   -12800.00
03122              -6.00   -13200.00
03123              -1.20   -13200.00
03124               3.60   -13600.00
03125              -7.60   -13600.00
03126              -2.40   -13800.00
03127               2.40   -13800.00
03128              -4.00   -14000.00
03129              -3.60   -14200.00
03130               0.80   -14400.00
03131               0.00   -14600.00
03132              -7.60   -14600.00
03133               0.80   -14800.00
03134              -0.80   -14800.00
03135              -5.20   -15000.00
03136              -1.20   -15200.00
03137               1.20   -15200.00
03138              -3.60   -15400.00
03139              -4.40   -15400.00
03140               0.80   -15600.00
03141              -2.40   -15600.00
03142              -4.80   -15600.00
03143              -0.80   -15800.00
03144               0.40   -16000.00
03145              -4.00   -16000.00
03146              -3.60   -16000.00
03147               0.40   -16200.00
03148              -2.00   -16200.00
03149              -4.40   -16400.00
03150              -0.80   -16200.00
03151              -0.40   -16400.00
03152              -3.60   -16400.00
03153              -2.40   -16400.00
03154              -1.20   -16600.00
03155              -2.80   -16400.00
03156              -3.60   -16400.00
03157              -0.80   -16600.00
03158              -0.80   -16800.00
03159              -3.60   -16600.00
03160              -2.40   -16800.00
03161              -1.20   -16800.00
03162              -2.40   -16800.00
03163              -2.80   -16400.00
03164              -1.20   -16600.00
03165              -1.20   -16600.00
03166              -2.80   -16600.00
03167              -2.40   -16600.00
03168              -2.00   -16600.00
03169              -2.40   -16400.00
03170              -2.40   -16400.00
03171              -2.00   -16400.00
03172              -1.20   -16400.00
03173              -2.80   -16400.00
03174              -2.80   -16400.00
03175              -2.00   -16400.00
03176              -2.00   -16200.00
03177              -2.40   -16200.00
03178              -2.00   -16200.00
03179              -2.00   -16200.00
03180              -2.40   -16000.00
03181              -2.80   -16000.00
03182              -2.40   -16000.00
03183              -2.40   -15600.00
03184              -2.40   -15600.00
03185              -2.40   -15600.00
03186              -2.00   -15600.00
03187              -2.40   -15400.00
03188              -2.40   -15200.00
03189              -2.00   -15200.00
03190              -2.00   -15000.00
03191              -2.40   -14800.00
03192              -2.40   -14800.00
03193              -2.00   -14600.00
03194              -2.40   -14400.00
03195              -2.40   -14400.00
03196              -2.00   -14000.00
03197              -2.00   -14000.00
03198              -2.40   -13800.00
03199              -2.40   -13600.00
03200              -2.00   -13600.00
03201              -2.00   -13200.00
03202              -2.40   -13200.00
03203              -1.20   -13000.00
03204              -1.20   -12800.00
03205              -2.00   -12600.00
03206              -2.00   -12600.00
03207              -1.60   -12400.00
03208              -2.40   -12200.00
03209              -2.00   -12000.00
03210              -1.60   -11800.00
03211              -1.20   -11600.00
03212              -2.00   -11400.00
03213              -2.00   -11200.00
03214              -2.00   -11000.00
03215              -1.60   -10800.00
03216              -1.20   -10400.00
03217              -0.80   -10400.00
03218              -2.00   -10200.00
03219              -1.20    -9800.00
03220              -2.00    -9800.00
03221              -1.60    -9600.00
03222              -1.60    -9400.00
03223              -1.20    -9000.00
03224              -1.20    -8800.00
03225              -1.20    -8600.00
03226              -1.20    -8400.00
03227              -1.20    -8200.00
03228              -1.20    -7800.00
03229              -1.20    -7600.00
03230              -1.20    -7200.00
03231              -1.20    -7200.00
03232              -1.20    -6800.00
03233              -1.20    -6600.00
03234              -1.20    -6400.00
03235              -1.20    -6200.00
03236              -1.20    -5800.00
03237              -0.80    -5600.00
03238              -0.80    -5400.00
03239              -1.20    -5000.00
03240              -0.40    -4800.00
03241              -1.20    -4600.00
03242              -1.20    -4200.00
03243              -0.80    -4000.00
03244              -0.80    -3600.00
03245              -1.20    -3600.00
03246              -0.80    -3200.00
03247              -0.80    -2800.00
03248              -1.20    -2600.00
03249              -1.20    -2400.00
03250               0.00    -2000.00
03251              -0.40    -2000.00
03252              -1.20    -1600.00
03253              -0.40    -1200.00
03254              -0.80    -1200.00
03255              -1.20     -800.00
03256               0.00     -400.00
03257              -0.40     -200.00
03258              -0.40        0.00
03259              -0.80      200.00
03260               1.20      400.00
03261               2.40      800.00
03262              -2.40     1200.00
03263              -0.40     1200.00
03264               2.00     1800.00
03265              -0.80     1800.00
03266              -1.20     2000.00
03267               4.00     2200.00
03268              17.20     2800.00
03269              12.00     3000.00
03270             -37.20     3200.00
03271             -17.20     3600.00
03272              26.40     3600.00
03273             -16.80     3600.00
03274              -7.20     4400.00
03275              50.00     4600.00
03276             -50.00     4600.00
03277              -0.80     5200.00
03278              50.00     5200.00
03279             -50.00     5600.00
03280             -16.40     6000.00
03281              42.80     6000.00
03282              -9.20     6400.00
03283              -8.80     6800.00
03284              -5.20     6800.00
03285              24.80     7000.00
03286              -6.00     7200.00
03287             -26.80     7600.00
03288              31.20     7800.00
03289              -2.40     8200.00
03290             -21.20     8400.00
03291              18.80     8600.00
03292              11.60     8800.00
03293             -17.20     8800.00
03294              -7.20     9200.00
03295              22.00     9400.00
03296              -3.60     9600.00
03297             -13.20    10000.00
03298               9.60    10000.00
03299              11.20    10400.00
03300              -7.60    10400.00
03301              -6.80    10800.00
03302              15.20    11000.00
03303              -3.20    11200.00
03304             -10.00    11400.00
03305              13.20    11600.00
03306               4.00    11800.00
03307              -9.20    12000.00
03308               4.00    12200.00
03309               8.80    12400.00
03310              -6.80    12600.00
03311              -2.40    12800.00
03312               9.20    12800.00
03313               1.60    13200.00
03314              -5.60    13200.00
03315               4.40    13400.00
03316               6.00    13400.00
03317              -4.40    13800.00
03318               0.40    14000.00
03319               8.40    14000.00
03320              -2.00    14200.00
03321              -2.80    14200.00
03322               8.40    14600.00
03323               0.40    14800.00
03324              -4.40    14800.00
03325               5.20    14800.00
03326               4.00    15000.00
03327              -2.80    15000.00
03328               1.60    15200.00
03329               6.80    15400.00
03330              -2.00    15400.00
03331               0.40    15600.00
03332               5.60    15600.00
03333              -0.40    15600.00
03334               0.80    15800.00
03335               3.60    15800.00
03336               2.00    16000.00
03337               0.80    16000.00
03338               0.00    16000.00
03339               3.60    16200.00
03340               2.00    16400.00
03341               0.00    16400.00
03342               2.80    16400.00
03343               3.60    16400.00
03344               0.80    16400.00
03345              -0.40    16600.00
03346               3.60    16600.00
03347               2.40    16600.00
03348              -1.20    16400.00
03349               4.00    16600.00
03350               4.00    16600.00
03351              -0.40    16600.00
03352               0.80    16600.00
03353               3.20    16800.00
03354               1.60    16600.00
03355               0.40    16600.00
03356               3.60    16600.00
03357               3.60    16400.00
03358              -0.40    16600.00
03359               2.00    16400.00
03360               3.60    16400.00
03361               0.80    16400.00
03362               1.20    16400.00
03363               4.00    16400.00
03364               2.00    16400.00
03365               0.40    16400.00
03366               2.40    16400.00
03367               2.00    16200.00
03368               1.20    16200.00
03369               2.00    16000.00
03370               2.00    15800.00
03371               0.80    16000.00
03372               2.00    15800.00
03373               2.40    15600.00
03374               1.20    15600.00
03375               2.00    15600.00
03376               2.00    15600.00
03377               0.80    15600.00
03378               2.00    15200.00
03379               2.00    15200.00
03380              -0.40    15000.00
03381               1.60    15000.00
03382               2.00    14800.00
03383               0.80    14600.00
03384               1.60    14400.00
03385               2.40    14400.00
03386               0.80    14600.00
03387               1.20    14200.00
03388               2.00    14000.00
03389               0.80    13600.00
03390               0.80    13600.00
03391               1.20    13600.00
03392               1.20    13400.00
03393               0.80    13200.00
03394               1.20    12800.00
03395               1.20    12800.00
03396               0.80    12600.00
03397               0.80    12400.00
03398               1.20    12400.00
03399               0.80    12000.00
03400               0.80    11800.00
03401               2.00    11800.00
03402               0.80    11400.00
03403               0.40    11200.00
03404               1.20    11000.00
03405               2.00    10800.00
03406               0.40    10800.00
03407               0.80    10400.00
03408               1.60    10200.00
03409               0.80    10200.00
03410               0.40    10000.00
03411               2.00     9600.00
03412               0.80     9400.00
03413               0.40     9200.00
03414               1.20     8800.00
03415               0.80     8800.00
03416               0.40     8400.00
03417               0.80     8400.00
03418               0.80     8000.00
03419               0.40     7800.00
03420               0.80     7600.00
03421               0.80     7200.00
03422               0.80     7000.00
03423               0.40     6600.00
03424               0.80     6400.00
03425               0.40     6200.00
03426               0.40     6000.00
03427               0.80     5800.00
03428               0.40     5600.00
03429               0.80     5400.00
03430               0.40     5000.00
03431               0.40     4600.00
03432              -0.40     4400.00
03433               0.40     4000.00
03434              -0.40     3800.00
03435               0.40     3600.00
03436               0.40     3200.00
03437               0.40     3000.00
03438              -0.40     2800.00
03439               0.40     2800.00
03440              -0.40     2200.00
03441              -0.40     2000.00
03442               0.40     2000.00
03443              -0.40     1400.00
03444              -0.80     1200.00
03445               0.80      800.00
03446              -0.80      600.00
03447              -1.20      400.00
03448               0.40        0.00
03449               0.40     -200.00
03450              -1.20     -400.00
03451               2.40     -400.00
03452               0.80    -1000.00
03453              -2.40    -1200.00
03454               0.00    -1400.00
03455               1.20    -1600.00
03456              -1.60    -2000.00
03457               0.80    -2000.00
03458              26.40    -2600.00
03459               7.20    -3200.00
03460             -50.00    -3400.00
03461              -6.00    -3600.00
03462              23.60    -3600.00
03463             -22.00    -3600.00
03464              49.20    -4400.00
03465             -37.20    -4200.00
03466             -46.00    -4400.00
03467              50.00    -5200.00
03468             -50.00    -5200.00
03469             -50.00    -5600.00
03470              50.00    -5800.00
03471             -42.80    -5600.00
03472             -23.20    -6400.00
03473              28.40    -6400.00
03474              -8.40    -6600.00
03475              21.20    -7200.00
03476             -47.20    -6800.00
03477              24.80    -7600.00
03478              22.80    -7600.00
03479             -50.00    -8000.00
03480              27.60    -8400.00
03481              10.40    -8200.00
03482              -8.40    -8800.00
03483             -20.40    -9000.00
03484              13.60    -9200.00
03485              15.60    -9600.00
03486             -36.80    -9400.00
03487              18.00   -10000.00
03488               5.20   -10000.00
03489              -5.60   -10400.00
03490             -10.00   -10600.00
03491               3.60   -10600.00
03492              11.60   -11000.00
03493             -26.00   -11200.00
03494              12.00   -11400.00
03495               5.60   -11400.00
03496             -12.00   -12000.00
03497              -0.80   -12000.00
03498               6.00   -12200.00
03499              -4.40   -12200.00
03500             -10.40   -12400.00
03501               6.80   -12800.00
03502              -0.80   -13000.00
03503              -6.00   -13200.00
03504              -1.20   -13200.00
03505               4.00   -13400.00
03506              -7.60   -13600.00
03507              -3.60   -13800.00
03508               2.40   -13800.00
03509              -4.00   -14000.00
03510              -4.40   -14200.00
03511               1.20   -14200.00
03512               0.80   -14400.00
03513              -8.80   -14600.00
03514               0.80   -14800.00
03515               0.80   -14800.00
03516              -6.00   -15000.00
03517              -2.40   -15200.00
03518               2.00   -15200.00
03519              -2.80   -15400.00
03520              -5.60   -15400.00
03521               1.60   -15600.00
03522              -2.40   -15600.00
03523              -6.00   -15800.00
03524              -0.80   -15800.00
03525               0.40   -16000.00
03526              -4.00   -16000.00
03527              -3.60   -16000.00
03528               0.40   -16200.00
03529              -2.40   -16200.00
03530              -4.40   -16400.00
03531              -0.40   -16400.00
03532              -0.40   -16400.00
03533              -4.00   -16400.00
03534              -2.40   -16400.00
03535              -0.80   -16600.00
03536              -3.60   -16400.00
03537              -3.60   -16400.00
03538              -0.40   -16600.00
03539              -1.20   -16600.00
03540              -3.60   -16800.00
03541              -2.00   -16400.00
03542              -1.20   -16600.00
03543              -2.80   -16800.00
03544              -2.80   -16600.00
03545              -1.20   -16600.00
03546              -1.20   -16600.00
03547              -3.20   -16800.00
03548              -2.00   -16800.00
03549              -2.00   -16600.00
03550              -2.40   -16400.00
03551              -2.40   -16400.00
03552              -2.00   -16400.00
03553              -1.20   -16400.00
03554              -2.40   -16400.00
03555              -2.40   -16400.00
03556              -2.40   -16400.00
03557              -2.40   -16200.00
03558              -2.00   -16200.00
03559              -2.00   -16200.00
03560              -2.00   -16000.00
03561              -2.40   -16000.00
03562              -2.40   -16000.00
03563              -2.40   -15800.00
03564              -2.00   -15600.00
03565              -2.40   -15600.00
03566              -2.40   -15600.00
03567              -2.00   -15400.00
03568              -2.40   -15400.00
03569              -2.40   -15200.00
03570              -2.40   -15200.00
03571              -2.00   -15000.00
03572              -2.00   -14800.00
03573              -2.40   -14800.00
03574              -2.40   -14600.00
03575              -2.00   -14600.00
03576              -2.40   -14400.00
03577              -2.00   -14200.00
03578              -2.00   -14000.00
03579              -2.00   -13800.00
03580              -2.40   -13800.00
03581              -2.00   -13600.00
03582              -2.00   -13600.00
03583              -2.40   -13200.00
03584              -2.00   -13200.00
03585              -1.20   -13000.00
03586              -2.40   -12600.00
03587              -2.40   -12400.00
03588              -2.00   -12400.00
03589              -2.00   -12200.00
03590              -2.40   -12000.00
03591              -2.00   -12000.00
03592              -1.20   -11600.00
03593              -2.00   -11400.00
03594              -2.00   -11000.00
03595              -1.60   -11000.00
03596              -1.60   -10800.00
03597              -1.60   -10600.00
03598              -1.60   -10400.00
03599              -2.00   -10000.00
03600              -1.20   -10000.00
03601              -2.40    -9800.00
03602              -2.00    -9600.00
03603              -1.20    -9200.00
03604              -1.20    -9200.00
03605              -1.20    -8800.00
03606              -0.80    -8600.00
03607              -1.60    -8200.00
03608              -1.20    -8000.00
03609              -1.20    -8000.00
03610              -1.20    -7800.00
03611              -1.20    -7400.00
03612              -1.20    -7200.00
03613              -1.20    -6800.00
03614              -1.20    -6600.00
03615              -1.20    -6400.00
03616              -1.20    -6200.00
03617              -1.20    -5800.00
03618              -0.80    -5400.00
03619              -0.80    -5200.00
03620              -1.20    -5200.00
03621              -0.40    -4600.00
03622              -1.20    -4400.00
03623              -1.20    -4200.00
03624              -0.80    -4000.00
03625              -0.80    -4000.00
03626              -0.80    -3600.00
03627              -0.80    -3200.00
03628              -0.80    -3000.00
03629              -0.80    -2800.00
03630              -1.20    -2400.00
03631              -0.80    -2200.00
03632              -0.40    -2000.00
03633              -1.20    -1600.00
03634              -0.80    -1400.00
03635              -0.80    -1000.00
03636              -1.20     -800.00
03637              -0.40     -600.00
03638              -0.80     -400.00
03639              -0.40        0.00
03640              -0.40      200.00
03641               0.80      600.00
03642               2.80      800.00
03643              -2.00     1000.00
03644              -0.80     1000.00
03645               2.40     1600.00
03646              -0.80     1800.00
03647              -1.20     2000.00
03648               4.40     2400.00
03649              16.00     2600.00
03650              12.40     3000.00
03651             -35.20     3200.00
03652             -20.00     3600.00
03653              26.00     3800.00
03654             -13.60     3800.00
03655              -9.20     4400.00
03656              50.00     4400.00
03657             -50.00     4600.00
03658              -4.40     5200.00
03659              50.00     5200.00
03660             -50.00     5600.00
03661             -18.40     6000.00
03662              42.40     6000.00
03663              -8.80     6400.00
03664              -8.40     6600.00
03665              -6.00     6800.00
03666              23.20     7200.00
03667              -4.00     7200.00
03668             -28.40     7400.00
03669              30.00     7800.00
03670              -0.40     8200.00
03671             -21.60     8400.00
03672              18.40     8600.00
03673              12.80     8800.00
03674             -16.80     9000.00
03675              -8.00     9200.00
03676              21.60     9600.00
03677              -2.40     9600.00
03678             -13.60    10000.00
03679               9.20    10200.00
03680              11.60    10400.00
03681              -6.80    10600.00
03682              -7.60    10800.00
03683              14.80    11000.00
03684              -2.40    11200.00
03685              -9.60    11400.00
03686              12.80    11800.00
03687               5.20    12000.00
03688              -8.80    12000.00
03689               4.00    12200.00
03690               9.20    12400.00
03691              -6.00    12600.00
03692              -2.80    12800.00
03693               9.60    12800.00
03694               1.20    13200.00
03695              -5.60    13200.00
03696               4.40    13400.00
03697               6.00    13600.00
03698              -5.20    13600.00
03699               0.80    13800.00
03700               7.20    14000.00
03701              -2.00    14200.00
03702              -2.00    14400.00
03703               7.60    14600.00
03704               0.40    14600.00
03705              -4.00    14800.00
03706               4.80    15000.00
03707               3.20    15000.00
03708              -2.80    15200.00
03709               2.80    15200.00
03710               5.20    15400.00
03711              -0.80    15600.00
03712               0.40    15600.00
03713               4.00    15600.00
03714               0.80    15600.00
03715               0.40    15800.00
03716               2.80    16000.00
03717               2.80    16000.00
03718               0.40    16000.00
03719               0.80    16000.00
03720               3.20    16400.00
03721               1.20    16400.00
03722               0.40    16400.00
03723               2.80    16400.00
03724               2.80    16400.00
03725               0.40    16600.00
03726               2.00    16600.00
03727               2.80    16600.00
03728               0.80    16600.00
03729               1.20    16600.00
03730               2.80    16600.00
03731               2.00    16600.00
03732               0.80    16600.00
03733               2.40    16600.00
03734               2.40    16600.00
03735               1.20    16600.00
03736               1.60    16600.00
03737               2.40    16600.00
03738               1.60    16600.00
03739               1.60    16600.00
03740               2.00    16800.00
03741               2.00    16400.00
03742               2.00    16600.00
03743               2.00    16400.00
03744               2.00    16400.00
03745               2.00    16400.00
03746               1.60    16400.00
03747               2.00    16400.00
03748               2.00    16200.00
03749               2.00    16200.00
03750               1.60    16000.00
03751               2.00    16000.00
03752               1.60    16000.00
03753               2.00    15800.00
03754               2.00    15800.00
03755               1.20    15600.00
03756               2.40    15600.00
03757               1.60    15600.00
03758               0.80    15400.00
03759               2.00    15200.00
03760               2.00    15000.00
03761               0.80    15000.00
03762               2.00    15000.00
03763               2.00    14800.00
03764               1.20    14800.00
03765               1.60    14600.00
03766               1.20    14400.00
03767               0.80    14200.00
03768               1.20    14000.00
03769               0.80    14000.00
03770               1.20    13600.00
03771               0.80    13600.00
03772               0.80    13400.00
03773               1.20    13400.00
03774               1.20    13200.00
03775               0.80    13000.00
03776               0.80    12800.00
03777               2.00    12600.00
03778               0.80    12400.00
03779               0.80    12400.00
03780               1.20    12000.00
03781               0.80    11800.00
03782               0.40    11800.00
03783               0.80    11400.00
03784               1.20    11200.00
03785               0.40    11200.00
03786               0.80    10800.00
03787               1.20    10400.00
03788               0.80    10400.00
03789               0.80    10200.00
03790               0.80    10200.00
03791               0.80     9800.00
03792               0.80     9600.00
03793               0.80     9400.00
03794               0.80     9200.00
03795               0.80     8800.00
03796               0.80     8600.00
03797               0.80     8400.00
03798               0.80     8400.00
03799               0.40     8000.00
03800               0.80     7800.00
03801               0.80     7400.00
03802               0.40     7200.00
03803               0.80     7000.00
03804               0.80     6800.00
03805               0.40     6600.00
03806               0.40     6200.00
03807               0.40     6000.00
03808               0.80     5800.00
03809               0.40     5400.00
03810               0.80     5200.00
03811               0.80     4800.00
03812               0.40     4600.00
03813               0.40     4400.00
03814               0.40     4000.00
03815               0.40     3800.00
03816              -0.40     3600.00
03817               0.40     3400.00
03818               0.40     3000.00
03819              -0.40     2800.00
03820               0.40     2400.00
03821               0.40     2200.00
03822              -0.40     2000.00
03823              -0.40     1800.00
03824               0.40     1600.00
03825              -0.40     1200.00
03826              -0.80      800.00
03827              -0.40      800.00
03828              -0.40      400.00
03829              -0.80        0.00
03830              -0.40     -200.00
03831               0.40     -400.00
03832               2.00     -600.00
03833               0.40     -800.00
03834              -2.00    -1000.00
03835              -0.40    -1400.00
03836               0.80    -1800.00
03837              -0.80    -1800.00
03838               0.00    -2000.00
03839              25.20    -2600.00
03840               9.60    -3200.00
03841             -50.00    -3400.00
03842              -8.40    -3600.00
03843              24.80    -3600.00
03844             -23.20    -3600.00
03845              48.40    -4200.00
03846             -32.80    -4200.00
03847             -50.00    -4400.00
03848              50.00    -5000.00
03849             -50.00    -5200.00
03850             -50.00    -5400.00
03851              50.00    -6000.00
03852             -39.60    -5600.00
03853             -27.20    -6200.00
03854              30.80    -6400.00
03855              -8.80    -6600.00
03856              20.40    -7200.00
03857             -46.00    -6800.00
03858              21.60    -7600.00
03859              24.80    -7600.00
03860             -50.00    -7800.00
03861              26.40    -8400.00
03862              10.80    -8200.00
03863              -8.80    -8800.00
03864             -19.60    -9000.00
03865              11.60    -9000.00
03866              17.20    -9600.00
03867             -36.80    -9600.00
03868              16.80   -10000.00
03869               6.00   -10000.00
03870              -5.60   -10400.00
03871              -9.20   -10400.00
03872               2.40   -10600.00
03873              12.80   -10800.00
03874             -26.40   -11000.00
03875              11.60   -11400.00
03876               6.00   -11600.00
03877             -12.40   -11800.00
03878              -1.20   -12000.00
03879               5.20   -12200.00
03880              -4.40   -12400.00
03881             -10.00   -12400.00
03882               6.80   -12800.00
03883               0.40   -12800.00
03884              -6.00   -13000.00
03885              -1.20   -13200.00
03886               4.40   -13400.00
03887              -7.20   -13600.00
03888              -3.60   -13800.00
03889               2.80   -13800.00
03890              -4.00   -14000.00
03891              -4.40   -14200.00
03892               0.80   -14400.00
03893               0.80   -14400.00
03894              -8.00   -14600.00
03895               0.40   -14800.00
03896               0.40   -14800.00
03897              -5.60   -15000.00
03898              -2.40   -15000.00
03899               1.20   -15200.00
03900              -2.80   -15200.00
03901              -5.20   -15400.00
03902               0.80   -15600.00
03903              -2.40   -15600.00
03904              -5.20   -15600.00
03905              -1.20   -15800.00
03906               0.40   -16000.00
03907              -4.00   -16000.00
03908              -4.40   -16000.00
03909               0.40   -16200.00
03910              -2.40   -16400.00
03911              -4.40   -16400.00
03912              -0.80   -16200.00
03913              -0.80   -16400.00
03914              -4.00   -16400.00
03915              -2.80   -16400.00
03916              -1.20   -16400.00
03917              -2.40   -16600.00
03918              -4.00   -16400.00
03919              -1.20   -16600.00
03920              -0.80   -16600.00
03921              -2.80   -16600.00
03922              -2.40   -16800.00
03923              -1.20   -16800.00
03924              -2.40   -16800.00
03925              -3.60   -16800.00
03926              -1.20   -16600.00
03927              -1.60   -16800.00
03928              -3.60   -16400.00
03929              -2.00   -16600.00
03930              -2.00   -16600.00
03931              -2.40   -16800.00
03932              -2.40   -16600.00
03933              -2.00   -16400.00
03934              -1.20   -16400.00
03935              -2.40   -16400.00
03936              -2.80   -16400.00
03937              -2.40   -16400.00
03938              -2.40   -16200.00
03939              -2.40   -16200.00
03940              -2.40   -16200.00
03941              -1.60   -16200.00
03942              -2.40   -16200.00
03943              -2.00   -16000.00
03944              -2.00   -15600.00
03945              -2.00   -15800.00
03946              -2.00   -15600.00
03947              -2.00   -15600.00
03948              -1.60   -15600.00
03949              -2.00   -15400.00
03950              -2.40   -15200.00
03951              -2.00   -15200.00
03952              -1.60   -15200.00
03953              -2.40   -14800.00
03954              -2.40   -14800.00
03955              -2.00   -14600.00
03956              -2.40   -14400.00
03957              -2.40   -14400.00
03958              -2.40   -14200.00
03959              -2.00   -13800.00
03960              -2.40   -13800.00
03961              -2.40   -13800.00
03962              -2.00   -13600.00
03963              -2.00   -13400.00
03964              -2.40   -13200.00
03965              -2.00   -13000.00
03966              -1.20   -12800.00
03967              -2.40   -12800.00
03968              -2.40   -12600.00
03969              -2.00   -12400.00
03970              -2.00   -12200.00
03971              -2.40   -12200.00
03972              -2.00   -11800.00
03973              -1.20   -11600.00
03974              -2.00   -11400.00
03975              -2.00   -11200.00
03976              -2.40   -11000.00
03977              -2.00   -10800.00
03978              -1.20   -10600.00
03979              -1.20   -10400.00
03980              -2.00   -10200.00
03981              -0.80   -10000.00
03982              -2.00    -9800.00
03983              -2.40    -9600.00
03984              -1.20    -9200.00
03985              -1.20    -9000.00
03986              -2.00    -8800.00
03987              -0.80    -8600.00
03988              -2.00    -8400.00
03989              -1.60    -8200.00
03990              -0.80    -8000.00
03991              -1.20    -7600.00
03992              -1.20    -7400.00
03993              -1.20    -7200.00
03994              -1.20    -6800.00
03995              -1.20    -6600.00
03996              -1.20    -6400.00
03997              -1.20    -6200.00
03998              -0.80    -6000.00
03999              -0.80    -5600.00
04000              -1.20    -5200.00
04001              -1.20    -5200.00
04002              -0.80    -4800.00
04003              -1.20    -4400.00
04004              -0.80    -4400.00
04005              -0.40    -4000.00
04006              -0.40    -3800.00
04007              -0.80    -3600.00
04008              -0.80    -3200.00
04009              -0.40    -3200.00
04010              -1.20    -2800.00
04011              -0.40    -2600.00
04012              -0.40    -2200.00
04013              -0.80    -2000.00
04014              -0.40    -1600.00
04015               0.40    -1400.00
04016              -0.80    -1200.00
04017              -0.40     -800.00
04018              -0.40     -600.00
04019              -0.80     -200.00
04020               0.40        0.00
04021               0.40      200.00
04022               0.40      600.00
04023               3.20      600.00
04024              -0.80      800.00
04025              -2.00     1000.00
04026               2.00     1600.00
04027               0.80     1800.00
04028              -1.60     2000.00
04029               3.60     2200.00
04030              16.80     2800.00
04031              13.60     3200.00
04032             -36.00     3200.00
04033             -20.00     3600.00
04034              26.00     3800.00
04035             -14.00     3800.00
04036             -10.80     4200.00
04037              50.00     4400.00
04038             -48.80     4600.00
04039              -8.40     5200.00
04040              50.00     5400.00
04041             -50.00     5400.00
04042             -21.60     6000.00
04043              43.60     5800.00
04044              -7.60     6200.00
04045              -9.20     6600.00
04046              -6.00     6800.00
04047              23.20     7000.00
04048              -2.80     7200.00
04049             -30.00     7600.00
04050              29.60     7600.00
04051               1.20     8200.00
04052             -22.80     8400.00
04053              18.00     8600.00
04054              13.60     8800.00
04055             -16.80     9000.00
04056              -8.80     9200.00
04057              21.60     9400.00
04058              -2.40     9600.00
04059             -13.60    10000.00
04060               8.80    10000.00
04061              12.00    10400.00
04062              -6.80    10400.00
04063              -7.60    10600.00
04064              14.80    11000.00
04065              -2.40    11000.00
04066             -10.00    11600.00
04067              13.20    11600.00
04068               5.20    11800.00
04069              -8.80    12000.00
04070               3.60    12000.00
04071               9.20    12400.00
04072              -5.60    12600.00
04073              -3.60    12800.00
04074               9.20    12800.00
04075               2.40    13200.00
04076              -5.60    13200.00
04077               4.00    13200.00
04078               5.60    13400.00
04079              -4.40    13600.00
04080              -0.40    14000.00
04081               7.60    14000.00
04082              -0.80    14200.00
04083              -2.80    14200.00
04084               6.80    14400.00
04085               2.00    14600.00
04086              -4.40    14800.00
04087               4.00    15000.00
04088               4.00    14800.00
04089              -2.00    15000.00
04090               1.20    15200.00
04091               5.20    15400.00
04092              -0.40    15600.00
04093              -1.20    15600.00
04094               4.00    15600.00
04095               1.60    15800.00
04096              -0.40    15800.00
04097               2.40    15800.00
04098               2.80    16000.00
04099               0.80    16000.00
04100               0.40    16000.00
04101               2.80    16200.00
04102               1.20    16400.00
04103              -0.40    16400.00
04104               2.80    16400.00
04105               2.80    16400.00
04106               0.40    16600.00
04107               0.80    16400.00
04108               2.80    16600.00
04109               0.80    16600.00
04110               0.80    16600.00
04111               2.80    16400.00
04112               2.00    16600.00
04113               0.40    16600.00
04114               2.00    16600.00
04115               2.40    16800.00
04116               0.80    16600.00
04117               1.20    16600.00
04118               2.80    16600.00
04119               1.20    16600.00
04120               0.80    16600.00
04121               1.60    16600.00
04122               1.60    16600.00
04123               1.20    16600.00
04124               2.00    16400.00
04125               2.00    16400.00
04126               2.00    16400.00
04127               2.00    16400.00
04128               1.60    16400.00
04129               2.00    16400.00
04130               2.00    16000.00
04131               2.00    16000.00
04132               1.20    16000.00
04133               2.00    16000.00
04134               2.00    15800.00
04135               2.00    15800.00
04136               1.20    15600.00
04137               2.40    15600.00
04138               1.20    15600.00
04139               0.80    15200.00
04140               2.00    15200.00
04141               1.20    15000.00
04142               0.80    15000.00
04143               2.00    14800.00
04144               2.00    14800.00
04145               2.00    14400.00
04146               2.00    14600.00
04147               1.60    14400.00
04148               1.20    14400.00
04149               2.00    14000.00
04150               1.20    14000.00
04151               1.20    13800.00
04152               0.80    13600.00
04153               0.80    13600.00
04154               0.80    13200.00
04155               1.20    13200.00
04156               0.80    13000.00
04157               0.80    12800.00
04158               1.20    12600.00
04159               0.80    12400.00
04160               0.80    12400.00
04161               1.20    12000.00
04162               1.20    12000.00
04163               0.80    11600.00
04164               1.20    11400.00
04165               1.20    11200.00
04166               0.80    11000.00
04167               0.80    10800.00
04168               0.80    10800.00
04169               0.80    10400.00
04170               0.80    10200.00
04171               0.80    10000.00
04172               0.80     9800.00
04173               0.80     9600.00
04174               0.80     9200.00
04175               0.40     9200.00
04176               0.80     8800.00
04177               0.80     8800.00
04178               0.80     8600.00
04179               0.80     8200.00
04180               0.40     8000.00
04181               0.80     7800.00
04182               0.80     7600.00
04183               0.40     7200.00
04184               0.80     7000.00
04185               0.80     6600.00
04186               0.40     6600.00
04187               0.40     6200.00
04188               0.80     6000.00
04189               0.40     5800.00
04190               0.40     5600.00
04191               0.80     5200.00
04192               0.80     5000.00
04193               0.40     4600.00
04194               0.40     4400.00
04195               0.40     4200.00
04196               0.40     3800.00
04197               0.40     3600.00
04198               0.40     3400.00
04199               0.40     3000.00
04200               0.40     2800.00
04201               0.40     2400.00
04202              -0.40     2200.00
04203               0.40     2000.00
04204               0.40     2000.00
04205               0.40     1400.00
04206               0.40     1200.00
04207               0.40     1000.00
04208              -0.80      600.00
04209               0.00      400.00
04210               0.80        0.00
04211              -0.80     -200.00
04212              -0.40     -400.00
04213               3.20     -600.00
04214               0.80    -1000.00
04215              -2.40    -1000.00
04216               0.80    -1600.00
04217               0.80    -1600.00
04218              -2.00    -2000.00
04219               1.20    -2000.00
04220              24.40    -2400.00
04221              10.40    -3000.00
04222             -50.00    -3200.00
04223              -9.20    -3600.00
04224              24.80    -3600.00
04225             -22.80    -3600.00
04226              47.60    -4200.00
04227             -28.00    -4200.00
04228             -50.00    -4200.00
04229              50.00    -5200.00
04230             -48.80    -5000.00
04231             -50.00    -5200.00
04232              50.00    -5800.00
04233             -36.40    -5600.00
04234             -30.40    -6200.00
04235              31.20    -6400.00
04236              -9.20    -6400.00
04237              21.60    -7200.00
04238             -46.00    -7000.00
04239              19.60    -7600.00
04240              27.60    -7800.00
04241             -50.00    -8000.00
04242              24.80    -8400.00
04243              12.80    -8200.00
04244              -8.80    -8800.00
04245             -19.60    -8800.00
04246              10.40    -9200.00
04247              18.80    -9400.00
04248             -37.60    -9600.00
04249              15.20   -10000.00
04250               7.20   -10000.00
04251              -6.40   -10400.00
04252              -9.20   -10600.00
04253               1.60   -10600.00
04254              13.60   -10800.00
04255             -26.40   -11000.00
04256              10.40   -11400.00
04257               7.20   -11400.00
04258             -12.40   -11800.00
04259              -1.20   -12000.00
04260               5.60   -12200.00
04261              -4.00   -12400.00
04262             -10.80   -12400.00
04263               6.00   -12800.00
04264               0.00   -12800.00
04265              -6.00   -13000.00
04266              -2.00   -13200.00
04267               4.40   -13200.00
04268              -7.20   -13600.00
04269              -4.00   -13600.00
04270               3.60   -13800.00
04271              -4.40   -14000.00
04272              -4.40   -14200.00
04273               2.40   -14200.00
04274               0.80   -14400.00
04275              -8.80   -14600.00
04276               1.20   -14800.00
04277               0.40   -14800.00
04278              -6.40   -15000.00
04279              -1.20   -15200.00
04280               2.00   -15000.00
04281              -3.60   -15400.00
04282              -5.20   -15400.00
04283               1.20   -15600.00
04284              -2.40   -15600.00
04285              -5.60   -15600.00
04286              -0.80   -15800.00
04287               0.00   -15800.00
04288              -4.00   -16000.00
04289              -3.60   -16000.00
04290              -0.40   -16200.00
04291              -2.40   -16200.00
04292              -4.40   -16400.00
04293              -0.80   -16400.00
04294              -0.80   -16400.00
04295              -4.00   -16400.00
04296              -2.40   -16400.00
04297              -1.20   -16400.00
04298              -2.80   -16400.00
04299              -3.60   -16600.00
04300              -1.20   -16400.00
04301              -0.80   -16800.00
04302              -3.60   -16600.00
04303              -2.40   -16600.00
04304              -2.00   -16800.00
04305              -2.80   -16800.00
04306              -2.80   -16600.00
04307              -1.60   -16800.00
04308              -2.00   -16800.00
04309              -2.80   -16800.00
04310              -2.40   -16600.00
04311              -2.00   -16600.00
04312              -2.40   -16600.00
04313              -2.40   -16400.00
04314              -2.00   -16400.00
04315              -2.00   -16400.00
04316              -2.40   -16400.00
04317              -2.40   -16400.00
04318              -2.40   -16400.00
04319              -2.40   -16200.00
04320              -2.40   -16200.00
04321              -2.40   -16200.00
04322              -2.00   -16000.00
04323              -2.40   -16000.00
04324              -2.40   -16000.00
04325              -2.00   -15800.00
04326              -2.40   -15600.00
04327              -1.60   -15600.00
04328              -2.40   -15400.00
04329              -2.40   -15400.00
04330              -2.00   -15200.00
04331              -2.00   -15200.00
04332              -2.40   -15000.00
04333              -1.20   -14800.00
04334              -2.00   -14800.00
04335              -2.40   -14800.00
04336              -2.00   -14600.00
04337              -2.00   -14400.00
04338              -2.00   -14400.00
04339              -1.20   -14000.00
04340              -2.00   -14000.00
04341              -2.00   -13800.00
04342              -2.00   -13600.00
04343              -2.00   -13600.00
04344              -2.00   -13200.00
04345              -2.40   -13200.00
04346              -2.00   -13200.00
04347              -1.60   -13000.00
04348              -2.00   -12800.00
04349              -2.00   -12600.00
04350              -2.00   -12400.00
04351              -2.00   -12200.00
04352              -2.00   -12200.00
04353              -2.00   -11800.00
04354              -1.20   -11600.00
04355              -2.40   -11400.00
04356              -2.00   -11000.00
04357              -1.60   -10800.00
04358              -2.00   -10800.00
04359              -1.60   -10400.00
04360              -1.20   -10400.00
04361              -2.00   -10000.00
04362              -0.80   -10000.00
04363              -2.00    -9800.00
04364              -2.40    -9400.00
04365              -0.80    -9200.00
04366              -1.20    -9000.00
04367              -2.00    -8800.00
04368              -1.20    -8800.00
04369              -1.60    -8400.00
04370              -2.00    -8200.00
04371              -0.80    -8000.00
04372              -1.20    -7600.00
04373              -1.20    -7400.00
04374              -0.80    -7200.00
04375              -1.20    -6800.00
04376              -0.80    -6600.00
04377              -0.80    -6400.00
04378              -1.20    -6000.00
04379              -1.20    -6000.00
04380              -0.80    -5600.00
04381              -1.20    -5200.00
04382              -0.80    -5000.00
04383              -0.80    -4600.00
04384              -2.00    -4600.00
04385               0.40    -4200.00
04386              -1.60    -4000.00
04387              -0.80    -3800.00
04388               0.40    -3600.00
04389              -2.00    -3200.00
04390               0.40    -3000.00
04391              -0.80    -2600.00
04392              -1.20    -2400.00
04393               0.40    -2200.00
04394              -0.80    -2000.00
04395              -0.80    -1600.00
04396              -0.40    -1400.00
04397              -0.40    -1200.00
04398              -0.80     -800.00
04399              -0.80     -600.00
04400               0.80     -400.00
04401              -1.20        0.00
04402               0.00      200.00
04403               2.00      600.00
04404               2.00      800.00
04405              -1.20     1000.00
04406              -0.40     1200.00
04407               2.40     1800.00
04408               0.40     2000.00
04409              -0.40     2000.00
04410               3.60     2400.00
04411              15.60     2800.00
04412              15.20     3000.00
04413             -34.80     3200.00
04414             -21.60     3600.00
04415              26.00     3600.00
04416             -12.00     3800.00
04417             -12.00     4200.00
04418              50.00     4400.00
04419             -46.40     4600.00
04420             -11.60     5200.00
04421              50.00     5400.00
04422             -50.00     5400.00
04423             -24.40     6000.00
04424              43.60     6000.00
04425              -7.20     6400.00
04426              -9.20     6600.00
04427              -6.00     6800.00
04428              22.80     7000.00
04429              -1.20     7200.00
04430             -30.00     7400.00
04431              29.20     7800.00
04432               2.00     8000.00
04433             -23.20     8200.00
04434              16.80     8600.00
04435              13.20     8800.00
04436             -15.60     9000.00
04437              -8.80     9200.00
04438              21.20     9400.00
04439              -1.20     9600.00
04440             -14.00    10000.00
04441               8.40    10200.00
04442              11.60    10400.00
04443              -6.00    10600.00
04444              -8.40    10800.00
04445              14.80    10800.00
04446              -2.00    11200.00
04447             -11.20    11400.00
04448              12.40    11600.00
04449               5.60    12000.00
04450              -9.20    12000.00
04451               3.60    12200.00
04452              10.40    12400.00
04453              -6.00    12600.00
04454              -3.60    12800.00
04455              10.00    12800.00
04456               2.40    13200.00
04457              -6.00    13200.00
04458               4.00    13400.00
04459               6.80    13400.00
04460              -4.40    13600.00
04461               0.00    13800.00
04462               8.00    14000.00
04463              -0.80    14200.00
04464              -3.20    14400.00
04465               7.20    14600.00
04466               2.00    14600.00
04467              -4.00    14800.00
04468               4.40    14800.00
04469               4.00    15000.00
04470              -2.00    15200.00
04471               2.00    15200.00
04472               5.20    15200.00
04473              -0.40    15600.00
04474              -0.40    15600.00
04475               4.00    15600.00
04476               1.20    15800.00
04477              -0.40    15800.00
04478               2.40    15800.00
04479               2.80    16000.00
04480               0.40    16000.00
04481               0.80    16000.00
04482               2.80    16400.00
04483               1.60    16200.00
04484              -0.40    16400.00
04485               2.40    16400.00
04486               2.80    16400.00
04487               0.40    16400.00
04488               1.20    16600.00
04489               2.80    16600.00
04490               0.40    16600.00
04491               0.80    16600.00
04492               3.60    16600.00
04493               1.20    16600.00
04494               0.40    16600.00
04495               2.40    16600.00
04496               2.00    16800.00
04497               0.80    16600.00
04498               2.00    16600.00
04499               2.40    16800.00
04500               1.20    16600.00
04501               1.20    16600.00
04502               2.00    16400.00
04503               1.60    16600.00
04504               1.20    16600.00
04505               1.60    16400.00
04506               2.00    16400.00
04507               1.20    16400.00
04508               1.20    16400.00
04509               1.60    16400.00
04510               2.00    16200.00
04511               1.20    16200.00
04512               1.20    16000.00
04513               1.60    16000.00
04514               2.00    16000.00
04515               2.40    16000.00
04516               2.00    15800.00
04517               1.20    15600.00
04518               2.40    15600.00
04519               1.60    15600.00
04520               0.80    15400.00
04521               2.00    15200.00
04522               2.00    15200.00
04523               1.20    15000.00
04524               2.00    14800.00
04525               2.40    14800.00
04526               1.20    14800.00
04527               1.20    14600.00
04528               2.00    14400.00
04529               2.00    14200.00
04530               1.20    14000.00
04531               1.20    14000.00
04532               2.00    13800.00
04533               1.60    13600.00
04534               1.20    13400.00
04535               1.60    13400.00
04536               1.20    13200.00
04537               1.20    13000.00
04538               1.20    12800.00
04539               2.00    12600.00
04540               0.80    12400.00
04541               0.80    12400.00
04542               1.20    12000.00
04543               1.20    11800.00
04544               0.80    11600.00
04545               1.20    11400.00
04546               1.20    11200.00
04547               0.80    11000.00
04548               0.80    10800.00
04549               1.20    10600.00
04550               0.80    10400.00
04551               0.40    10200.00
04552               0.80    10000.00
04553               0.80     9600.00
04554               0.80     9600.00
04555               0.80     9400.00
04556               0.80     9200.00
04557               0.40     8800.00
04558               0.40     8800.00
04559               0.80     8400.00
04560               0.40     8200.00
04561               0.80     8000.00
04562               0.40     7800.00
04563               0.40     7400.00
04564               0.80     7200.00
04565               0.80     7000.00
04566               0.40     6800.00
04567               0.40     6400.00
04568               0.40     6200.00
04569               0.00     6000.00
04570               0.40     5800.00
04571               0.40     5400.00
04572               0.40     5200.00
04573               0.80     5000.00
04574               0.80     4600.00
04575              -0.40     4400.00
04576              -0.40     4000.00
04577               0.40     3800.00
04578               0.40     3600.00
04579               0.00     3600.00
04580               0.40     3000.00
04581               0.80     2800.00
04582               0.00     2600.00
04583              -0.40     2200.00
04584               0.40     2000.00
04585               0.40     2000.00
04586              -0.40     1400.00
04587               0.40     1400.00
04588               0.40      800.00
04589              -0.80      600.00
04590              -0.40      400.00
04591               0.40      200.00
04592              -0.40     -200.00
04593              -0.40     -400.00
04594               2.00     -800.00
04595               1.20     -800.00
04596              -1.20    -1000.00
04597              -1.20    -1400.00
04598               1.20    -1600.00
04599              -0.40    -1800.00
04600               0.40    -2000.00
04601              23.20    -2400.00
04602              14.00    -3000.00
04603             -50.00    -3400.00
04604             -12.40    -3600.00
04605              26.40    -3600.00
04606             -22.80    -3400.00
04607              45.20    -4200.00
04608             -23.60    -4400.00
04609             -50.00    -4200.00
04610              50.00    -5000.00
04611             -42.80    -5000.00
04612             -50.00    -5600.00
04613              50.00    -5800.00
04614             -32.40    -5800.00
04615             -33.60    -6200.00
04616              32.80    -6200.00
04617             -10.00    -6400.00
04618              21.60    -7200.00
04619             -45.20    -7000.00
04620              16.40    -7600.00
04621              30.00    -7800.00
04622             -50.00    -7600.00
04623              23.60    -8400.00
04624              13.60    -8200.00
04625              -8.80    -8800.00
04626             -19.60    -9000.00
04627               7.60    -9000.00
04628              20.40    -9400.00
04629             -36.80    -9200.00
04630              13.60   -10000.00
04631               8.00   -10000.00
04632              -6.00   -10200.00
04633             -10.00   -10600.00
04634               0.40   -10800.00
04635              14.00   -10800.00
04636             -26.00   -11000.00
04637               8.80   -11200.00
04638               8.00   -11400.00
04639             -12.00   -12000.00
04640              -2.00   -12000.00
04641               5.60   -12200.00
04642              -2.40   -12400.00
04643             -11.20   -12400.00
04644               5.60   -12800.00
04645               0.80   -13000.00
04646              -6.80   -13000.00
04647              -2.40   -13200.00
04648               4.40   -13200.00
04649              -6.80   -13600.00
04650              -4.40   -13600.00
04651               3.60   -13800.00
04652              -3.60   -14000.00
04653              -4.00   -14000.00
04654               0.80   -14400.00
04655               0.80   -14400.00
04656              -7.60   -14600.00
04657               0.00   -14600.00
04658               0.80   -14800.00
04659              -5.60   -14800.00
04660              -2.40   -15000.00
04661               2.00   -15200.00
04662              -2.40   -15200.00
04663              -5.20   -15400.00
04664               0.80   -15400.00
04665              -2.00   -15600.00
04666              -4.80   -15600.00
04667              -1.20   -15800.00
04668               0.40   -16000.00
04669              -2.80   -16000.00
04670              -4.00   -16000.00
04671              -0.40   -16000.00
04672              -2.00   -16200.00
04673              -4.80   -16200.00
04674              -1.20   -16200.00
04675              -0.40   -16400.00
04676              -3.60   -16400.00
04677              -2.80   -16400.00
04678              -1.20   -16400.00
04679              -2.40   -16400.00
04680              -3.60   -16400.00
04681              -1.20   -16600.00
04682              -1.20   -16800.00
04683              -3.20   -16600.00
04684              -2.40   -16600.00
04685              -2.00   -16600.00
04686              -2.40   -16600.00
04687              -2.80   -16800.00
04688              -1.60   -16400.00
04689              -1.20   -16800.00
04690              -2.80   -16400.00
04691              -2.40   -16800.00
04692              -2.40   -16600.00
04693              -2.40   -16600.00
04694              -2.40   -16600.00
04695              -2.40   -16400.00
04696              -2.00   -16400.00
04697              -2.40   -16400.00
04698              -2.80   -16400.00
04699              -2.00   -16400.00
04700              -2.00   -16200.00
04701              -2.40   -16200.00
04702              -2.00   -16000.00
04703              -1.60   -16000.00
04704              -2.40   -16000.00
04705              -2.40   -16000.00
04706              -2.40   -16000.00
04707              -2.40   -15600.00
04708              -2.00   -15600.00
04709              -2.00   -15400.00
04710              -2.00   -15400.00
04711              -2.00   -15400.00
04712              -2.40   -15200.00
04713              -2.00   -15200.00
04714              -1.60   -14800.00
04715              -2.40   -14800.00
04716              -2.40   -14800.00
04717              -2.00   -14600.00
04718              -2.00   -14400.00
04719              -2.40   -14400.00
04720              -1.60   -14000.00
04721              -1.60   -14000.00
04722              -2.40   -13800.00
04723              -2.00   -13600.00
04724              -2.00   -13400.00
04725              -1.20   -13200.00
04726              -2.00   -13200.00
04727              -2.00   -13000.00
04728              -1.60   -12800.00
04729              -1.20   -12800.00
04730              -2.40   -12400.00
04731              -1.20   -12400.00
04732              -1.20   -12200.00
04733              -2.40   -12000.00
04734              -1.20   -11800.00
04735              -1.20   -11600.00
04736              -1.60   -11400.00
04737              -2.80   -11200.00
04738              -1.20   -11000.00
04739              -1.20   -10800.00
04740              -2.40   -10600.00
04741              -1.20   -10400.00
04742              -1.20   -10000.00
04743              -1.60   -10000.00
04744              -2.40    -9800.00
04745              -1.60    -9600.00
04746              -1.20    -9200.00
04747              -2.00    -9000.00
04748              -1.20    -9000.00
04749              -0.80    -8600.00
04750              -1.60    -8400.00
04751              -2.00    -8000.00
04752              -1.20    -8000.00
04753              -1.20    -7600.00
04754              -1.20    -7400.00
04755              -1.20    -7200.00
04756              -0.80    -6800.00
04757              -0.80    -6600.00
04758              -2.40    -6400.00
04759              -0.80    -6000.00
04760              -0.80    -5800.00
04761              -1.20    -5600.00
04762              -0.80    -5200.00
04763              -0.80    -5000.00
04764              -0.40    -4600.00
04765              -1.20    -4600.00
04766              -1.20    -4200.00
04767               0.00    -4000.00
04768              -0.80    -3600.00
04769              -1.20    -3600.00
04770              -0.40    -3200.00
04771              -0.80    -3200.00
04772              -1.20    -2800.00
04773              -0.40    -2600.00
04774              -0.40    -2400.00
04775               0.00    -2000.00
04776              -0.80    -1600.00
04777              -0.80    -1600.00
04778               0.80    -1000.00
04779              -0.80     -800.00
04780              -1.20     -600.00
04781               0.80     -200.00
04782               0.00        0.00
04783              -0.40      200.00
04784               1.20      400.00
04785               2.80      800.00
04786              -1.20     1000.00
04787              -0.80     1200.00
04788               1.20     1800.00
04789               1.20     1800.00
04790              -0.80     2000.00
04791               2.40     2200.00
04792              16.80     2800.00
04793              16.40     3000.00
04794             -34.80     3200.00
04795             -22.80     3600.00
04796              26.40     3800.00
04797             -10.80     3800.00
04798             -15.20     4200.00
04799              50.00     4400.00
04800             -44.00     4600.00
04801             -15.20     5200.00
04802              50.00     5400.00
04803             -48.40     5400.00
04804             -28.00     5800.00
04805              44.40     6000.00
04806              -5.20     6200.00
04807             -10.40     6400.00
04808              -6.00     6800.00
04809              23.20     7000.00
04810              -1.20     7200.00
04811             -31.60     7400.00
04812              29.20     7600.00
04813               3.60     8200.00
04814             -23.60     8400.00
04815              16.80     8600.00
04816              14.40     8800.00
04817             -15.60     8800.00
04818             -10.80     9200.00
04819              21.60     9400.00
04820              -0.40     9600.00
04821             -15.20    10000.00
04822               8.80    10000.00
04823              12.00    10400.00
04824              -6.00    10400.00
04825              -8.80    10800.00
04826              14.40    10800.00
04827              -0.80    11200.00
04828             -11.60    11400.00
04829              12.40    11600.00
04830               5.60    11800.00
04831             -10.00    12000.00
04832               2.80    12200.00
04833              10.40    12400.00
04834              -5.60    12600.00
04835              -4.40    12800.00
04836              10.00    13000.00
04837               2.40    13000.00
04838              -6.00    13200.00
04839               4.00    13400.00
04840               6.80    13600.00
04841              -4.40    13800.00
04842              -0.80    14000.00
04843               8.80    14000.00
04844              -1.20    14200.00
04845              -4.00    14200.00
04846               7.60    14400.00
04847               2.40    14600.00
04848              -5.60    14800.00
04849               4.40    14800.00
04850               4.80    15000.00
04851              -2.80    15000.00
04852               2.00    15200.00
04853               6.00    15400.00
04854              -0.80    15400.00
04855              -0.80    15600.00
04856               5.20    15800.00
04857               1.20    15800.00
04858              -0.40    15800.00
04859               3.60    16000.00
04860               3.20    16000.00
04861              -0.40    16000.00
04862               0.80    16000.00
04863               3.60    16200.00
04864               0.80    16400.00
04865               0.40    16200.00
04866               3.60    16400.00
04867               2.80    16400.00
04868               0.00    16400.00
04869               2.00    16400.00
04870               3.20    16600.00
04871               0.80    16400.00
04872               1.20    16600.00
04873               3.20    16400.00
04874               1.20    16600.00
04875               0.40    16600.00
04876               2.40    16600.00
04877               1.20    16800.00
04878               0.80    16600.00
04879               2.40    16600.00
04880               2.40    16600.00
04881               1.20    16600.00
04882               1.20    16600.00
04883               1.60    16600.00
04884               1.60    16600.00
04885               1.60    16400.00
04886               2.00    16400.00
04887               2.00    16400.00
04888               2.00    16400.00
04889               1.20    16400.00
04890               0.80    16400.00
04891               2.40    16400.00
04892               1.20    16000.00
04893               1.20    16000.00
04894               2.40    16000.00
04895               1.20    16000.00
04896               2.40    16000.00
04897               2.40    15800.00
04898               0.40    15600.00
04899               2.40    15600.00
04900               1.20    15600.00
04901               0.80    15400.00
04902               2.00    15400.00
04903               2.00    15200.00
04904               1.20    15000.00
04905               2.00    14800.00
04906               1.20    14800.00
04907               1.20    14400.00
04908               2.40    14600.00
04909               1.20    14200.00
04910               0.80    14200.00
04911               3.60    14200.00
04912               1.20    14000.00
04913               0.80    13800.00
04914               2.80    13600.00
04915               1.20    13400.00
04916               0.40    13200.00
04917               2.00    13200.00
04918               2.40    13000.00
04919               0.80    12800.00
04920               0.80    12800.00
04921               3.20    12400.00
04922               0.40    12400.00
04923              -0.40    12000.00
04924               2.40    12000.00
04925               2.00    11600.00
04926              -0.40    11600.00
04927               0.80    11400.00
04928               2.80    11200.00
04929               0.40    10800.00
04930               0.40    10800.00
04931               2.40    10400.00
04932               2.00    10200.00
04933              -0.40    10000.00
04934               0.80    10000.00
04935               2.00     9600.00
04936               0.40     9400.00
04937               0.40     9200.00
04938               0.40     8800.00
04939               0.80     8600.00
04940               0.40     8400.00
04941               0.40     8200.00
04942               0.80     8000.00
04943               0.40     7800.00
04944               0.40     7400.00
04945              -0.80     7200.00
04946               0.80     7000.00
04947               0.80     6800.00
04948               0.40     6400.00
04949               0.80     6200.00
04950               0.80     6000.00
04951              -0.40     5600.00
04952               0.40     5600.00
04953              -0.40     5200.00
04954               0.40     5000.00
04955               0.80     4600.00
04956               0.40     4400.00
04957              -0.80     4000.00
04958               0.40     3800.00
04959               0.40     3600.00
04960              -0.80     3600.00
04961               0.00     3000.00
04962               1.60     3000.00
04963              -0.80     2400.00
04964              -0.80     2400.00
04965               0.80     2200.00
04966              -0.80     1800.00
04967              -1.60     1600.00
04968               0.80     1400.00
04969               0.40     1000.00
04970              -1.20      800.00
04971               0.80      400.00
04972               0.40      200.00
04973              -1.20     -200.00
04974              -0.40     -400.00
04975               2.40     -400.00
04976               1.20    -1000.00
04977              -2.00    -1000.00
04978               0.40    -1600.00
04979               1.20    -1600.00
04980              -1.20    -2000.00
04981              -0.40    -2000.00
04982              23.20    -2400.00
04983              14.80    -3000.00
04984             -50.00    -3200.00
04985             -14.00    -3600.00
04986              27.60    -3600.00
04987             -23.20    -3600.00
04988              44.00    -4000.00
04989             -18.80    -4200.00
04990             -50.00    -4200.00
04991              50.00    -5000.00
04992             -35.60    -5000.00
04993             -50.00    -5400.00
04994              50.00    -5800.00
04995             -28.00    -5600.00
04996             -37.60    -6200.00
04997              33.60    -6400.00
04998              -9.20    -6600.00
04999              21.60    -7200.00
05000             -43.60    -7200.00
