Unit:(mV)
                     CH1         CH2
Frequency              ? 262.179 kHz
00001               0.80     3000.00
00002               1.20     2800.00
00003               0.40     2600.00
00004               0.40     2400.00
00005               1.20     2000.00
00006               0.80     2000.00
00007               0.00     1600.00
00008               0.40     1600.00
00009               0.40     1400.00
00010              -0.40     1200.00
00011              -0.40      800.00
00012               0.00      800.00
00013               0.80      600.00
00014               0.40      200.00
00015               0.00        0.00
00016              -0.40        0.00
00017              -0.40     -200.00
00018               0.80     -400.00
00019               0.40     -800.00
00020              -1.60     -800.00
00021              -0.40    -1000.00
00022              -0.40    -1200.00
00023              -1.60    -1600.00
00024              -0.40    -1600.00
00025              12.00    -2000.00
00026              24.00    -2400.00
00027             -36.40    -2600.00
00028             -30.00    -2800.00
00029               2.40    -2600.00
00030              30.80    -2800.00
00031              50.00    -3400.00
00032             -50.00    -3200.00
00033             -16.40    -3200.00
00034              50.00    -4000.00
00035             -50.00    -4000.00
00036             -50.00    -4000.00
00037              50.00    -4600.00
00038             -42.40    -4200.00
00039             -50.00    -4600.00
00040              50.00    -5200.00
00041              -9.20    -5000.00
00042             -50.00    -5600.00
00043              18.00    -5600.00
00044              -1.20    -5600.00
00045              26.80    -6000.00
00046             -50.00    -6000.00
00047               0.80    -6400.00
00048              50.00    -6400.00
00049             -50.00    -6400.00
00050             -15.60    -6800.00
00051              37.20    -7200.00
00052              -8.40    -7200.00
00053             -30.80    -7400.00
00054              -6.80    -7400.00
00055              40.00    -8000.00
00056             -36.40    -8000.00
00057             -23.60    -8200.00
00058              36.00    -8400.00
00059             -23.20    -8400.00
00060             -23.60    -8800.00
00061              10.40    -8800.00
00062               6.80    -8800.00
00063             -28.80    -9000.00
00064              -4.40    -9200.00
00065              15.60    -9200.00
00066             -29.60    -9600.00
00067              -6.00    -9800.00
00068               3.60    -9800.00
00069             -13.20   -10000.00
00070             -10.40   -10000.00
00071              -5.60   -10200.00
00072              -2.80   -10200.00
00073             -17.20   -10400.00
00074              -7.60   -10600.00
00075              -3.60   -10800.00
00076             -15.60   -10600.00
00077             -11.60   -10800.00
00078              -2.80   -11000.00
00079             -11.60   -11000.00
00080             -17.20   -11200.00
00081              -5.20   -11400.00
00082              -9.20   -11400.00
00083             -18.80   -11600.00
00084             -10.00   -11600.00
00085              -5.60   -11600.00
00086             -18.80   -12000.00
00087             -15.20   -11800.00
00088              -6.80   -12000.00
00089             -17.20   -12000.00
00090             -19.60   -12200.00
00091             -10.80   -12200.00
00092             -12.00   -12200.00
00093             -20.80   -12400.00
00094             -16.40   -12400.00
00095             -13.20   -12400.00
00096             -20.40   -12800.00
00097             -20.80   -12400.00
00098             -16.80   -12600.00
00099             -17.20   -12600.00
00100             -23.60   -12800.00
00101             -20.40   -12800.00
00102             -18.80   -12800.00
00103             -23.60   -12800.00
00104             -24.40   -12800.00
00105             -21.20   -12800.00
00106             -22.00   -12800.00
00107             -26.00   -12800.00
00108             -24.40   -12800.00
00109             -23.60   -12800.00
00110             -26.80   -12800.00
00111             -26.00   -12800.00
00112             -25.20   -12800.00
00113             -24.80   -12800.00
00114             -26.00   -12800.00
00115             -25.60   -12800.00
00116             -24.80   -12800.00
00117             -24.00   -12800.00
00118             -24.40   -12800.00
00119             -22.80   -12800.00
00120             -21.60   -12800.00
00121             -20.40   -12800.00
00122             -20.40   -12600.00
00123             -19.60   -12400.00
00124             -18.40   -12400.00
00125             -18.40   -12400.00
00126             -17.20   -12400.00
00127             -17.20   -12400.00
00128             -15.60   -12400.00
00129             -17.20   -12200.00
00130             -16.40   -12200.00
00131             -14.00   -12000.00
00132             -14.00   -12000.00
00133             -15.20   -12000.00
00134             -13.60   -12000.00
00135             -13.20   -12000.00
00136             -14.00   -11600.00
00137             -13.20   -11600.00
00138             -10.80   -11600.00
00139             -11.60   -11400.00
00140             -12.40   -11400.00
00141             -10.80   -11400.00
00142             -10.80   -11000.00
00143             -11.20   -11000.00
00144             -10.00   -10800.00
00145              -9.20   -10600.00
00146             -10.00   -10600.00
00147              -9.60   -10400.00
00148              -9.20   -10600.00
00149              -9.20   -10400.00
00150              -8.80   -10200.00
00151              -7.60   -10200.00
00152              -7.60   -10000.00
00153              -8.80    -9800.00
00154              -8.00    -9600.00
00155              -7.20    -9600.00
00156              -7.60    -9200.00
00157              -7.20    -9400.00
00158              -6.00    -9000.00
00159              -6.00    -9000.00
00160              -6.80    -8800.00
00161              -6.80    -8600.00
00162              -5.60    -8400.00
00163              -6.40    -8200.00
00164              -6.00    -8200.00
00165              -4.80    -8000.00
00166              -4.00    -7800.00
00167              -6.00    -7600.00
00168              -4.40    -7600.00
00169              -4.80    -7400.00
00170              -5.20    -7200.00
00171              -4.40    -7000.00
00172              -3.60    -6800.00
00173              -4.40    -6600.00
00174              -4.00    -6400.00
00175              -3.60    -6400.00
00176              -4.00    -6000.00
00177              -4.00    -5800.00
00178              -3.60    -5800.00
00179              -3.60    -5600.00
00180              -3.20    -5400.00
00181              -2.80    -5200.00
00182              -3.60    -5000.00
00183              -2.80    -4600.00
00184              -2.80    -4600.00
00185              -2.40    -4400.00
00186              -2.80    -4200.00
00187              -2.40    -4000.00
00188              -2.40    -3600.00
00189              -2.40    -3600.00
00190              -2.40    -3400.00
00191              -1.60    -3200.00
00192              -2.40    -3200.00
00193              -1.60    -2800.00
00194              -2.00    -2600.00
00195              -2.80    -2400.00
00196              -1.60    -2200.00
00197              -1.20    -2000.00
00198              -2.00    -1800.00
00199              -2.00    -1600.00
00200               0.40    -1200.00
00201              -1.20    -1200.00
00202              -2.00    -1000.00
00203              -0.40     -600.00
00204              -0.40     -400.00
00205              -1.20     -200.00
00206               0.40     -200.00
00207              -1.20        0.00
00208               0.40      400.00
00209               2.00      600.00
00210               0.40      600.00
00211              -1.20      800.00
00212               2.00     1200.00
00213               0.80     1400.00
00214               0.80     1800.00
00215               2.00     1800.00
00216               8.40     2000.00
00217              20.40     2400.00
00218             -12.40     2600.00
00219             -34.40     2800.00
00220               2.80     2800.00
00221               4.00     3000.00
00222              36.80     3200.00
00223               8.80     3400.00
00224             -50.00     3400.00
00225              50.00     3800.00
00226              50.00     3800.00
00227             -50.00     4000.00
00228              19.60     4600.00
00229              50.00     4400.00
00230             -50.00     4800.00
00231              -4.40     5200.00
00232              50.00     5200.00
00233             -27.60     5400.00
00234             -17.60     5600.00
00235              18.00     5600.00
00236              23.60     6000.00
00237             -16.80     6200.00
00238             -18.40     6400.00
00239              45.20     6400.00
00240               4.40     6800.00
00241             -31.60     7000.00
00242              14.00     7000.00
00243              26.80     7200.00
00244              -8.00     7600.00
00245             -17.20     7400.00
00246              26.40     7800.00
00247              16.80     8000.00
00248             -24.40     8400.00
00249              14.40     8400.00
00250              24.40     8600.00
00251             -16.80     8600.00
00252               2.00     8800.00
00253              29.20     9000.00
00254              -4.00     9000.00
00255              -9.20     9200.00
00256              25.20     9400.00
00257               7.20     9400.00
00258              -8.00     9600.00
00259              12.40    10000.00
00260              14.80    10000.00
00261               0.80    10000.00
00262               5.20    10200.00
00263              14.00    10400.00
00264               6.80    10400.00
00265               4.00    10400.00
00266              12.00    10600.00
00267              10.80    10800.00
00268               4.00    10800.00
00269              10.80    11000.00
00270              15.20    11000.00
00271               6.40    11200.00
00272               8.40    11200.00
00273              16.40    11400.00
00274               9.20    11600.00
00275               7.60    11800.00
00276              16.80    11800.00
00277              13.60    11800.00
00278               8.40    12000.00
00279              16.40    12000.00
00280              16.80    12000.00
00281              10.40    12200.00
00282              14.00    12200.00
00283              19.60    12200.00
00284              14.40    12400.00
00285              14.80    12400.00
00286              19.60    12400.00
00287              18.80    12400.00
00288              16.40    12600.00
00289              18.40    12400.00
00290              21.60    12600.00
00291              19.60    12600.00
00292              18.80    12800.00
00293              23.20    12600.00
00294              22.80    12800.00
00295              20.00    12800.00
00296              23.60    12800.00
00297              25.20    12800.00
00298              22.80    12800.00
00299              23.60    12800.00
00300              26.40    12800.00
00301              24.80    12800.00
00302              24.40    12800.00
00303              26.40    12800.00
00304              26.40    12800.00
00305              24.40    12800.00
00306              24.80    12800.00
00307              24.80    12800.00
00308              23.20    12600.00
00309              22.00    12800.00
00310              22.40    12600.00
00311              20.40    12800.00
00312              19.60    12600.00
00313              19.60    12800.00
00314              18.80    12400.00
00315              18.00    12600.00
00316              16.80    12400.00
00317              17.20    12600.00
00318              16.80    12200.00
00319              14.80    12400.00
00320              15.20    12200.00
00321              14.80    12400.00
00322              14.40    12400.00
00323              14.00    12000.00
00324              13.20    12000.00
00325              12.40    12000.00
00326              13.60    11800.00
00327              11.60    11800.00
00328              11.60    11600.00
00329              12.00    11600.00
00330              11.20    11400.00
00331              10.80    11200.00
00332              10.80    11200.00
00333              10.80    11200.00
00334              10.00    11000.00
00335               9.20    10800.00
00336               9.20    10800.00
00337               8.80    10600.00
00338               8.40    10600.00
00339               8.40    10400.00
00340               8.40    10400.00
00341               7.60    10400.00
00342               7.20    10000.00
00343               7.60    10000.00
00344               7.60     9800.00
00345               6.40     9600.00
00346               7.20     9600.00
00347               6.80     9200.00
00348               5.20     9200.00
00349               6.00     8800.00
00350               6.80     9000.00
00351               5.20     8800.00
00352               5.60     8600.00
00353               5.60     8600.00
00354               5.60     8400.00
00355               5.20     8000.00
00356               5.20     8000.00
00357               5.20     7800.00
00358               4.40     7600.00
00359               4.00     7400.00
00360               4.80     7600.00
00361               4.00     7200.00
00362               3.60     7000.00
00363               4.00     6800.00
00364               4.00     6400.00
00365               3.60     6400.00
00366               3.60     6200.00
00367               3.60     6000.00
00368               3.60     6000.00
00369               2.40     5600.00
00370               2.80     5400.00
00371               2.80     5200.00
00372               2.80     5200.00
00373               2.00     4800.00
00374               2.40     4600.00
00375               2.40     4400.00
00376               2.00     4400.00
00377               2.00     4000.00
00378               2.00     4000.00
00379               1.20     3800.00
00380               1.20     3600.00
00381               1.20     3200.00
00382               0.80     3000.00
00383               1.20     2800.00
00384               0.80     2800.00
00385               0.80     2400.00
00386               0.80     2200.00
00387               0.80     2200.00
00388               0.80     2000.00
00389               0.40     1600.00
00390               0.40     1400.00
00391               0.40     1400.00
00392              -0.40     1000.00
00393               0.40      800.00
00394              -0.40      600.00
00395              -0.40      400.00
00396              -0.40      200.00
00397              -0.40        0.00
00398              -0.80     -200.00
00399               0.40     -400.00
00400               1.20     -600.00
00401              -1.20     -800.00
00402              -1.20    -1000.00
00403               0.40    -1200.00
00404              -0.80    -1400.00
00405              -1.20    -1600.00
00406               3.60    -1800.00
00407              29.60    -2000.00
00408             -13.60    -2600.00
00409             -47.60    -2800.00
00410              -2.80    -2800.00
00411               5.60    -2600.00
00412              50.00    -3200.00
00413             -28.80    -3600.00
00414             -50.00    -3200.00
00415              50.00    -3600.00
00416              45.60    -4000.00
00417             -50.00    -4000.00
00418              50.00    -4400.00
00419              50.00    -4600.00
00420             -50.00    -4400.00
00421              50.00    -5000.00
00422              50.00    -5000.00
00423             -50.00    -5200.00
00424               5.20    -5600.00
00425               0.80    -5600.00
00426              22.00    -6000.00
00427             -19.60    -6000.00
00428             -50.00    -6000.00
00429              50.00    -6600.00
00430             -14.00    -6400.00
00431             -50.00    -6800.00
00432              34.80    -7200.00
00433               9.20    -7200.00
00434             -24.40    -7400.00
00435             -26.40    -7400.00
00436              31.60    -7600.00
00437               2.00    -8000.00
00438             -50.00    -8000.00
00439              26.80    -8400.00
00440               5.20    -8200.00
00441             -34.00    -8600.00
00442              -1.20    -8800.00
00443              14.00    -8600.00
00444             -15.60    -9000.00
00445             -24.40    -9000.00
00446              20.00    -9400.00
00447             -13.60    -9200.00
00448             -23.20    -9600.00
00449               7.20    -9800.00
00450              -7.60    -9800.00
00451             -12.40   -10000.00
00452              -8.80   -10000.00
00453               0.00   -10400.00
00454             -13.20   -10400.00
00455             -15.20   -10400.00
00456               0.80   -10800.00
00457             -12.40   -10800.00
00458             -16.80   -10800.00
00459              -2.80   -10800.00
00460              -6.00   -11000.00
00461             -19.60   -11000.00
00462              -9.20   -11200.00
00463              -4.00   -11400.00
00464             -18.80   -11400.00
00465             -15.20   -11600.00
00466              -3.60   -11600.00
00467             -14.40   -11800.00
00468             -20.40   -11800.00
00469              -7.60   -12000.00
00470             -12.40   -12000.00
00471             -21.20   -12200.00
00472             -14.00   -12200.00
00473             -10.40   -12200.00
00474             -18.40   -12400.00
00475             -19.60   -12400.00
00476             -13.20   -12400.00
00477             -18.00   -12400.00
00478             -22.00   -12400.00
00479             -18.40   -12800.00
00480             -15.60   -12600.00
00481             -21.60   -12400.00
00482             -22.40   -12800.00
00483             -18.00   -12800.00
00484             -22.00   -12800.00
00485             -24.80   -13000.00
00486             -21.60   -12800.00
00487             -21.20   -12800.00
00488             -24.80   -12800.00
00489             -25.20   -12800.00
00490             -23.60   -13000.00
00491             -25.20   -13000.00
00492             -26.80   -12800.00
00493             -24.80   -12800.00
00494             -24.80   -12800.00
00495             -26.40   -12800.00
00496             -26.40   -12800.00
00497             -24.80   -12800.00
00498             -24.40   -12800.00
00499             -24.40   -12600.00
00500             -22.80   -12600.00
00501             -21.20   -12600.00
00502             -20.40   -12600.00
00503             -21.20   -12800.00
00504             -19.60   -12600.00
00505             -18.80   -12400.00
00506             -18.40   -12400.00
00507             -18.40   -12400.00
00508             -16.80   -12400.00
00509             -16.80   -12400.00
00510             -16.40   -12400.00
00511             -16.00   -12200.00
00512             -15.20   -12200.00
00513             -14.00   -12200.00
00514             -14.80   -12200.00
00515             -14.40   -12000.00
00516             -12.40   -12000.00
00517             -13.60   -11600.00
00518             -14.00   -11600.00
00519             -11.60   -11600.00
00520             -10.80   -11400.00
00521             -13.20   -11400.00
00522             -11.60   -11200.00
00523             -10.00   -11000.00
00524             -12.00   -11200.00
00525             -11.60   -11000.00
00526              -8.80   -10800.00
00527             -10.00   -10800.00
00528             -10.40   -10600.00
00529              -8.80   -10400.00
00530              -8.40   -10200.00
00531             -10.00   -10400.00
00532              -8.80   -10000.00
00533              -7.60    -9800.00
00534              -8.40    -9800.00
00535              -8.40    -9600.00
00536              -7.60    -9600.00
00537              -7.20    -9400.00
00538              -7.60    -9200.00
00539              -7.20    -9200.00
00540              -5.60    -9000.00
00541              -6.80    -8800.00
00542              -7.20    -8800.00
00543              -5.60    -8400.00
00544              -5.60    -8400.00
00545              -6.80    -8200.00
00546              -5.60    -8200.00
00547              -4.40    -8000.00
00548              -5.60    -7800.00
00549              -6.00    -7600.00
00550              -4.40    -7400.00
00551              -5.20    -7400.00
00552              -4.80    -7200.00
00553              -3.60    -6800.00
00554              -4.00    -6800.00
00555              -4.00    -6600.00
00556              -4.00    -6400.00
00557              -4.40    -6400.00
00558              -4.40    -6000.00
00559              -3.60    -5800.00
00560              -3.60    -5600.00
00561              -3.60    -5600.00
00562              -2.80    -5000.00
00563              -2.40    -5000.00
00564              -4.00    -4600.00
00565              -2.80    -4600.00
00566              -2.00    -4400.00
00567              -3.60    -4200.00
00568              -2.00    -4000.00
00569              -2.40    -3800.00
00570              -2.40    -3600.00
00571              -2.00    -3400.00
00572              -2.40    -3200.00
00573              -1.20    -3000.00
00574              -1.20    -2800.00
00575              -2.80    -2600.00
00576              -1.20    -2400.00
00577              -1.20    -2200.00
00578              -2.40    -2000.00
00579              -2.00    -1800.00
00580              -0.40    -1600.00
00581              -1.20    -1600.00
00582              -2.40    -1400.00
00583              -0.40    -1000.00
00584              -0.80     -800.00
00585              -1.20     -600.00
00586              -1.20     -400.00
00587               0.40     -200.00
00588               0.40        0.00
00589              -1.20        0.00
00590               1.20      400.00
00591               2.00      600.00
00592              -2.00      800.00
00593               0.00     1000.00
00594               2.40     1200.00
00595              -0.80     1400.00
00596               0.40     1800.00
00597               5.20     1800.00
00598              18.00     2200.00
00599               6.00     2400.00
00600             -34.00     2800.00
00601             -10.80     2800.00
00602               5.60     2800.00
00603              12.40     3200.00
00604              42.40     3400.00
00605             -50.00     3200.00
00606             -12.00     3800.00
00607              50.00     4000.00
00608             -50.00     4000.00
00609             -50.00     4400.00
00610              50.00     4400.00
00611             -15.60     4600.00
00612             -50.00     5200.00
00613              50.00     5000.00
00614               7.60     5400.00
00615             -31.20     5600.00
00616               7.60     5600.00
00617              24.40     5800.00
00618               3.60     6200.00
00619             -34.40     6200.00
00620              24.40     6600.00
00621              34.80     6800.00
00622             -31.60     6800.00
00623              -6.00     7000.00
00624              30.80     7000.00
00625               7.60     7200.00
00626             -21.20     7600.00
00627               8.80     7600.00
00628              32.40     8200.00
00629             -15.60     8200.00
00630              -5.60     8200.00
00631              30.80     8400.00
00632              -3.60     8600.00
00633             -13.60     8800.00
00634              25.20     8800.00
00635              13.60     9200.00
00636             -15.60     9200.00
00637              15.20     9400.00
00638              19.60     9400.00
00639              -7.60     9600.00
00640               4.80    10000.00
00641              16.80    10000.00
00642               5.20    10000.00
00643               2.80    10000.00
00644              11.60    10400.00
00645              10.40    10200.00
00646               3.60    10400.00
00647               8.40    10800.00
00648              13.60    10800.00
00649               6.80    10800.00
00650               6.00    10800.00
00651              15.20    11000.00
00652              10.40    11200.00
00653               4.00    11200.00
00654              14.00    11600.00
00655              14.80    11600.00
00656               6.00    11600.00
00657              13.20    11600.00
00658              16.80    11800.00
00659               8.80    11800.00
00660              11.60    12000.00
00661              18.00    12000.00
00662              12.40    12000.00
00663              12.00    12200.00
00664              18.00    12200.00
00665              17.20    12400.00
00666              14.00    12400.00
00667              16.80    12400.00
00668              19.20    12600.00
00669              16.80    12400.00
00670              17.20    12400.00
00671              20.40    12600.00
00672              20.40    12600.00
00673              18.40    12600.00
00674              21.20    12800.00
00675              22.00    12800.00
00676              21.20    12800.00
00677              21.60    12800.00
00678              24.80    12800.00
00679              24.40    12800.00
00680              23.20    12800.00
00681              26.00    12800.00
00682              25.20    12800.00
00683              24.00    12800.00
00684              26.00    12800.00
00685              26.40    12800.00
00686              24.40    12800.00
00687              25.20    12800.00
00688              24.80    12800.00
00689              23.60    12800.00
00690              22.40    12800.00
00691              22.00    12800.00
00692              21.20    12600.00
00693              20.40    12600.00
00694              20.00    12800.00
00695              18.80    12600.00
00696              18.40    12600.00
00697              18.00    12600.00
00698              16.80    12400.00
00699              17.20    12400.00
00700              16.00    12400.00
00701              15.20    12400.00
00702              14.80    12400.00
00703              13.60    12200.00
00704              14.80    12000.00
00705              13.60    12000.00
00706              11.60    12000.00
00707              14.00    12000.00
00708              12.00    11800.00
00709              10.80    11800.00
00710              12.80    11600.00
00711              11.60    11600.00
00712               8.80    11400.00
00713              11.60    11200.00
00714              10.80    11200.00
00715               8.80    11000.00
00716               9.20    11000.00
00717              10.00    10800.00
00718               8.80    10800.00
00719               8.40    10600.00
00720               8.40    10400.00
00721               8.80    10400.00
00722               8.00    10400.00
00723               7.20    10200.00
00724               7.60    10000.00
00725               7.60     9800.00
00726               6.80     9800.00
00727               6.80     9600.00
00728               6.80     9400.00
00729               6.00     9200.00
00730               6.00     9200.00
00731               6.80     9000.00
00732               5.20     8800.00
00733               5.20     8800.00
00734               6.00     8600.00
00735               5.20     8400.00
00736               4.40     8200.00
00737               5.20     8200.00
00738               5.20     8000.00
00739               4.40     7800.00
00740               4.40     7600.00
00741               4.40     7200.00
00742               4.40     7200.00
00743               3.60     7000.00
00744               4.00     6800.00
00745               4.00     6800.00
00746               3.60     6600.00
00747               3.60     6400.00
00748               3.20     6200.00
00749               3.60     6000.00
00750               2.80     5600.00
00751               2.80     5600.00
00752               2.80     5400.00
00753               2.40     5200.00
00754               2.80     5000.00
00755               2.40     4600.00
00756               2.00     4400.00
00757               2.00     4400.00
00758               2.40     4000.00
00759               2.40     4000.00
00760               2.40     3800.00
00761               1.60     3600.00
00762               2.00     3400.00
00763               1.20     3000.00
00764               1.20     3000.00
00765               1.20     2800.00
00766               1.20     2600.00
00767               0.80     2400.00
00768               0.80     2000.00
00769               0.80     2000.00
00770               0.40     1800.00
00771               0.80     1400.00
00772               0.40     1400.00
00773               0.40     1200.00
00774               0.40     1000.00
00775               0.00      800.00
00776              -0.40      600.00
00777              -0.40      200.00
00778              -0.80        0.00
00779               0.00        0.00
00780               0.40     -200.00
00781               1.20     -400.00
00782               0.40     -800.00
00783              -2.00    -1000.00
00784              -0.80    -1200.00
00785               0.40    -1200.00
00786              -2.00    -1600.00
00787               0.00    -1600.00
00788              18.40    -2000.00
00789              13.20    -2400.00
00790             -46.00    -2600.00
00791             -18.80    -2800.00
00792               2.40    -2600.00
00793              43.60    -2800.00
00794              35.60    -3600.00
00795             -50.00    -3200.00
00796              41.20    -3400.00
00797              50.00    -4200.00
00798             -50.00    -4000.00
00799             -38.00    -4200.00
00800              50.00    -4800.00
00801             -50.00    -4400.00
00802             -50.00    -4600.00
00803              50.00    -5000.00
00804             -45.60    -5000.00
00805             -34.00    -5600.00
00806              13.60    -5400.00
00807               6.00    -5800.00
00808              18.40    -6000.00
00809             -50.00    -6000.00
00810              31.20    -6400.00
00811              45.20    -6600.00
00812             -50.00    -6600.00
00813               7.20    -7200.00
00814              29.20    -7000.00
00815             -15.20    -7200.00
00816             -31.20    -7400.00
00817               6.40    -7400.00
00818              33.60    -8000.00
00819             -48.80    -7800.00
00820              -5.60    -8200.00
00821              30.00    -8400.00
00822             -30.00    -8200.00
00823             -17.20    -8800.00
00824              14.00    -8800.00
00825               2.00    -9000.00
00826             -32.40    -9000.00
00827               6.00    -9200.00
00828               8.40    -9400.00
00829             -31.20    -9400.00
00830               0.80    -9600.00
00831              -0.40    -9800.00
00832             -13.20    -9800.00
00833             -10.40   -10000.00
00834              -4.00   -10000.00
00835              -5.20   -10400.00
00836             -18.00   -10400.00
00837              -4.00   -10600.00
00838              -5.20   -10600.00
00839             -16.80   -10800.00
00840              -9.20   -10800.00
00841              -2.80   -10800.00
00842             -14.80   -11000.00
00843             -16.00   -11200.00
00844              -4.00   -11400.00
00845             -12.00   -11400.00
00846             -18.80   -11400.00
00847              -7.60   -11600.00
00848              -7.60   -11800.00
00849             -20.40   -11800.00
00850             -13.20   -12000.00
00851              -7.60   -12200.00
00852             -18.80   -12000.00
00853             -18.80   -12200.00
00854             -10.40   -12200.00
00855             -14.00   -12200.00
00856             -21.60   -12400.00
00857             -15.60   -12400.00
00858             -14.00   -12400.00
00859             -21.20   -12600.00
00860             -20.40   -12400.00
00861             -15.60   -12400.00
00862             -18.40   -12800.00
00863             -24.00   -12800.00
00864             -19.60   -12800.00
00865             -19.20   -12800.00
00866             -24.80   -12800.00
00867             -23.60   -12800.00
00868             -20.40   -12800.00
00869             -23.60   -12800.00
00870             -26.80   -12800.00
00871             -23.60   -12800.00
00872             -24.00   -12800.00
00873             -27.60   -12800.00
00874             -26.00   -12800.00
00875             -24.80   -12800.00
00876             -26.00   -12800.00
00877             -26.80   -12800.00
00878             -25.20   -12800.00
00879             -24.40   -12800.00
00880             -24.40   -12800.00
00881             -23.60   -12800.00
00882             -21.60   -12800.00
00883             -21.20   -12400.00
00884             -21.20   -12600.00
00885             -20.40   -12400.00
00886             -18.80   -12800.00
00887             -18.80   -12600.00
00888             -18.40   -12400.00
00889             -16.80   -12400.00
00890             -16.80   -12400.00
00891             -16.80   -12400.00
00892             -15.60   -12400.00
00893             -14.80   -12200.00
00894             -14.40   -12200.00
00895             -15.20   -12000.00
00896             -13.20   -12000.00
00897             -13.20   -12000.00
00898             -14.00   -12000.00
00899             -13.60   -11800.00
00900             -12.00   -11600.00
00901             -12.00   -11400.00
00902             -12.80   -11600.00
00903             -10.80   -11200.00
00904             -10.40   -11400.00
00905             -12.40   -11200.00
00906             -10.40   -11000.00
00907             -10.00   -10800.00
00908             -10.40   -10600.00
00909             -10.00   -10600.00
00910              -9.20   -10600.00
00911              -9.20   -10400.00
00912              -9.20   -10400.00
00913              -8.80   -10000.00
00914              -8.40   -10000.00
00915              -8.00   -10000.00
00916              -7.60    -9800.00
00917              -8.00    -9800.00
00918              -7.60    -9600.00
00919              -8.00    -9400.00
00920              -6.80    -9200.00
00921              -6.80    -9200.00
00922              -7.20    -9000.00
00923              -6.00    -9000.00
00924              -6.00    -8800.00
00925              -6.00    -8600.00
00926              -5.60    -8400.00
00927              -6.00    -8200.00
00928              -4.80    -8000.00
00929              -4.40    -8000.00
00930              -6.00    -7600.00
00931              -5.20    -7600.00
00932              -4.40    -7400.00
00933              -5.60    -7200.00
00934              -4.40    -7000.00
00935              -3.60    -6800.00
00936              -4.40    -6600.00
00937              -4.00    -6400.00
00938              -2.80    -6400.00
00939              -4.00    -6000.00
00940              -3.60    -5800.00
00941              -4.00    -5600.00
00942              -3.20    -5600.00
00943              -2.80    -5600.00
00944              -3.20    -5000.00
00945              -3.60    -5000.00
00946              -2.40    -4600.00
00947              -2.80    -4400.00
00948              -2.80    -4200.00
00949              -1.60    -4000.00
00950              -2.40    -4000.00
00951              -2.40    -4000.00
00952              -2.40    -3400.00
00953              -2.40    -3200.00
00954              -2.00    -3200.00
00955              -1.20    -2800.00
00956              -1.60    -2800.00
00957              -2.00    -2600.00
00958              -1.20    -2400.00
00959              -2.00    -2000.00
00960              -1.20    -1800.00
00961              -0.80    -1800.00
00962              -0.80    -1600.00
00963              -0.80    -1200.00
00964              -1.20    -1200.00
00965              -1.20    -1000.00
00966              -0.80     -800.00
00967              -1.20     -400.00
00968              -0.40     -200.00
00969              -0.40        0.00
00970              -0.40      200.00
00971               0.80      400.00
00972               2.00      400.00
00973              -1.20      800.00
00974              -0.40      800.00
00975               1.20     1200.00
00976               0.40     1200.00
00977              -0.40     1600.00
00978               2.80     1800.00
00979              11.60     2200.00
00980              18.40     2400.00
00981             -22.40     2400.00
00982             -28.00     2800.00
00983               6.00     2800.00
00984               2.40     2800.00
00985              44.80     3400.00
00986             -12.00     3200.00
00987             -50.00     3600.00
00988              50.00     3800.00
00989              38.80     3800.00
00990             -50.00     4000.00
00991              50.00     4400.00
00992              50.00     4600.00
00993             -50.00     4800.00
00994              25.20     5200.00
00995              47.20     5200.00
00996             -34.00     5600.00
00997              -8.40     5600.00
00998              18.80     5600.00
00999              18.40     6000.00
01000             -26.40     6200.00
01001              -4.40     6400.00
01002              47.60     6600.00
01003             -10.40     6800.00
01004             -24.80     7000.00
01005              23.20     7000.00
01006              21.60     7400.00
01007             -15.20     7400.00
01008              -9.60     7600.00
01009              32.40     7800.00
01010               4.40     8200.00
01011             -21.20     8200.00
01012              23.60     8400.00
01013              15.20     8600.00
01014             -18.40     8600.00
01015              11.60     8800.00
01016              26.40     9000.00
01017             -10.40     9200.00
01018              -1.20     9200.00
01019              26.00     9400.00
01020               0.40     9600.00
01021              -4.00     9600.00
01022              15.60    10000.00
01023              10.80    10000.00
01024               2.00    10000.00
01025               7.60    10200.00
01026              13.60    10400.00
01027               5.60    10400.00
01028               4.80    10600.00
01029              13.20    10800.00
01030              10.40    10800.00
01031               3.60    10800.00
01032              12.00    11200.00
01033              14.80    11200.00
01034               4.40    11200.00
01035              10.00    11400.00
01036              16.80    11600.00
01037               8.40    11600.00
01038               7.60    11400.00
01039              18.00    11800.00
01040              12.80    11600.00
01041               7.20    11800.00
01042              17.20    12000.00
01043              16.40    12000.00
01044               8.80    12000.00
01045              15.20    12000.00
01046              20.00    12200.00
01047              13.20    12400.00
01048              14.80    12400.00
01049              20.00    12600.00
01050              17.60    12600.00
01051              15.20    12600.00
01052              20.00    12600.00
01053              21.60    12400.00
01054              18.00    12800.00
01055              20.00    12600.00
01056              23.20    12800.00
01057              21.20    12800.00
01058              20.80    12800.00
01059              24.40    12800.00
01060              24.80    13000.00
01061              22.80    12800.00
01062              24.40    12800.00
01063              26.00    12800.00
01064              24.40    12800.00
01065              24.80    12800.00
01066              26.40    12800.00
01067              26.00    12800.00
01068              24.40    12800.00
01069              24.40    12800.00
01070              24.40    12800.00
01071              22.80    12800.00
01072              21.60    12800.00
01073              22.00    12800.00
01074              20.80    12600.00
01075              19.60    12600.00
01076              19.60    12600.00
01077              18.80    12600.00
01078              17.20    12600.00
01079              17.20    12400.00
01080              17.20    12400.00
01081              16.40    12400.00
01082              15.20    12400.00
01083              15.20    12200.00
01084              15.20    12200.00
01085              14.00    12000.00
01086              14.00    12000.00
01087              13.60    12000.00
01088              12.80    12000.00
01089              12.40    11800.00
01090              12.00    11800.00
01091              11.60    11600.00
01092              11.60    11400.00
01093              11.60    11200.00
01094              10.40    11400.00
01095              10.40    11200.00
01096              10.40    11000.00
01097              10.00    10800.00
01098               8.80    10800.00
01099               9.20    10800.00
01100               9.20    10600.00
01101               8.40    10400.00
01102               8.40    10400.00
01103               8.40    10200.00
01104               7.60    10200.00
01105               7.20    10000.00
01106               7.60    10000.00
01107               7.20     9800.00
01108               6.80     9600.00
01109               6.80     9400.00
01110               6.40     9200.00
01111               5.60     9200.00
01112               6.00     9200.00
01113               6.40     9000.00
01114               5.60     8800.00
01115               5.20     8600.00
01116               5.20     8400.00
01117               5.20     8400.00
01118               4.40     8000.00
01119               5.20     8000.00
01120               4.40     7800.00
01121               4.40     7600.00
01122               4.40     7600.00
01123               4.00     7400.00
01124               4.00     7200.00
01125               4.00     7000.00
01126               4.00     6800.00
01127               3.60     6600.00
01128               4.00     6400.00
01129               3.60     6200.00
01130               3.20     6200.00
01131               3.20     5800.00
01132               3.20     5600.00
01133               2.00     5400.00
01134               2.80     5200.00
01135               2.80     5000.00
01136               2.00     4800.00
01137               3.20     4600.00
01138               2.40     4600.00
01139               1.20     4000.00
01140               2.40     4000.00
01141               2.40     3800.00
01142               0.80     3600.00
01143               1.60     3600.00
01144               2.00     3200.00
01145               0.80     3200.00
01146               1.20     3000.00
01147               1.60     2800.00
01148               1.20     2400.00
01149               0.40     2400.00
01150               1.20     2000.00
01151               0.80     2000.00
01152               0.80     1600.00
01153               0.40     1400.00
01154               0.80     1200.00
01155               0.80      800.00
01156               0.40      800.00
01157               0.40      600.00
01158               0.40      200.00
01159              -0.40      200.00
01160              -0.40        0.00
01161               0.00     -400.00
01162               0.80     -400.00
01163               0.80     -800.00
01164              -2.40     -800.00
01165              -1.20    -1200.00
01166               0.40    -1200.00
01167              -1.20    -1400.00
01168              -0.80    -1600.00
01169               7.20    -1800.00
01170              29.60    -2400.00
01171             -26.00    -2400.00
01172             -40.40    -2800.00
01173               0.40    -2800.00
01174              15.20    -2600.00
01175              50.00    -3200.00
01176             -50.00    -3400.00
01177             -50.00    -3200.00
01178              50.00    -4000.00
01179             -27.60    -4000.00
01180             -50.00    -4000.00
01181              50.00    -4400.00
01182              36.00    -4400.00
01183             -50.00    -4400.00
01184              50.00    -5000.00
01185              34.40    -5000.00
01186             -50.00    -5200.00
01187              15.20    -5600.00
01188              -2.00    -5600.00
01189              27.60    -6000.00
01190             -42.00    -6000.00
01191             -28.00    -6400.00
01192              50.00    -6600.00
01193             -43.60    -6400.00
01194             -38.40    -6800.00
01195              39.20    -7200.00
01196              -0.80    -7000.00
01197             -28.00    -7600.00
01198             -18.40    -7400.00
01199              38.80    -7800.00
01200             -18.00    -8000.00
01201             -40.00    -8000.00
01202              34.80    -8400.00
01203              -9.20    -8200.00
01204             -30.00    -8800.00
01205               5.60    -8800.00
01206              11.60    -8800.00
01207             -23.60    -9000.00
01208             -14.80    -9000.00
01209              20.40    -9400.00
01210             -23.20    -9200.00
01211             -14.80    -9600.00
01212               6.40    -9800.00
01213             -10.80    -9800.00
01214             -11.60   -10000.00
01215              -7.20   -10200.00
01216              -1.20   -10200.00
01217             -15.20   -10400.00
01218             -10.80   -10600.00
01219              -0.80   -10800.00
01220             -14.00   -10800.00
01221             -13.60   -10800.00
01222              -2.80   -10800.00
01223              -8.80   -11000.00
01224             -18.40   -11200.00
01225              -7.20   -11200.00
01226              -6.80   -11400.00
01227             -18.80   -11400.00
01228             -13.20   -11600.00
01229              -4.40   -11600.00
01230             -16.80   -11800.00
01231             -18.40   -11800.00
01232              -6.80   -12000.00
01233             -14.40   -12000.00
01234             -20.40   -12000.00
01235             -12.40   -12200.00
01236             -11.20   -12200.00
01237             -20.00   -12400.00
01238             -18.80   -12400.00
01239             -13.60   -12400.00
01240             -18.80   -12400.00
01241             -21.60   -12600.00
01242             -17.20   -12400.00
01243             -16.40   -12800.00
01244             -22.80   -12800.00
01245             -22.00   -12800.00
01246             -18.00   -12800.00
01247             -23.20   -12600.00
01248             -25.20   -12800.00
01249             -21.60   -12800.00
01250             -21.60   -12800.00
01251             -26.00   -12800.00
01252             -25.20   -13000.00
01253             -23.20   -13000.00
01254             -26.40   -12800.00
01255             -26.80   -12800.00
01256             -24.80   -12800.00
01257             -25.20   -12800.00
01258             -26.80   -13000.00
01259             -26.40   -12800.00
01260             -24.80   -12800.00
01261             -24.40   -12800.00
01262             -24.40   -12800.00
01263             -22.00   -12800.00
01264             -21.20   -12800.00
01265             -20.80   -12800.00
01266             -20.80   -12600.00
01267             -19.60   -12600.00
01268             -18.40   -12600.00
01269             -18.80   -12400.00
01270             -18.00   -12400.00
01271             -15.60   -12400.00
01272             -16.80   -12400.00
01273             -16.80   -12400.00
01274             -15.20   -12200.00
01275             -14.00   -12200.00
01276             -15.20   -12200.00
01277             -14.80   -12000.00
01278             -12.40   -12000.00
01279             -12.80   -12000.00
01280             -14.00   -11600.00
01281             -12.40   -11600.00
01282             -11.60   -11600.00
01283             -12.00   -11600.00
01284             -12.00   -11000.00
01285             -10.40   -11400.00
01286             -10.80   -11200.00
01287             -11.20   -11000.00
01288             -10.40   -11000.00
01289              -9.60   -10800.00
01290             -10.00   -10800.00
01291             -10.00   -10600.00
01292              -8.80   -10400.00
01293              -8.80   -10400.00
01294             -10.00   -10200.00
01295              -8.80   -10000.00
01296              -6.80   -10000.00
01297              -8.40    -9800.00
01298              -8.80    -9800.00
01299              -6.80    -9600.00
01300              -7.20    -9600.00
01301              -8.40    -9200.00
01302              -6.40    -9200.00
01303              -6.40    -9000.00
01304              -6.80    -9000.00
01305              -6.80    -8800.00
01306              -6.00    -8600.00
01307              -5.60    -8400.00
01308              -6.00    -8400.00
01309              -5.60    -8200.00
01310              -4.40    -8000.00
01311              -6.00    -7600.00
01312              -5.20    -7600.00
01313              -5.20    -7600.00
01314              -5.20    -7200.00
01315              -4.40    -7000.00
01316              -4.00    -7000.00
01317              -4.40    -6600.00
01318              -3.60    -6600.00
01319              -4.40    -6400.00
01320              -4.40    -6200.00
01321              -2.80    -5800.00
01322              -4.00    -5800.00
01323              -4.00    -5600.00
01324              -2.80    -5600.00
01325              -2.80    -5200.00
01326              -3.60    -5000.00
01327              -2.80    -4800.00
01328              -2.40    -4600.00
01329              -2.80    -4400.00
01330              -2.80    -4200.00
01331              -2.00    -4000.00
01332              -2.40    -3800.00
01333              -2.40    -3600.00
01334              -2.00    -3400.00
01335              -2.00    -3200.00
01336              -2.00    -2800.00
01337              -2.00    -2800.00
01338              -1.20    -2600.00
01339              -1.60    -2400.00
01340              -2.00    -2200.00
01341              -1.20    -2000.00
01342              -1.20    -1800.00
01343              -1.20    -1600.00
01344              -0.80    -1400.00
01345              -0.80    -1200.00
01346              -0.80    -1000.00
01347              -0.80     -800.00
01348              -1.20     -600.00
01349              -0.80     -200.00
01350               0.40     -200.00
01351              -0.40        0.00
01352               0.40      200.00
01353               2.00      600.00
01354               0.80      600.00
01355              -1.20      800.00
01356               0.80     1000.00
01357               1.60     1200.00
01358              -0.40     1400.00
01359               0.80     1800.00
01360               7.20     2000.00
01361              19.60     2200.00
01362              -3.60     2400.00
01363             -35.20     2800.00
01364              -2.80     2800.00
01365               4.00     2800.00
01366              22.80     3200.00
01367              29.60     3200.00
01368             -50.00     3200.00
01369              29.20     3800.00
01370              50.00     3800.00
01371             -50.00     4000.00
01372             -30.00     4400.00
01373              50.00     4400.00
01374             -50.00     4600.00
01375             -38.80     5200.00
01376              50.00     5200.00
01377             -11.60     5400.00
01378             -24.80     5600.00
01379              12.80     5600.00
01380              25.60     5800.00
01381              -6.00     6000.00
01382             -29.60     6400.00
01383              37.20     6600.00
01384              20.80     6800.00
01385             -34.80     7000.00
01386               4.80     7000.00
01387              29.20     7200.00
01388              -0.80     7400.00
01389             -20.00     7600.00
01390              18.40     7800.00
01391              26.40     8000.00
01392             -21.60     8200.00
01393               4.00     8200.00
01394              28.40     8400.00
01395             -10.00     8600.00
01396              -6.00     8800.00
01397              28.00     9000.00
01398               4.40     9200.00
01399             -14.00     9200.00
01400              21.20     9400.00
01401              14.00     9400.00
01402              -9.20     9600.00
01403               9.20     9800.00
01404              17.20    10000.00
01405               2.80    10000.00
01406               3.60    10200.00
01407              13.60    10200.00
01408               8.80    10400.00
01409               2.80    10600.00
01410              10.80    10800.00
01411              13.60    11000.00
01412               5.20    10800.00
01413               8.40    11000.00
01414              16.80    11200.00
01415               8.40    11200.00
01416               5.20    11200.00
01417              16.40    11400.00
01418              13.20    11600.00
01419               5.60    11600.00
01420              14.80    11600.00
01421              16.40    11800.00
01422               7.60    11800.00
01423              13.20    12000.00
01424              18.00    12000.00
01425              11.60    12200.00
01426              12.40    12000.00
01427              18.80    12200.00
01428              15.60    12400.00
01429              13.60    12400.00
01430              18.00    12400.00
01431              18.40    12600.00
01432              16.40    12600.00
01433              17.60    12600.00
01434              21.20    12600.00
01435              20.80    12600.00
01436              18.40    12800.00
01437              21.20    12800.00
01438              23.20    12800.00
01439              20.40    12800.00
01440              22.00    12600.00
01441              24.80    12600.00
01442              23.60    12800.00
01443              23.20    12800.00
01444              25.20    12800.00
01445              25.60    12800.00
01446              24.40    12800.00
01447              25.20    12600.00
01448              26.40    12800.00
01449              25.20    12800.00
01450              24.80    12800.00
01451              24.40    12800.00
01452              23.20    12800.00
01453              22.00    12600.00
01454              21.60    12800.00
01455              21.20    12600.00
01456              20.40    12800.00
01457              19.60    12600.00
01458              18.40    12600.00
01459              18.40    12400.00
01460              17.60    12600.00
01461              16.80    12400.00
01462              16.40    12400.00
01463              16.40    12400.00
01464              15.60    12200.00
01465              14.40    12400.00
01466              14.80    12200.00
01467              14.80    12000.00
01468              13.20    12000.00
01469              12.40    12000.00
01470              14.00    11800.00
01471              12.00    11800.00
01472              11.60    11600.00
01473              12.40    11400.00
01474              11.60    11400.00
01475              10.40    11400.00
01476              10.40    11200.00
01477              10.80    11200.00
01478              10.00    11000.00
01479               9.60    11000.00
01480              10.40    10800.00
01481              10.00    10800.00
01482               8.00    10600.00
01483               8.40    10600.00
01484               8.80    10400.00
01485               7.20    10200.00
01486               7.20    10000.00
01487               8.40     9800.00
01488               7.60     9800.00
01489               5.60     9600.00
01490               6.80     9400.00
01491               7.20     9400.00
01492               6.00     9200.00
01493               5.60     9200.00
01494               6.80     9000.00
01495               6.00     8800.00
01496               5.60     8600.00
01497               4.80     8600.00
01498               5.60     8400.00
01499               5.20     8200.00
01500               4.40     8000.00
01501               4.40     8000.00
01502               5.20     7800.00
01503               3.60     7400.00
01504               4.00     7400.00
01505               4.40     7200.00
01506               4.00     7000.00
01507               3.60     6800.00
01508               4.00     6400.00
01509               4.00     6400.00
01510               2.80     6200.00
01511               2.40     6200.00
01512               3.60     6000.00
01513               2.80     5600.00
01514               2.40     5400.00
01515               3.60     5600.00
01516               3.60     5200.00
01517               2.40     5000.00
01518               2.00     4600.00
01519               2.00     4400.00
01520               2.00     4400.00
01521               2.40     4000.00
01522               2.00     4000.00
01523               2.00     3800.00
01524               2.00     3600.00
01525               0.80     3400.00
01526               1.20     3200.00
01527               2.00     3000.00
01528               0.80     2800.00
01529               0.80     2400.00
01530               1.20     2400.00
01531               0.40     2000.00
01532               0.40     2000.00
01533               0.80     1600.00
01534               0.40     1600.00
01535               0.40     1400.00
01536               0.80     1200.00
01537               0.40      800.00
01538               0.40      600.00
01539               0.00      400.00
01540               0.40      400.00
01541              -0.40        0.00
01542              -0.40     -200.00
01543               0.40     -400.00
01544               1.20     -600.00
01545              -0.80     -800.00
01546              -1.20     -800.00
01547               0.80    -1200.00
01548              -0.40    -1200.00
01549              -2.00    -1600.00
01550               1.60    -1800.00
01551              24.40    -2000.00
01552              -0.40    -2400.00
01553             -49.20    -2800.00
01554             -10.00    -2800.00
01555               0.80    -2600.00
01556              50.00    -2800.00
01557              10.40    -3600.00
01558             -50.00    -3000.00
01559              50.00    -3400.00
01560              50.00    -4000.00
01561             -50.00    -4000.00
01562              37.20    -4200.00
01563              50.00    -4600.00
01564             -50.00    -4400.00
01565              -1.20    -4800.00
01566              50.00    -5000.00
01567             -50.00    -5000.00
01568             -10.00    -5600.00
01569               6.00    -5600.00
01570              12.80    -5800.00
01571               4.40    -6000.00
01572             -50.00    -6000.00
01573              50.00    -6600.00
01574              18.80    -6400.00
01575             -50.00    -6800.00
01576              22.40    -7200.00
01577              20.40    -7200.00
01578             -20.40    -7400.00
01579             -32.00    -7400.00
01580              20.40    -7600.00
01581              20.40    -8000.00
01582             -50.00    -8000.00
01583              13.20    -8400.00
01584              18.80    -8200.00
01585             -34.80    -8400.00
01586              -8.80    -8800.00
01587              14.80    -8800.00
01588              -6.00    -9000.00
01589             -30.00    -9000.00
01590              14.80    -9400.00
01591              -1.60    -9400.00
01592             -29.20    -9600.00
01593               5.20    -9800.00
01594              -4.00    -9800.00
01595             -13.20   -10000.00
01596             -10.40   -10200.00
01597              -1.60   -10200.00
01598              -8.40   -10400.00
01599             -18.00   -10400.00
01600              -1.20   -10600.00
01601              -7.60   -10800.00
01602             -16.80   -10800.00
01603              -6.00   -10800.00
01604              -3.60   -11000.00
01605             -17.20   -11000.00
01606             -14.00   -11200.00
01607              -2.00   -11400.00
01608             -14.80   -11400.00
01609             -18.80   -11400.00
01610              -5.20   -11600.00
01611              -9.20   -11600.00
01612             -21.60   -11800.00
01613             -10.80   -12000.00
01614              -8.40   -12000.00
01615             -19.60   -12200.00
01616             -17.20   -12200.00
01617             -10.00   -12200.00
01618             -15.60   -12200.00
01619             -21.20   -12400.00
01620             -14.00   -12200.00
01621             -15.20   -12400.00
01622             -21.60   -12600.00
01623             -20.00   -12400.00
01624             -15.20   -12400.00
01625             -20.00   -12600.00
01626             -23.60   -12800.00
01627             -18.40   -12800.00
01628             -20.40   -12800.00
01629             -25.20   -12800.00
01630             -23.60   -12800.00
01631             -20.40   -12800.00
01632             -23.60   -12800.00
01633             -26.80   -13000.00
01634             -23.20   -13000.00
01635             -24.80   -13000.00
01636             -27.60   -12800.00
01637             -25.20   -12800.00
01638             -24.80   -12800.00
01639             -26.80   -12800.00
01640             -26.40   -13000.00
01641             -26.00   -12800.00
01642             -24.40   -12800.00
01643             -24.80   -12800.00
01644             -23.20   -12600.00
01645             -21.20   -12800.00
01646             -21.20   -12800.00
01647             -21.20   -12800.00
01648             -20.00   -12600.00
01649             -18.40   -12400.00
01650             -18.80   -12400.00
01651             -17.20   -12400.00
01652             -16.80   -12400.00
01653             -17.20   -12400.00
01654             -16.40   -12400.00
01655             -16.40   -12200.00
01656             -15.20   -12200.00
01657             -14.00   -12200.00
01658             -14.80   -12000.00
01659             -14.00   -12000.00
01660             -12.40   -12000.00
01661             -13.20   -11800.00
01662             -14.00   -12000.00
01663             -11.60   -11600.00
01664             -10.80   -11600.00
01665             -12.00   -11400.00
01666             -11.60   -11200.00
01667             -10.40   -11400.00
01668             -10.80   -11000.00
01669             -11.60   -11000.00
01670              -9.20   -10800.00
01671              -8.80   -10800.00
01672             -10.40   -10800.00
01673              -9.20   -10600.00
01674              -8.40   -10400.00
01675              -9.20   -10200.00
01676              -8.80   -10200.00
01677              -7.60   -10000.00
01678              -7.60    -9800.00
01679              -8.40    -9800.00
01680              -8.40    -9600.00
01681              -7.20    -9600.00
01682              -6.80    -9400.00
01683              -8.00    -9200.00
01684              -6.00    -9000.00
01685              -6.00    -9000.00
01686              -7.60    -8800.00
01687              -5.60    -8800.00
01688              -6.40    -8400.00
01689              -6.80    -8400.00
01690              -5.60    -8200.00
01691              -5.60    -8000.00
01692              -5.20    -7800.00
01693              -5.60    -7800.00
01694              -5.60    -7600.00
01695              -5.20    -7400.00
01696              -4.00    -7200.00
01697              -5.60    -6800.00
01698              -4.40    -6800.00
01699              -3.20    -6600.00
01700              -4.40    -6400.00
01701              -4.40    -6400.00
01702              -4.00    -6000.00
01703              -3.60    -5800.00
01704              -4.40    -5800.00
01705              -3.60    -5600.00
01706              -2.40    -5200.00
01707              -3.60    -5000.00
01708              -3.60    -4800.00
01709              -2.40    -4600.00
01710              -3.20    -4400.00
01711              -2.40    -4400.00
01712              -2.40    -4000.00
01713              -2.40    -4000.00
01714              -2.80    -3600.00
01715              -2.80    -3400.00
01716              -1.20    -3200.00
01717              -1.20    -3200.00
01718              -2.40    -2800.00
01719              -1.20    -2600.00
01720              -0.80    -2600.00
01721              -2.00    -2400.00
01722              -2.40    -2000.00
01723              -0.80    -2000.00
01724              -0.80    -1600.00
01725              -1.20    -1600.00
01726              -0.80    -1200.00
01727              -0.80    -1000.00
01728              -0.80     -800.00
01729              -0.80     -600.00
01730              -0.80     -400.00
01731              -0.40     -200.00
01732              -0.40        0.00
01733              -0.40      200.00
01734               1.20      400.00
01735               2.40      600.00
01736              -1.20      800.00
01737               0.40      800.00
01738               2.00     1200.00
01739               0.40     1200.00
01740              -0.40     1600.00
01741               4.00     1800.00
01742              14.80     2200.00
01743              13.60     2400.00
01744             -28.80     2400.00
01745             -20.00     2800.00
01746               6.00     2600.00
01747               5.20     3200.00
01748              47.60     3400.00
01749             -37.60     3200.00
01750             -50.00     3800.00
01751              50.00     3800.00
01752             -10.00     3800.00
01753             -50.00     4400.00
01754              50.00     4400.00
01755              28.40     4400.00
01756             -50.00     4800.00
01757              49.20     5200.00
01758              29.20     5200.00
01759             -36.00     5600.00
01760               0.80     5600.00
01761              21.20     5800.00
01762              12.00     6000.00
01763             -32.80     6400.00
01764               8.80     6400.00
01765              44.00     6800.00
01766             -23.20     6800.00
01767             -16.80     6800.00
01768              27.60     7200.00
01769              16.40     7200.00
01770             -20.00     7600.00
01771              -2.00     7800.00
01772              34.40     7800.00
01773              -6.00     8200.00
01774             -15.20     8400.00
01775              29.20     8400.00
01776               6.40     8600.00
01777             -18.40     8800.00
01778              18.80     8800.00
01779              20.80     9000.00
01780             -14.40     9200.00
01781               6.80     9200.00
01782              23.60     9400.00
01783              -4.00     9600.00
01784              -0.40     9600.00
01785              16.40    10000.00
01786               8.40    10000.00
01787               2.00    10200.00
01788               9.20    10200.00
01789              12.40    10400.00
01790               4.40    10400.00
01791               6.80    10600.00
01792              13.60    10800.00
01793               8.40    11000.00
01794               5.20    11000.00
01795              14.40    11000.00
01796              13.60    11200.00
01797               4.00    11200.00
01798              11.60    11600.00
01799              16.80    11400.00
01800               7.20    11600.00
01801              10.80    11600.00
01802              18.40    11800.00
01803              10.80    11800.00
01804              10.00    12000.00
01805              17.20    12000.00
01806              14.80    12000.00
01807              11.60    12200.00
01808              16.40    12200.00
01809              17.60    12200.00
01810              14.80    12400.00
01811              15.60    12400.00
01812              18.40    12600.00
01813              18.00    12600.00
01814              16.40    12400.00
01815              20.00    12600.00
01816              21.20    12600.00
01817              18.40    12800.00
01818              20.00    12600.00
01819              22.00    12800.00
01820              22.00    12800.00
01821              22.00    12800.00
01822              23.60    12800.00
01823              25.20    13000.00
01824              22.80    12800.00
01825              23.60    12800.00
01826              26.00    12800.00
01827              24.40    12800.00
01828              24.40    12800.00
01829              26.40    12800.00
01830              26.00    12800.00
01831              24.40    12800.00
01832              24.40    12800.00
01833              23.60    12800.00
01834              22.00    12800.00
01835              22.00    12800.00
01836              21.60    12800.00
01837              20.80    12800.00
01838              20.40    12600.00
01839              18.40    12800.00
01840              18.00    12600.00
01841              18.00    12600.00
01842              17.20    12400.00
01843              16.80    12600.00
01844              16.80    12400.00
01845              15.60    12400.00
01846              14.00    12200.00
01847              14.40    12400.00
01848              13.60    12000.00
01849              14.00    12000.00
01850              13.60    12000.00
01851              13.60    11800.00
01852              13.20    11800.00
01853              11.60    11600.00
01854              11.60    11600.00
01855              12.00    11600.00
01856              10.40    11400.00
01857              10.80    11200.00
01858              10.00    11200.00
01859              10.40    11200.00
01860              10.40    11000.00
01861               9.20    10800.00
01862               8.80    10800.00
01863               9.20    10800.00
01864               8.80    10600.00
01865               8.40    10400.00
01866               8.40    10400.00
01867               8.40    10200.00
01868               7.20    10000.00
01869               7.20     9800.00
01870               7.20     9600.00
01871               6.80     9600.00
01872               6.80     9400.00
01873               7.20     9200.00
01874               7.60     9200.00
01875               2.00     9200.00
01876              10.40     8800.00
01877               2.80     8600.00
01878               0.40     8600.00
01879              14.80     8400.00
01880              -1.20     8400.00
01881              11.60     8000.00
01882               5.60     7800.00
01883               3.60     7600.00
01884              -1.20     7600.00
01885               7.20     7200.00
01886               0.40     7200.00
01887              -0.40     7200.00
01888              12.00     7000.00
01889               6.00     6800.00
01890              -0.40     6400.00
01891               5.60     6400.00
01892               5.20     6200.00
01893              -4.40     6000.00
01894               3.60     5800.00
01895               2.00     5600.00
01896               2.00     5400.00
01897               7.60     5400.00
01898               2.40     5000.00
01899               1.20     4800.00
01900               3.60     4600.00
01901               0.80     4200.00
01902              -2.00     4200.00
01903               2.80     4000.00
01904               2.40     4000.00
01905               2.00     3800.00
01906               1.20     3400.00
01907               3.60     3200.00
01908               1.20     3000.00
01909              -1.20     2800.00
01910               2.40     2800.00
01911               1.20     2400.00
01912              -0.40     2200.00
01913               0.80     2000.00
01914               1.60     1800.00
01915              -0.80     1600.00
01916               0.80     1600.00
01917               2.00     1200.00
01918               0.40      800.00
01919               0.40      800.00
01920               0.40      600.00
01921              -1.20      200.00
01922               0.40        0.00
01923               0.40     -200.00
01924              -0.80     -400.00
01925               2.00     -400.00
01926               2.00     -400.00
01927              -2.00     -800.00
01928              -0.80    -1000.00
01929               0.80    -1200.00
01930              -2.00    -1600.00
01931              -1.20    -1600.00
01932              12.40    -1800.00
01933              24.80    -2400.00
01934             -37.60    -2600.00
01935             -30.00    -2800.00
01936               3.20    -2800.00
01937              28.40    -2800.00
01938              50.00    -3400.00
01939             -50.00    -3400.00
01940             -18.80    -3200.00
01941              50.00    -4000.00
01942             -50.00    -4000.00
01943             -50.00    -4000.00
01944              50.00    -4400.00
01945             -39.20    -4400.00
01946             -50.00    -4600.00
01947              50.00    -5000.00
01948              -7.20    -5000.00
01949             -50.00    -5600.00
01950              16.80    -5600.00
01951               0.00    -5600.00
01952              26.40    -6000.00
01953             -50.00    -6000.00
01954               0.80    -6400.00
01955              50.00    -6600.00
01956             -50.00    -6600.00
01957             -15.20    -6800.00
01958              36.00    -6800.00
01959              -9.20    -7200.00
01960             -29.60    -7400.00
01961              -7.60    -7400.00
01962              39.60    -8000.00
01963             -34.40    -8000.00
01964             -25.60    -8200.00
01965              35.60    -8400.00
01966             -20.40    -8400.00
01967             -25.20    -8600.00
01968              10.40    -8600.00
01969               8.80    -8800.00
01970             -30.00    -9000.00
01971              -5.60    -9200.00
01972              16.80    -9200.00
01973             -29.60    -9400.00
01974              -7.60    -9600.00
01975               4.80    -9800.00
01976             -12.00   -10000.00
01977             -11.60   -10000.00
01978              -5.60   -10200.00
01979              -2.40   -10400.00
01980             -17.60   -10400.00
01981              -7.60   -10600.00
01982              -2.40   -10800.00
01983             -15.60   -10600.00
01984             -12.00   -10800.00
01985              -2.40   -10800.00
01986             -12.00   -10800.00
01987             -18.00   -11200.00
01988              -4.40   -11400.00
01989              -8.80   -11400.00
01990             -18.80   -11400.00
01991              -9.60   -11600.00
01992              -5.60   -11800.00
01993             -18.80   -11800.00
01994             -16.40   -12000.00
01995              -6.80   -12000.00
01996             -17.20   -12200.00
01997             -19.20   -12200.00
01998             -10.80   -12200.00
01999             -12.00   -12400.00
02000             -20.40   -12400.00
02001             -16.80   -12400.00
02002             -13.60   -12400.00
02003             -20.00   -12400.00
02004             -20.80   -12400.00
02005             -16.40   -12600.00
02006             -17.20   -12800.00
02007             -23.60   -12600.00
02008             -20.80   -12800.00
02009             -18.80   -12800.00
02010             -24.00   -12800.00
02011             -24.40   -12800.00
02012             -20.80   -12800.00
02013             -22.80   -12800.00
02014             -26.40   -13000.00
02015             -24.80   -13000.00
02016             -23.20   -12800.00
02017             -26.80   -12800.00
02018             -26.80   -13000.00
02019             -24.80   -12800.00
02020             -25.20   -13000.00
02021             -26.80   -12800.00
02022             -26.00   -12800.00
02023             -24.40   -12800.00
02024             -24.40   -13000.00
02025             -24.40   -12800.00
02026             -22.00   -12800.00
02027             -21.60   -12800.00
02028             -20.80   -12800.00
02029             -21.60   -12600.00
02030             -20.00   -12800.00
02031             -17.60   -12600.00
02032             -18.80   -12400.00
02033             -17.60   -12400.00
02034             -16.00   -12400.00
02035             -16.40   -12400.00
02036             -17.20   -12400.00
02037             -15.20   -12400.00
02038             -14.40   -12200.00
02039             -15.20   -12000.00
02040             -14.00   -12000.00
02041             -12.80   -12000.00
02042             -13.60   -12000.00
02043             -14.00   -11600.00
02044             -12.00   -11600.00
02045             -10.80   -11600.00
02046             -12.40   -11400.00
02047             -12.40   -11400.00
02048             -10.80   -11000.00
02049             -10.00   -11000.00
02050             -10.40   -11000.00
02051             -10.40   -11000.00
02052              -9.60   -10800.00
02053              -9.20   -10600.00
02054              -9.60   -10600.00
02055              -9.20   -10400.00
02056              -8.00   -10400.00
02057              -8.40   -10000.00
02058              -9.20   -10000.00
02059              -7.60   -10000.00
02060              -7.60    -9800.00
02061              -8.40    -9600.00
02062              -7.60    -9600.00
02063              -6.80    -9400.00
02064              -7.60    -9200.00
02065              -6.80    -9000.00
02066              -6.80    -9000.00
02067              -6.40    -8800.00
02068              -6.00    -8800.00
02069              -5.60    -8400.00
02070              -6.80    -8400.00
02071              -6.00    -8200.00
02072              -5.20    -8200.00
02073              -4.40    -8000.00
02074              -6.80    -7800.00
02075              -5.60    -7600.00
02076              -4.40    -7400.00
02077              -5.20    -7200.00
02078              -4.40    -7000.00
02079              -3.60    -6800.00
02080              -4.80    -6600.00
02081              -5.20    -6400.00
02082              -4.00    -6400.00
02083              -4.00    -6200.00
02084              -4.00    -6000.00
02085              -3.60    -5800.00
02086              -3.60    -5600.00
02087              -2.80    -5400.00
02088              -3.20    -5000.00
02089              -4.00    -5000.00
02090              -3.60    -4600.00
02091              -3.60    -4400.00
02092              -2.80    -4400.00
02093              -2.40    -4200.00
02094              -3.60    -4000.00
02095              -2.00    -3800.00
02096              -1.60    -3600.00
02097              -3.60    -3400.00
02098              -2.40    -3200.00
02099               0.40    -3000.00
02100              -2.40    -2800.00
02101              -2.00    -2600.00
02102              -0.80    -2400.00
02103              -2.40    -2200.00
02104              -1.60    -2000.00
02105              -1.20    -1600.00
02106              -1.60    -1200.00
02107              -0.80    -1400.00
02108              -0.40    -1000.00
02109              -0.80    -1000.00
02110               0.40     -600.00
02111              -1.60     -400.00
02112              -1.20     -200.00
02113               0.80        0.00
02114               0.40        0.00
02115              -1.20      400.00
02116               2.80      600.00
02117               1.20      800.00
02118              -2.40      800.00
02119               0.80     1200.00
02120               2.80     1200.00
02121              -0.40     1600.00
02122               0.00     1800.00
02123              10.00     2000.00
02124              22.80     2200.00
02125             -15.20     2400.00
02126             -34.00     2800.00
02127               5.60     2600.00
02128               1.20     2800.00
02129              34.00     3200.00
02130              12.40     3200.00
02131             -50.00     3600.00
02132              50.00     3800.00
02133              50.00     4000.00
02134             -50.00     4000.00
02135              16.80     4400.00
02136              50.00     4400.00
02137             -50.00     4800.00
02138              -6.40     5200.00
02139              50.00     5200.00
02140             -26.80     5400.00
02141             -16.00     5600.00
02142              15.60     5600.00
02143              22.40     6000.00
02144             -15.20     6200.00
02145             -18.40     6400.00
02146              44.40     6400.00
02147               6.00     6800.00
02148             -31.20     7000.00
02149              12.40     6800.00
02150              26.40     7200.00
02151              -7.60     7400.00
02152             -17.60     7600.00
02153              26.40     8200.00
02154              16.80     8000.00
02155             -24.80     8200.00
02156              13.60     8400.00
02157              23.20     8400.00
02158             -16.00     8600.00
02159               2.40     8800.00
02160              28.80     8800.00
02161              -4.40     9200.00
02162              -8.40     9200.00
02163              23.60     9400.00
02164               5.60     9600.00
02165              -6.00     9600.00
02166              13.60    10000.00
02167              13.20    10000.00
02168               2.80    10200.00
02169               6.00    10200.00
02170              12.40    10200.00
02171               7.60    10400.00
02172               4.00    10600.00
02173              11.60    10600.00
02174              11.60    10800.00
02175               5.20    11000.00
02176              10.00    11000.00
02177              15.60    11200.00
02178               7.20    11200.00
02179               7.60    11200.00
02180              16.40    11400.00
02181              10.40    11600.00
02182               7.20    11800.00
02183              16.80    11800.00
02184              14.00    12000.00
02185               8.80    12000.00
02186              15.20    12000.00
02187              16.80    12200.00
02188              11.60    12000.00
02189              15.20    12200.00
02190              19.20    12400.00
02191              15.20    12400.00
02192              14.80    12400.00
02193              18.80    12600.00
02194              18.40    12600.00
02195              16.40    12400.00
02196              18.40    12800.00
02197              21.60    12600.00
02198              20.00    12600.00
02199              18.80    12600.00
02200              22.40    12800.00
02201              21.60    12800.00
02202              20.40    12800.00
02203              23.20    12800.00
02204              25.20    12800.00
02205              23.20    12600.00
02206              23.60    12800.00
02207              26.00    12800.00
02208              24.80    12800.00
02209              24.40    12800.00
02210              26.00    12800.00
02211              26.40    12600.00
02212              25.20    12800.00
02213              24.40    12800.00
02214              24.40    12800.00
02215              23.20    12600.00
02216              22.00    12800.00
02217              21.20    12600.00
02218              21.20    12800.00
02219              20.40    12600.00
02220              19.20    12600.00
02221              18.40    12400.00
02222              18.00    12600.00
02223              16.40    12400.00
02224              16.80    12400.00
02225              17.20    12400.00
02226              14.80    12400.00
02227              15.20    12400.00
02228              15.20    12200.00
02229              14.00    12200.00
02230              13.60    12000.00
02231              13.20    12000.00
02232              12.40    11800.00
02233              12.80    11800.00
02234              12.00    11800.00
02235              12.00    11600.00
02236              11.60    11600.00
02237              10.80    11600.00
02238              10.40    11200.00
02239              10.80    11200.00
02240              10.40    11200.00
02241              10.00    11000.00
02242              10.00    10800.00
02243               9.20    10800.00
02244               9.20    10800.00
02245               8.80    10600.00
02246               8.40    10600.00
02247               8.40    10400.00
02248               8.40    10200.00
02249               7.20    10000.00
02250               7.60    10000.00
02251               7.60     9800.00
02252               6.80     9600.00
02253               7.20     9600.00
02254               7.20     9400.00
02255               6.00     9200.00
02256               6.80     9000.00
02257               6.80     9000.00
02258               5.60     8800.00
02259               5.20     8800.00
02260               5.60     8400.00
02261               5.20     8400.00
02262               4.80     8200.00
02263               5.20     8000.00
02264               5.20     7800.00
02265               4.40     7800.00
02266               4.40     7600.00
02267               4.40     7200.00
02268               3.60     7200.00
02269               3.60     7000.00
02270               4.00     6800.00
02271               3.60     6400.00
02272               3.20     6200.00
02273               3.60     6400.00
02274               2.80     6000.00
02275               2.80     6000.00
02276               2.80     5600.00
02277               2.80     5600.00
02278               2.80     5200.00
02279               2.40     5200.00
02280               2.00     4800.00
02281               2.00     4600.00
02282               2.40     4600.00
02283               2.00     4200.00
02284               1.20     4000.00
02285               2.00     3800.00
02286               1.60     3600.00
02287               1.20     3600.00
02288               0.80     3200.00
02289               0.80     3000.00
02290               1.20     2800.00
02291               0.80     2800.00
02292               0.80     2400.00
02293               0.80     2400.00
02294               0.80     2000.00
02295               0.80     1800.00
02296               0.80     1800.00
02297               0.80     1400.00
02298               0.80     1200.00
02299               0.40     1000.00
02300               0.00      800.00
02301               0.40      600.00
02302              -0.40      400.00
02303               0.00      400.00
02304               0.40        0.00
02305              -0.40     -200.00
02306               0.80     -400.00
02307               2.00     -600.00
02308              -1.20     -800.00
02309              -1.20    -1000.00
02310               0.40    -1200.00
02311              -0.80    -1400.00
02312              -1.20    -1600.00
02313               4.00    -1800.00
02314              29.60    -2000.00
02315             -13.20    -2600.00
02316             -47.60    -2800.00
02317              -4.00    -2800.00
02318               5.60    -2600.00
02319              50.00    -3200.00
02320             -27.20    -3400.00
02321             -50.00    -3200.00
02322              50.00    -3800.00
02323              47.60    -4000.00
02324             -50.00    -3800.00
02325              50.00    -4200.00
02326              50.00    -4400.00
02327             -50.00    -4400.00
02328              50.00    -5000.00
02329              50.00    -5000.00
02330             -50.00    -5200.00
02331               5.20    -5600.00
02332              -0.40    -5600.00
02333              22.80    -6000.00
02334             -18.80    -6000.00
02335             -50.00    -6000.00
02336              50.00    -6600.00
02337             -12.80    -6600.00
02338             -50.00    -6800.00
02339              34.00    -6800.00
02340              10.40    -7200.00
02341             -24.80    -7400.00
02342             -27.60    -7400.00
02343              32.40    -7600.00
02344               2.40    -8000.00
02345             -50.00    -8000.00
02346              27.20    -8200.00
02347               5.20    -8200.00
02348             -34.40    -8800.00
02349              -1.20    -8800.00
02350              14.00    -8800.00
02351             -15.60    -9200.00
02352             -24.40    -9200.00
02353              20.00    -9600.00
02354             -14.00    -9400.00
02355             -23.20    -9600.00
02356               7.60    -9800.00
02357              -8.40    -9800.00
02358             -12.00   -10000.00
02359              -8.40   -10000.00
02360              -0.80   -10200.00
02361             -12.00   -10400.00
02362             -14.80   -10400.00
02363               0.40   -10600.00
02364             -11.60   -10800.00
02365             -16.80   -10800.00
02366              -3.60   -10800.00
02367              -5.60   -11000.00
02368             -20.00   -11000.00
02369              -8.80   -11400.00
02370              -4.00   -11400.00
02371             -18.40   -11400.00
02372             -14.80   -11600.00
02373              -3.60   -11600.00
02374             -13.60   -11600.00
02375             -20.40   -12000.00
02376              -7.20   -12000.00
02377             -12.00   -12000.00
02378             -21.20   -12200.00
02379             -14.00   -12200.00
02380              -9.20   -12200.00
02381             -18.40   -12200.00
02382             -19.60   -12400.00
02383             -13.20   -12400.00
02384             -17.20   -12400.00
02385             -22.00   -12600.00
02386             -18.00   -12600.00
02387             -15.20   -12400.00
02388             -21.60   -12800.00
02389             -23.20   -12800.00
02390             -18.00   -12800.00
02391             -21.60   -12800.00
02392             -24.80   -12800.00
02393             -22.00   -12800.00
02394             -21.20   -12800.00
02395             -24.80   -13000.00
02396             -26.40   -12800.00
02397             -23.20   -12800.00
02398             -25.60   -12800.00
02399             -27.60   -13000.00
02400             -25.20   -13000.00
02401             -25.20   -12800.00
02402             -26.40   -13000.00
02403             -26.40   -12800.00
02404             -24.80   -12800.00
02405             -24.40   -12800.00
02406             -24.80   -12800.00
02407             -22.80   -12800.00
02408             -21.60   -12800.00
02409             -20.40   -12600.00
02410             -21.20   -12800.00
02411             -20.40   -12800.00
02412             -18.40   -12600.00
02413             -18.80   -12400.00
02414             -18.80   -12400.00
02415             -16.80   -12400.00
02416             -16.40   -12400.00
02417             -17.20   -12200.00
02418             -15.60   -12200.00
02419             -14.80   -12200.00
02420             -14.80   -12200.00
02421             -15.20   -12000.00
02422             -13.60   -12000.00
02423             -13.20   -12000.00
02424             -14.00   -11800.00
02425             -12.80   -11600.00
02426             -12.00   -11400.00
02427             -12.00   -11400.00
02428             -12.00   -11400.00
02429             -10.80   -11400.00
02430             -10.80   -11000.00
02431             -11.60   -11000.00
02432             -10.40   -10800.00
02433              -9.20   -10800.00
02434              -9.20   -10600.00
02435             -10.40   -10600.00
02436              -9.20   -10400.00
02437              -8.40   -10400.00
02438              -9.20   -10200.00
02439              -8.80   -10000.00
02440              -7.20   -10000.00
02441              -7.60    -9800.00
02442              -8.80    -9800.00
02443              -7.20    -9600.00
02444              -6.80    -9600.00
02445              -7.60    -9400.00
02446              -7.20    -9200.00
02447              -5.60    -9000.00
02448              -6.80    -9000.00
02449              -7.20    -8800.00
02450              -5.60    -8600.00
02451              -5.60    -8400.00
02452              -6.00    -8200.00
02453              -5.60    -8000.00
02454              -4.40    -8000.00
02455              -5.60    -7600.00
02456              -5.60    -7600.00
02457              -4.40    -7400.00
02458              -5.60    -7400.00
02459              -4.40    -7200.00
02460              -4.00    -7000.00
02461              -4.80    -6800.00
02462              -3.60    -6600.00
02463              -4.40    -6400.00
02464              -4.40    -6400.00
02465              -4.00    -6000.00
02466              -4.40    -5800.00
02467              -2.80    -5600.00
02468              -4.00    -5600.00
02469              -2.80    -5200.00
02470              -2.40    -5000.00
02471              -4.40    -5000.00
02472              -2.80    -4400.00
02473              -2.40    -4400.00
02474              -2.40    -4200.00
02475              -2.80    -4200.00
02476              -2.00    -4000.00
02477              -2.40    -3600.00
02478              -3.60    -3400.00
02479              -1.60    -3200.00
02480              -2.00    -3000.00
02481              -2.40    -2800.00
02482              -2.00    -2800.00
02483              -1.20    -2400.00
02484              -1.20    -2200.00
02485              -2.40    -2000.00
02486              -1.20    -1800.00
02487              -0.40    -1800.00
02488              -1.20    -1400.00
02489              -2.00    -1200.00
02490              -0.80    -1000.00
02491              -0.80     -800.00
02492              -1.20     -600.00
02493              -0.80     -400.00
02494               0.00        0.00
02495              -0.40        0.00
02496              -0.40      400.00
02497               1.20      400.00
02498               2.00      800.00
02499              -0.80      800.00
02500               0.40     1200.00
02501               2.40     1200.00
02502               0.40     1400.00
02503              -0.40     1800.00
02504               5.60     2000.00
02505              18.40     2400.00
02506               6.00     2400.00
02507             -33.20     2800.00
02508             -10.40     2800.00
02509               5.20     2800.00
02510              11.60     3200.00
02511              43.20     3400.00
02512             -50.00     3400.00
02513             -14.00     3800.00
02514              50.00     4000.00
02515             -50.00     4000.00
02516             -50.00     4400.00
02517              50.00     4400.00
02518             -14.40     4600.00
02519             -50.00     5200.00
02520              50.00     5200.00
02521               8.00     5400.00
02522             -31.60     5600.00
02523               7.60     5600.00
02524              24.40     6000.00
02525               3.60     6200.00
02526             -34.40     6400.00
02527              24.00     6400.00
02528              34.40     6600.00
02529             -31.60     6800.00
02530              -6.40     7200.00
02531              30.00     7000.00
02532               8.40     7600.00
02533             -21.60     7600.00
02534               8.40     7800.00
02535              32.80     8000.00
02536             -15.60     8200.00
02537              -6.80     8400.00
02538              30.80     8400.00
02539              -3.60     8600.00
02540             -14.80     8600.00
02541              25.20     9000.00
02542              12.40     9000.00
02543             -16.40     9200.00
02544              15.60     9400.00
02545              18.80     9400.00
02546              -8.00     9600.00
02547               5.20     9600.00
02548              16.40    10000.00
02549               4.80    10000.00
02550               3.60    10200.00
02551              11.60    10200.00
02552              10.40    10400.00
02553               4.00    10400.00
02554               8.40    10600.00
02555              13.20    10800.00
02556               7.20    10800.00
02557               6.00    11000.00
02558              15.20    11000.00
02559              10.80    11200.00
02560               4.40    11200.00
02561              14.00    11400.00
02562              14.80    11600.00
02563               6.00    11600.00
02564              13.20    11800.00
02565              18.00    11800.00
02566               9.20    11800.00
02567              11.60    12000.00
02568              18.00    12000.00
02569              13.20    12200.00
02570              11.60    12000.00
02571              18.40    12400.00
02572              16.80    12400.00
02573              14.40    12400.00
02574              17.20    12600.00
02575              18.80    12600.00
02576              17.20    12600.00
02577              17.60    12600.00
02578              20.00    12600.00
02579              21.20    12800.00
02580              18.80    12800.00
02581              20.80    12800.00
02582              22.80    12800.00
02583              22.00    12800.00
02584              21.20    12800.00
02585              24.40    12800.00
02586              25.20    12800.00
02587              22.40    12800.00
02588              24.80    12800.00
02589              26.40    12800.00
02590              24.40    12800.00
02591              24.80    12800.00
02592              26.00    12800.00
02593              26.00    13000.00
02594              24.40    12800.00
02595              24.40    12800.00
02596              24.40    12800.00
02597              22.80    12800.00
02598              20.80    12800.00
02599              21.20    12800.00
02600              21.20    12600.00
02601              18.80    12600.00
02602              18.40    12600.00
02603              18.00    12600.00
02604              17.20    12600.00
02605              16.80    12400.00
02606              16.40    12400.00
02607              16.40    12400.00
02608              16.00    12400.00
02609              13.60    12200.00
02610              14.00    12200.00
02611              14.00    12000.00
02612              12.80    12000.00
02613              12.40    11800.00
02614              14.00    12000.00
02615              12.00    11800.00
02616              11.60    11600.00
02617              12.40    11600.00
02618              11.20    11600.00
02619              10.40    11200.00
02620              11.20    11400.00
02621              10.40    11200.00
02622               9.20    11200.00
02623              10.00    10800.00
02624              10.00    10800.00
02625               8.80    10800.00
02626               8.80    10600.00
02627               8.80    10800.00
02628               8.40    10400.00
02629               7.60    10200.00
02630               7.60    10200.00
02631               7.60     9800.00
02632               7.60    10000.00
02633               7.20     9600.00
02634               6.80     9600.00
02635               7.20     9400.00
02636               6.80     9400.00
02637               6.00     9200.00
02638               6.00     9000.00
02639               6.00     8800.00
02640               5.60     8800.00
02641               5.20     8600.00
02642               5.60     8600.00
02643               5.20     8200.00
02644               4.80     8200.00
02645               4.80     7800.00
02646               5.20     7800.00
02647               4.40     7600.00
02648               4.00     7400.00
02649               4.40     7200.00
02650               4.00     7000.00
02651               3.60     6800.00
02652               4.00     6800.00
02653               4.00     6400.00
02654               3.60     6400.00
02655               3.20     6200.00
02656               3.20     6000.00
02657               3.60     5800.00
02658               2.40     5600.00
02659               2.40     5400.00
02660               2.80     5200.00
02661               2.40     5000.00
02662               2.00     4800.00
02663               2.40     4600.00
02664               1.20     4400.00
02665               2.40     4000.00
02666               2.00     4000.00
02667               0.80     3600.00
02668               2.00     3800.00
02669               0.80     3400.00
02670               1.20     3200.00
02671               2.00     3200.00
02672               0.40     2800.00
02673               1.60     2600.00
02674               0.80     2400.00
02675              -0.40     2200.00
02676               1.20     2000.00
02677               0.80     1800.00
02678              -0.80     1600.00
02679               0.80     1400.00
02680               0.80     1200.00
02681              -0.80      800.00
02682               0.40      600.00
02683               0.40      600.00
02684               0.00      400.00
02685               0.00        0.00
02686               0.00        0.00
02687               0.40     -400.00
02688               2.00     -400.00
02689               0.40     -600.00
02690              -2.00     -800.00
02691              -0.40    -1000.00
02692               0.40    -1200.00
02693              -1.60    -1600.00
02694               0.40    -1600.00
02695              18.40    -2000.00
02696              14.00    -2400.00
02697             -45.20    -2600.00
02698             -19.60    -2800.00
02699               2.00    -2600.00
02700              44.00    -2800.00
02701              36.00    -3600.00
02702             -50.00    -3000.00
02703              39.60    -3400.00
02704              50.00    -4200.00
02705             -50.00    -4000.00
02706             -40.40    -4000.00
02707              50.00    -4800.00
02708             -50.00    -4400.00
02709             -50.00    -4600.00
02710              50.00    -5200.00
02711             -45.60    -5000.00
02712             -32.80    -5600.00
02713              13.60    -5400.00
02714               5.20    -5800.00
02715              20.00    -6000.00
02716             -50.00    -6000.00
02717              29.60    -6400.00
02718              46.00    -6600.00
02719             -50.00    -6600.00
02720               5.20    -7200.00
02721              29.60    -6800.00
02722             -14.00    -7200.00
02723             -32.80    -7400.00
02724               6.80    -7600.00
02725              34.00    -8000.00
02726             -49.20    -8000.00
02727              -5.60    -8200.00
02728              30.80    -8200.00
02729             -31.20    -8400.00
02730             -17.20    -8800.00
02731              14.00    -8800.00
02732               0.80    -9000.00
02733             -31.60    -9200.00
02734               5.60    -9200.00
02735               8.80    -9400.00
02736             -31.60    -9400.00
02737               0.40    -9800.00
02738              -0.80    -9800.00
02739             -13.20   -10000.00
02740             -10.40   -10000.00
02741              -4.40   -10200.00
02742              -4.40   -10400.00
02743             -18.40   -10400.00
02744              -5.20   -10600.00
02745              -4.40   -10800.00
02746             -16.80   -10800.00
02747             -10.40   -10800.00
02748              -2.00   -10800.00
02749             -13.60   -11000.00
02750             -17.20   -11200.00
02751              -3.60   -11000.00
02752             -11.60   -11400.00
02753             -19.20   -11400.00
02754              -8.00   -11800.00
02755              -7.20   -11600.00
02756             -20.40   -11600.00
02757             -13.20   -12000.00
02758              -7.20   -12000.00
02759             -18.40   -12000.00
02760             -18.40   -12200.00
02761             -10.00   -12200.00
02762             -14.00   -12200.00
02763             -21.60   -12400.00
02764             -15.20   -12400.00
02765             -14.00   -12400.00
02766             -20.80   -12600.00
02767             -20.40   -12400.00
02768             -16.00   -12600.00
02769             -18.40   -12600.00
02770             -23.60   -12800.00
02771             -20.00   -12600.00
02772             -19.20   -12800.00
02773             -24.80   -12800.00
02774             -23.60   -12800.00
02775             -20.40   -12800.00
02776             -22.80   -12800.00
02777             -26.40   -12800.00
02778             -23.60   -12800.00
02779             -23.60   -13000.00
02780             -26.80   -12800.00
02781             -26.40   -12800.00
02782             -24.80   -12800.00
02783             -25.60   -13000.00
02784             -27.60   -12800.00
02785             -25.20   -13000.00
02786             -24.00   -12800.00
02787             -24.80   -12800.00
02788             -24.40   -12800.00
02789             -21.60   -12800.00
02790             -21.20   -12800.00
02791             -21.20   -12800.00
02792             -20.80   -12600.00
02793             -18.80   -12600.00
02794             -18.00   -12400.00
02795             -18.80   -12600.00
02796             -18.00   -12600.00
02797             -16.40   -12400.00
02798             -16.40   -12400.00
02799             -17.20   -12400.00
02800             -15.20   -12200.00
02801             -14.00   -12000.00
02802             -15.60   -12000.00
02803             -14.00   -12000.00
02804             -12.40   -12000.00
02805             -14.00   -11800.00
02806             -14.80   -11800.00
02807             -12.00   -11600.00
02808             -11.60   -11400.00
02809             -12.80   -11400.00
02810             -11.60   -11200.00
02811             -10.80   -11400.00
02812             -12.00   -11000.00
02813             -12.00   -11000.00
02814              -9.20   -11000.00
02815             -10.00   -10800.00
02816             -10.40   -10800.00
02817              -9.20   -10600.00
02818              -8.80   -10400.00
02819              -8.80   -10400.00
02820              -8.80   -10200.00
02821              -8.40   -10000.00
02822              -7.20    -9800.00
02823              -8.40    -9800.00
02824              -7.60    -9600.00
02825              -6.80    -9600.00
02826              -7.60    -9400.00
02827              -7.20    -9200.00
02828              -6.00    -9000.00
02829              -6.80    -9000.00
02830              -6.80    -8800.00
02831              -6.00    -8800.00
02832              -5.60    -8400.00
02833              -6.00    -8400.00
02834              -6.00    -8200.00
02835              -4.40    -8000.00
02836              -4.40    -8000.00
02837              -6.00    -7600.00
02838              -4.40    -7600.00
02839              -5.20    -7200.00
02840              -5.60    -7200.00
02841              -4.40    -7000.00
02842              -4.00    -6800.00
02843              -4.00    -6600.00
02844              -3.60    -6400.00
02845              -4.40    -6400.00
02846              -4.40    -6000.00
02847              -3.20    -5800.00
02848              -4.40    -5600.00
02849              -3.60    -5600.00
02850              -2.40    -5200.00
02851              -3.60    -5200.00
02852              -4.00    -5000.00
02853              -2.40    -4600.00
02854              -2.80    -4400.00
02855              -3.20    -4400.00
02856              -2.40    -4000.00
02857              -2.00    -3800.00
02858              -2.40    -3600.00
02859              -2.40    -3400.00
02860              -2.00    -3400.00
02861              -2.00    -3200.00
02862              -2.40    -2800.00
02863              -1.20    -2600.00
02864              -2.00    -2600.00
02865              -2.00    -2400.00
02866              -2.00    -2200.00
02867              -1.20    -2000.00
02868              -1.20    -1600.00
02869              -1.20    -1400.00
02870              -0.80    -1200.00
02871              -1.20    -1000.00
02872              -1.20     -800.00
02873              -1.20     -800.00
02874              -0.80     -400.00
02875              -0.40     -200.00
02876              -0.80     -200.00
02877              -0.40      200.00
02878               0.80      400.00
02879               2.00      400.00
02880              -0.80      800.00
02881               0.00      800.00
02882               1.20     1200.00
02883               0.80     1400.00
02884              -0.40     1800.00
02885               2.40     1800.00
02886              12.00     2000.00
02887              18.40     2400.00
02888             -22.00     2600.00
02889             -28.00     2800.00
02890               6.80     2800.00
02891               2.80     3000.00
02892              44.40     3200.00
02893             -10.80     3400.00
02894             -50.00     3600.00
02895              50.00     4000.00
02896              40.40     3800.00
02897             -50.00     4000.00
02898              50.00     4400.00
02899              50.00     4400.00
02900             -50.00     4800.00
02901              24.80     5200.00
02902              48.40     5200.00
02903             -34.00     5600.00
02904              -7.60     5600.00
02905              19.20     5800.00
02906              18.00     6200.00
02907             -25.20     6200.00
02908              -4.80     6400.00
02909              46.80     6600.00
02910              -9.20     6800.00
02911             -24.80     7000.00
02912              21.60     7000.00
02913              22.80     7200.00
02914             -14.80     7600.00
02915             -10.80     7600.00
02916              32.80     7800.00
02917               5.20     8200.00
02918             -22.00     8200.00
02919              23.20     8400.00
02920              15.20     8400.00
02921             -19.20     8800.00
02922              10.80     8800.00
02923              26.40     9000.00
02924             -10.40     9200.00
02925              -1.20     9400.00
02926              26.00     9400.00
02927               0.40     9600.00
02928              -5.20     9600.00
02929              15.20     9800.00
02930              11.20    10000.00
02931               1.20    10000.00
02932               7.20    10200.00
02933              13.60    10200.00
02934               5.20    10400.00
02935               4.80    10600.00
02936              13.20    10800.00
02937              10.40    10800.00
02938               4.00    10800.00
02939              12.00    11000.00
02940              15.20    11200.00
02941               4.40    11200.00
02942               9.20    11200.00
02943              16.80    11600.00
02944               8.40    11600.00
02945               8.40    11600.00
02946              18.00    11600.00
02947              12.80    11800.00
02948               8.80    12000.00
02949              16.40    12000.00
02950              16.40    12000.00
02951              10.40    12000.00
02952              15.60    12400.00
02953              19.60    12400.00
02954              14.00    12400.00
02955              14.80    12400.00
02956              19.60    12400.00
02957              18.40    12600.00
02958              16.40    12600.00
02959              18.80    12600.00
02960              22.00    12600.00
02961              19.60    12600.00
02962              19.20    12800.00
02963              23.20    12600.00
02964              21.60    12800.00
02965              21.20    12800.00
02966              23.60    12800.00
02967              24.80    12800.00
02968              23.20    13000.00
02969              24.40    12800.00
02970              26.00    12800.00
02971              24.80    12800.00
02972              24.40    12800.00
02973              26.40    12800.00
02974              26.00    12800.00
02975              24.80    12800.00
02976              24.40    12800.00
02977              24.40    12800.00
02978              23.20    12800.00
02979              21.60    12800.00
02980              21.60    12800.00
02981              20.80    12600.00
02982              20.00    12600.00
02983              18.80    12600.00
02984              18.00    12600.00
02985              18.00    12600.00
02986              16.80    12600.00
02987              16.40    12400.00
02988              16.40    12400.00
02989              15.20    12200.00
02990              14.80    12400.00
02991              14.80    12200.00
02992              14.80    12200.00
02993              14.00    12000.00
02994              13.20    12200.00
02995              12.80    12000.00
02996              12.40    11800.00
02997              11.60    11800.00
02998              11.60    11600.00
02999              11.60    11600.00
03000              10.40    11400.00
03001              10.80    11200.00
03002              10.80    11200.00
03003              10.00    11200.00
03004               9.60    11000.00
03005               9.20    11000.00
03006               8.80    10800.00
03007               8.80    10600.00
03008               8.40    10400.00
03009               8.40    10400.00
03010               8.40    10400.00
03011               7.60    10200.00
03012               7.20    10200.00
03013               8.40    10000.00
03014               7.20     9600.00
03015               6.00     9600.00
03016               7.20     9600.00
03017               6.00     9400.00
03018               6.00     9200.00
03019               6.40     9200.00
03020               6.40     8800.00
03021               5.60     8800.00
03022               5.60     8800.00
03023               5.60     8400.00
03024               5.20     8200.00
03025               5.20     8200.00
03026               5.20     8000.00
03027               5.20     7800.00
03028               4.40     7800.00
03029               4.00     7400.00
03030               4.00     7200.00
03031               4.40     7200.00
03032               4.00     6800.00
03033               4.00     6800.00
03034               4.00     6600.00
03035               3.60     6400.00
03036               3.60     6200.00
03037               3.20     6000.00
03038               2.80     6000.00
03039               3.60     5600.00
03040               3.60     5400.00
03041               2.80     5200.00
03042               2.80     5200.00
03043               2.80     4800.00
03044               2.00     4600.00
03045               2.00     4400.00
03046               2.00     4400.00
03047               2.00     4000.00
03048               2.00     3800.00
03049               2.00     3600.00
03050               1.20     3600.00
03051               0.80     3200.00
03052               1.20     3000.00
03053               1.20     2800.00
03054               0.80     2600.00
03055               0.80     2400.00
03056               0.80     2200.00
03057               0.80     2000.00
03058               0.40     1800.00
03059               0.40     1600.00
03060               0.80     1400.00
03061               0.40     1200.00
03062              -0.40     1000.00
03063               0.40      800.00
03064              -0.40      600.00
03065              -0.80      400.00
03066               0.40      200.00
03067               0.00        0.00
03068              -0.40     -200.00
03069               0.80     -400.00
03070               0.80     -600.00
03071              -1.20     -800.00
03072              -1.20    -1000.00
03073               0.40    -1200.00
03074              -0.80    -1600.00
03075              -1.20    -1600.00
03076               6.80    -1800.00
03077              30.00    -2400.00
03078             -26.00    -2600.00
03079             -40.40    -2800.00
03080               0.80    -2800.00
03081              15.20    -2600.00
03082              50.00    -3200.00
03083             -50.00    -3400.00
03084             -50.00    -3000.00
03085              50.00    -3600.00
03086             -26.00    -4000.00
03087             -50.00    -4000.00
03088              50.00    -4400.00
03089              37.20    -4400.00
03090             -50.00    -4400.00
03091              50.00    -5000.00
03092              36.00    -5000.00
03093             -50.00    -5400.00
03094              14.00    -5600.00
03095              -0.80    -5600.00
03096              27.60    -6000.00
03097             -42.80    -6000.00
03098             -27.20    -6200.00
03099              50.00    -6600.00
03100             -44.00    -6400.00
03101             -36.40    -7000.00
03102              38.80    -7000.00
03103              -2.00    -7200.00
03104             -26.80    -7600.00
03105             -18.00    -7400.00
03106              37.60    -7800.00
03107             -16.80    -8000.00
03108             -40.80    -8000.00
03109              34.00    -8400.00
03110              -8.80    -8400.00
03111             -30.00    -8800.00
03112               4.00    -8800.00
03113              12.00    -9000.00
03114             -23.20    -9200.00
03115             -16.40    -9200.00
03116              21.20    -9200.00
03117             -22.80    -9600.00
03118             -16.80    -9600.00
03119               6.00    -9800.00
03120              -8.80    -9800.00
03121             -12.00   -10000.00
03122              -8.80   -10000.00
03123              -0.40   -10200.00
03124             -15.60   -10400.00
03125             -12.40   -10400.00
03126              -0.40   -10600.00
03127             -14.00   -10800.00
03128             -14.80   -10800.00
03129              -2.80   -11000.00
03130              -8.40   -11000.00
03131             -20.00   -11200.00
03132              -7.20   -11400.00
03133              -6.00   -11400.00
03134             -19.60   -11600.00
03135             -12.00   -11600.00
03136              -4.40   -11600.00
03137             -17.20   -11800.00
03138             -18.00   -12000.00
03139              -7.20   -12000.00
03140             -15.20   -12200.00
03141             -20.00   -12200.00
03142             -12.40   -12200.00
03143             -11.20   -12400.00
03144             -20.00   -12400.00
03145             -18.00   -12400.00
03146             -13.60   -12400.00
03147             -18.80   -12400.00
03148             -21.20   -12600.00
03149             -17.20   -12400.00
03150             -16.40   -12600.00
03151             -22.00   -12800.00
03152             -21.60   -12800.00
03153             -18.40   -12800.00
03154             -22.80   -12800.00
03155             -25.20   -12800.00
03156             -21.60   -12800.00
03157             -21.60   -12800.00
03158             -25.60   -12800.00
03159             -25.20   -13000.00
03160             -23.20   -13000.00
03161             -26.00   -13000.00
03162             -26.40   -12800.00
03163             -24.80   -12800.00
03164             -25.20   -12800.00
03165             -26.40   -12800.00
03166             -26.00   -12800.00
03167             -24.80   -13000.00
03168             -24.40   -12800.00
03169             -24.40   -12800.00
03170             -22.40   -12800.00
03171             -20.80   -12800.00
03172             -21.20   -12800.00
03173             -21.20   -12800.00
03174             -18.80   -12800.00
03175             -18.00   -12400.00
03176             -19.60   -12600.00
03177             -17.60   -12400.00
03178             -15.60   -12400.00
03179             -17.20   -12400.00
03180             -16.80   -12400.00
03181             -15.20   -12400.00
03182             -15.20   -12200.00
03183             -15.20   -12200.00
03184             -14.00   -12000.00
03185             -14.00   -12000.00
03186             -13.60   -12000.00
03187             -13.20   -11800.00
03188             -13.60   -11600.00
03189             -12.40   -11400.00
03190             -12.00   -11600.00
03191             -12.00   -11200.00
03192             -11.60   -11200.00
03193             -10.80   -11000.00
03194             -10.80   -11000.00
03195             -10.40   -11000.00
03196              -9.20   -10800.00
03197             -10.40   -10800.00
03198             -10.00   -10600.00
03199              -9.20   -10400.00
03200              -8.80   -10400.00
03201              -9.20   -10200.00
03202              -8.80   -10000.00
03203              -7.60   -10000.00
03204              -7.60    -9800.00
03205              -8.40    -9800.00
03206              -7.60    -9600.00
03207              -6.80    -9400.00
03208              -7.60    -9400.00
03209              -6.80    -9200.00
03210              -6.00    -9200.00
03211              -6.00    -9000.00
03212              -6.80    -8800.00
03213              -6.80    -8400.00
03214              -5.60    -8400.00
03215              -5.60    -8400.00
03216              -6.00    -8000.00
03217              -4.40    -8000.00
03218              -5.60    -7600.00
03219              -5.60    -7600.00
03220              -4.80    -7400.00
03221              -4.40    -7200.00
03222              -5.60    -7000.00
03223              -3.60    -6800.00
03224              -4.00    -6600.00
03225              -4.40    -6600.00
03226              -3.60    -6400.00
03227              -3.60    -6000.00
03228              -4.00    -5800.00
03229              -3.60    -5800.00
03230              -3.60    -5600.00
03231              -3.20    -5600.00
03232              -2.80    -5200.00
03233              -3.60    -5000.00
03234              -2.80    -4600.00
03235              -3.60    -4600.00
03236              -2.40    -4400.00
03237              -2.00    -4200.00
03238              -2.40    -4000.00
03239              -2.40    -3800.00
03240              -2.40    -3600.00
03241              -2.00    -3400.00
03242              -2.40    -3200.00
03243              -2.00    -3000.00
03244              -1.20    -2800.00
03245              -2.40    -2600.00
03246              -2.00    -2400.00
03247              -1.20    -2400.00
03248              -2.00    -2000.00
03249              -1.20    -1800.00
03250              -1.60    -1600.00
03251              -0.80    -1600.00
03252              -1.20    -1000.00
03253              -0.80    -1000.00
03254              -0.40     -800.00
03255              -1.20     -400.00
03256              -0.80     -400.00
03257               0.40     -200.00
03258              -0.40        0.00
03259              -0.40      400.00
03260               1.60      400.00
03261               0.80      600.00
03262              -1.20      800.00
03263               0.40     1000.00
03264               1.60     1200.00
03265              -0.80     1400.00
03266               0.40     1800.00
03267               7.20     2000.00
03268              20.40     2200.00
03269              -3.60     2400.00
03270             -34.80     2800.00
03271              -2.00     2600.00
03272               3.60     2800.00
03273              22.80     3200.00
03274              30.40     3200.00
03275             -50.00     3400.00
03276              29.20     3800.00
03277              50.00     3800.00
03278             -50.00     4000.00
03279             -30.80     4400.00
03280              50.00     4400.00
03281             -50.00     4600.00
03282             -38.80     5200.00
03283              50.00     5200.00
03284             -10.80     5400.00
03285             -25.20     5600.00
03286              12.80     5600.00
03287              26.00     5800.00
03288              -5.60     6200.00
03289             -29.60     6400.00
03290              36.00     6400.00
03291              22.00     6800.00
03292             -34.40     7000.00
03293               2.80     7000.00
03294              30.00     7200.00
03295               0.40     7400.00
03296             -21.60     7600.00
03297              19.20     7800.00
03298              27.20     8200.00
03299             -22.80     8200.00
03300               4.40     8400.00
03301              29.60     8400.00
03302             -12.00     8600.00
03303              -7.20     8800.00
03304              30.00     9000.00
03305               4.00     9200.00
03306             -14.00     9200.00
03307              21.20     9200.00
03308              13.20     9400.00
03309              -9.60     9600.00
03310               9.20     9800.00
03311              16.40    10000.00
03312               3.60    10000.00
03313               3.60    10000.00
03314              12.80    10400.00
03315               8.80    10400.00
03316               2.40    10400.00
03317               9.20    10800.00
03318              13.60    10800.00
03319               6.00    11000.00
03320               7.20    11000.00
03321              14.80    11000.00
03322               8.80    11200.00
03323               5.20    11200.00
03324              15.20    11600.00
03325              13.20    11600.00
03326               6.80    11600.00
03327              14.40    11800.00
03328              15.20    11800.00
03329               8.40    11800.00
03330              12.40    12000.00
03331              17.20    12000.00
03332              12.40    12200.00
03333              13.60    12200.00
03334              18.40    12200.00
03335              16.40    12400.00
03336              13.60    12400.00
03337              18.00    12400.00
03338              18.80    12400.00
03339              16.80    12600.00
03340              17.20    12400.00
03341              21.20    12800.00
03342              20.80    12600.00
03343              18.40    12800.00
03344              21.60    12600.00
03345              22.80    12800.00
03346              21.20    12800.00
03347              22.80    12800.00
03348              25.20    12800.00
03349              24.40    12800.00
03350              23.20    12800.00
03351              25.20    12800.00
03352              26.00    12800.00
03353              24.40    12800.00
03354              25.20    12800.00
03355              26.40    12800.00
03356              25.20    12800.00
03357              24.40    12800.00
03358              24.40    12800.00
03359              23.20    12800.00
03360              22.80    12600.00
03361              21.60    12800.00
03362              21.60    12800.00
03363              21.20    12600.00
03364              19.60    12600.00
03365              18.80    12800.00
03366              18.40    12600.00
03367              16.80    12600.00
03368              17.20    12400.00
03369              16.40    12400.00
03370              15.60    12400.00
03371              15.60    12400.00
03372              14.80    12400.00
03373              14.00    12000.00
03374              14.40    12200.00
03375              12.80    12000.00
03376              12.40    11800.00
03377              13.60    11800.00
03378              12.00    11800.00
03379              11.60    11600.00
03380              12.00    11600.00
03381              11.60    11400.00
03382              10.80    11200.00
03383              10.40    11400.00
03384              10.40    11200.00
03385              10.40    11000.00
03386               8.80    11000.00
03387               9.20    10800.00
03388               9.20    10800.00
03389               8.40    10600.00
03390               8.40    10400.00
03391               8.00    10400.00
03392               8.40    10200.00
03393               8.00    10000.00
03394               7.20     9800.00
03395               7.20     9800.00
03396               7.20     9600.00
03397               6.80     9400.00
03398               6.80     9400.00
03399               6.80     9200.00
03400               6.80     9200.00
03401               5.60     8800.00
03402               6.00     8800.00
03403               6.00     8800.00
03404               5.20     8400.00
03405               5.20     8400.00
03406               5.20     8200.00
03407               5.20     8000.00
03408               4.40     7800.00
03409               4.40     7800.00
03410               5.20     7600.00
03411               4.40     7400.00
03412               4.00     7200.00
03413               4.40     7000.00
03414               4.40     6800.00
03415               3.60     6600.00
03416               3.60     6400.00
03417               3.60     6200.00
03418               2.80     6200.00
03419               2.80     6000.00
03420               3.60     5600.00
03421               3.20     5600.00
03422               2.80     5400.00
03423               2.80     5200.00
03424               2.40     5000.00
03425               2.00     4600.00
03426               2.40     4600.00
03427               2.40     4400.00
03428               2.00     4000.00
03429               2.00     4000.00
03430               2.00     3800.00
03431               1.20     3600.00
03432               2.00     3400.00
03433               1.20     3000.00
03434               1.20     3000.00
03435               1.20     2800.00
03436               1.20     2600.00
03437               0.80     2400.00
03438               0.80     2000.00
03439               0.40     2000.00
03440               0.40     1800.00
03441               0.40     1600.00
03442               0.00     1200.00
03443               0.80     1200.00
03444               0.40     1000.00
03445              -0.40      800.00
03446               0.40      600.00
03447               0.00      400.00
03448              -0.80        0.00
03449              -0.80     -200.00
03450               0.40     -400.00
03451               1.20     -400.00
03452              -0.80     -800.00
03453              -1.20     -800.00
03454               0.00    -1200.00
03455              -0.80    -1400.00
03456              -2.00    -1600.00
03457               1.20    -1600.00
03458              24.80    -2000.00
03459               0.40    -2400.00
03460             -49.20    -2600.00
03461             -10.00    -2800.00
03462               1.20    -2600.00
03463              50.00    -2800.00
03464              10.40    -3600.00
03465             -50.00    -3000.00
03466              50.00    -3600.00
03467              50.00    -4000.00
03468             -50.00    -4000.00
03469              36.40    -4200.00
03470              50.00    -4600.00
03471             -50.00    -4400.00
03472              -2.40    -4600.00
03473              50.00    -5000.00
03474             -50.00    -5000.00
03475             -11.60    -5600.00
03476               6.40    -5600.00
03477              14.00    -5800.00
03478               2.40    -6000.00
03479             -50.00    -6000.00
03480              50.00    -6600.00
03481              18.00    -6600.00
03482             -50.00    -6800.00
03483              23.20    -7000.00
03484              20.00    -6800.00
03485             -20.40    -7400.00
03486             -31.20    -7400.00
03487              20.40    -7600.00
03488              21.20    -8000.00
03489             -50.00    -7800.00
03490              13.20    -8200.00
03491              20.00    -8200.00
03492             -34.80    -8400.00
03493              -8.80    -8800.00
03494              15.20    -8800.00
03495              -7.20    -9000.00
03496             -30.00    -9200.00
03497              15.20    -9200.00
03498              -2.40    -9400.00
03499             -29.60    -9600.00
03500               6.00    -9600.00
03501              -4.40    -9800.00
03502             -14.00   -10000.00
03503              -9.60   -10000.00
03504              -1.20   -10400.00
03505              -9.20   -10400.00
03506             -17.60   -10400.00
03507              -1.20   -10600.00
03508              -8.40   -10600.00
03509             -17.20   -10800.00
03510              -6.00   -10800.00
03511              -4.00   -11000.00
03512             -17.60   -11000.00
03513             -13.60   -11200.00
03514              -3.20   -11400.00
03515             -15.20   -11400.00
03516             -18.00   -11600.00
03517              -5.20   -11600.00
03518             -10.40   -11600.00
03519             -21.60   -11600.00
03520             -10.00   -12000.00
03521              -9.20   -12000.00
03522             -20.40   -12200.00
03523             -16.80   -12200.00
03524              -9.20   -12200.00
03525             -16.40   -12400.00
03526             -21.60   -12400.00
03527             -13.60   -12400.00
03528             -16.40   -12400.00
03529             -22.00   -12600.00
03530             -19.20   -12600.00
03531             -15.60   -12800.00
03532             -20.00   -12600.00
03533             -23.60   -12800.00
03534             -18.40   -12800.00
03535             -20.40   -12800.00
03536             -26.00   -12800.00
03537             -23.20   -12800.00
03538             -20.40   -12800.00
03539             -24.80   -12800.00
03540             -26.00   -13000.00
03541             -23.60   -13000.00
03542             -24.80   -13000.00
03543             -26.80   -12800.00
03544             -25.60   -12800.00
03545             -24.80   -12800.00
03546             -26.40   -12800.00
03547             -26.40   -12800.00
03548             -24.80   -12800.00
03549             -24.40   -12800.00
03550             -24.80   -12800.00
03551             -22.80   -12800.00
03552             -22.00   -12800.00
03553             -20.80   -12800.00
03554             -20.40   -12800.00
03555             -20.40   -12800.00
03556             -18.40   -12400.00
03557             -18.40   -12600.00
03558             -18.40   -12400.00
03559             -16.80   -12400.00
03560             -16.40   -12200.00
03561             -16.80   -12200.00
03562             -15.60   -12200.00
03563             -14.40   -12200.00
03564             -14.80   -12000.00
03565             -14.80   -12200.00
03566             -13.60   -11800.00
03567             -13.60   -12000.00
03568             -13.60   -12000.00
03569             -13.20   -11600.00
03570             -12.00   -11600.00
03571             -11.60   -11600.00
03572             -12.40   -11400.00
03573             -11.60   -11400.00
03574             -10.40   -11000.00
03575             -11.60   -11000.00
03576             -11.20   -11000.00
03577              -9.20   -10800.00
03578              -9.20   -10800.00
03579             -10.40   -10800.00
03580              -9.20   -10400.00
03581              -8.40   -10400.00
03582              -9.20   -10400.00
03583              -8.80   -10200.00
03584              -7.60   -10000.00
03585              -7.60   -10000.00
03586              -8.80    -9800.00
03587              -7.60    -9600.00
03588              -6.80    -9600.00
03589              -7.60    -9200.00
03590              -7.20    -9200.00
03591              -6.00    -9200.00
03592              -7.20    -9000.00
03593              -7.20    -8800.00
03594              -5.60    -8800.00
03595              -6.00    -8400.00
03596              -6.40    -8400.00
03597              -5.60    -8200.00
03598              -4.40    -8000.00
03599              -5.20    -7800.00
03600              -6.00    -7600.00
03601              -4.40    -7600.00
03602              -5.60    -7400.00
03603              -5.20    -7200.00
03604              -4.00    -6800.00
03605              -4.00    -6600.00
03606              -4.40    -6600.00
03607              -2.80    -6400.00
03608              -4.40    -6400.00
03609              -4.40    -6000.00
03610              -3.60    -6000.00
03611              -3.60    -5600.00
03612              -3.60    -5600.00
03613              -2.80    -5200.00
03614              -3.20    -5000.00
03615              -2.80    -5000.00
03616              -2.80    -4600.00
03617              -2.80    -4400.00
03618              -2.80    -4400.00
03619              -2.40    -4000.00
03620              -2.00    -4000.00
03621              -2.40    -3600.00
03622              -2.80    -3400.00
03623              -2.00    -3200.00
03624              -2.00    -3200.00
03625              -2.00    -2800.00
03626              -1.20    -2600.00
03627              -1.20    -2400.00
03628              -1.60    -2400.00
03629              -2.00    -2000.00
03630              -1.20    -1800.00
03631              -1.60    -1800.00
03632              -0.80    -1400.00
03633              -1.20    -1200.00
03634              -1.20    -1000.00
03635              -0.80     -800.00
03636              -1.20     -600.00
03637              -0.80     -400.00
03638              -0.40        0.00
03639              -0.40        0.00
03640              -0.40      400.00
03641               1.20      400.00
03642               2.00      600.00
03643              -1.20      800.00
03644              -0.40     1000.00
03645               1.20     1200.00
03646               0.40     1400.00
03647              -1.20     1800.00
03648               4.00     1800.00
03649              15.20     2200.00
03650              13.20     2400.00
03651             -28.40     2600.00
03652             -20.40     2800.00
03653               6.40     2600.00
03654               5.20     3000.00
03655              46.80     3200.00
03656             -37.20     3200.00
03657             -50.00     3800.00
03658              50.00     3800.00
03659              -9.20     4000.00
03660             -50.00     4400.00
03661              50.00     4400.00
03662              30.80     4400.00
03663             -50.00     5000.00
03664              47.60     5200.00
03665              31.20     5400.00
03666             -36.00     5600.00
03667              -1.20     5600.00
03668              24.00     5800.00
03669              11.20     6000.00
03670             -34.00     6200.00
03671              12.00     6600.00
03672              43.60     6800.00
03673             -24.40     7000.00
03674             -14.80     7000.00
03675              27.60     7000.00
03676              15.20     7400.00
03677             -18.40     7600.00
03678              -2.40     7600.00
03679              34.40     7800.00
03680              -5.60     8200.00
03681             -16.80     8200.00
03682              28.40     8400.00
03683               8.40     8600.00
03684             -18.80     8800.00
03685              18.40     8800.00
03686              22.80     9000.00
03687             -15.20     9200.00
03688               6.00     9400.00
03689              24.80     9400.00
03690              -4.00     9600.00
03691              -1.20     9600.00
03692              16.80     9800.00
03693               9.20    10000.00
03694               0.80    10200.00
03695               8.80    10200.00
03696              13.60    10400.00
03697               3.60    10600.00
03698               6.00    10800.00
03699              14.00    10800.00
03700               8.00    10800.00
03701               4.00    10800.00
03702              14.40    11000.00
03703              13.20    11200.00
03704               4.00    11200.00
03705              12.00    11200.00
03706              16.40    11600.00
03707               6.80    11600.00
03708              10.40    11600.00
03709              18.00    11800.00
03710              10.40    11800.00
03711               9.20    12000.00
03712              17.60    12000.00
03713              14.00    12000.00
03714              10.80    12200.00
03715              16.80    12200.00
03716              18.40    12400.00
03717              14.00    12400.00
03718              16.40    12400.00
03719              18.80    12400.00
03720              17.20    12400.00
03721              16.40    12600.00
03722              19.60    12600.00
03723              21.60    12600.00
03724              18.80    12600.00
03725              19.60    12800.00
03726              23.20    12800.00
03727              21.60    12800.00
03728              21.60    12800.00
03729              24.80    12800.00
03730              24.00    12800.00
03731              23.20    12800.00
03732              25.20    12800.00
03733              26.00    12800.00
03734              24.40    12800.00
03735              25.20    12800.00
03736              26.40    12800.00
03737              26.00    12800.00
03738              24.80    12800.00
03739              24.40    12800.00
03740              24.40    12800.00
03741              22.80    12800.00
03742              21.60    12600.00
03743              21.60    12800.00
03744              20.00    12800.00
03745              20.40    12600.00
03746              19.60    12600.00
03747              17.20    12600.00
03748              18.40    12400.00
03749              18.40    12400.00
03750              15.20    12600.00
03751              16.80    12400.00
03752              16.80    12400.00
03753              13.20    12400.00
03754              14.80    12200.00
03755              15.20    12000.00
03756              13.60    12000.00
03757              13.20    12000.00
03758              14.00    11800.00
03759              12.40    11800.00
03760              11.60    11800.00
03761              12.00    11600.00
03762              11.60    11600.00
03763              10.40    11400.00
03764              10.80    11200.00
03765              10.40    11200.00
03766              10.00    11000.00
03767              10.00    11000.00
03768               9.60    10800.00
03769               8.40    10800.00
03770               9.20    10600.00
03771               8.80    10400.00
03772               7.60    10400.00
03773               8.00    10200.00
03774               7.60    10200.00
03775               7.20    10000.00
03776               7.60     9800.00
03777               6.80     9600.00
03778               6.80     9600.00
03779               7.20     9400.00
03780               6.00     9400.00
03781               6.00     9200.00
03782               6.00     8800.00
03783               6.40     8800.00
03784               5.20     8600.00
03785               5.20     8600.00
03786               5.20     8600.00
03787               5.20     8400.00
03788               4.80     8000.00
03789               5.20     7800.00
03790               5.20     7800.00
03791               5.20     7600.00
03792               4.00     7600.00
03793               3.60     7200.00
03794               3.60     7000.00
03795               4.40     6800.00
03796               3.60     6600.00
03797               4.00     6600.00
03798               4.00     6400.00
03799               2.80     6200.00
03800               2.40     6000.00
03801               2.80     6000.00
03802               3.60     5600.00
03803               2.40     5400.00
03804               2.80     5400.00
03805               3.20     5200.00
03806               2.00     4800.00
03807               2.00     4600.00
03808               2.40     4400.00
03809               2.00     4200.00
03810               2.80     4000.00
03811               2.00     4000.00
03812               1.60     3600.00
03813               1.60     3200.00
03814               0.80     3200.00
03815               2.00     3000.00
03816               0.80     2800.00
03817               0.80     2800.00
03818               1.20     2400.00
03819               1.20     2200.00
03820               0.80     2000.00
03821               0.40     1800.00
03822               0.80     1600.00
03823               1.20     1200.00
03824               0.40     1200.00
03825               0.00     1000.00
03826               0.40      800.00
03827               0.40      400.00
03828              -0.80      400.00
03829              -0.80      200.00
03830               0.80     -200.00
03831               0.00     -200.00
03832               0.40     -400.00
03833               0.80     -800.00
03834              -2.40     -800.00
03835              -1.20    -1000.00
03836               0.80    -1200.00
03837              -1.60    -1600.00
03838              -1.20    -1600.00
03839              12.40    -1800.00
03840              23.60    -2400.00
03841             -37.60    -2600.00
03842             -29.60    -2800.00
03843               2.80    -2800.00
03844              29.20    -2600.00
03845              50.00    -3400.00
03846             -50.00    -3200.00
03847             -17.20    -3200.00
03848              50.00    -4200.00
03849             -50.00    -4000.00
03850             -50.00    -4000.00
03851              50.00    -4600.00
03852             -40.80    -4200.00
03853             -50.00    -4800.00
03854              50.00    -5000.00
03855              -8.80    -4800.00
03856             -50.00    -5400.00
03857              17.20    -5600.00
03858               0.00    -5600.00
03859              26.80    -6000.00
03860             -50.00    -6000.00
03861               0.80    -6400.00
03862              50.00    -6600.00
03863             -50.00    -6600.00
03864             -14.80    -7000.00
03865              35.60    -6800.00
03866              -8.40    -7200.00
03867             -29.60    -7400.00
03868              -7.60    -7600.00
03869              39.60    -7800.00
03870             -34.40    -8000.00
03871             -24.40    -8200.00
03872              34.80    -8400.00
03873             -21.20    -8400.00
03874             -24.00    -8600.00
03875              10.00    -8600.00
03876               7.20    -8800.00
03877             -29.20    -9000.00
03878              -4.40    -9000.00
03879              16.80    -9200.00
03880             -29.20    -9200.00
03881              -6.80    -9600.00
03882               4.40    -9600.00
03883             -13.20   -10000.00
03884             -10.80   -10000.00
03885              -4.40   -10000.00
03886              -2.40   -10400.00
03887             -18.00   -10400.00
03888              -6.00   -10600.00
03889              -2.40   -10600.00
03890             -17.20   -10800.00
03891             -10.40   -10800.00
03892              -2.40   -11000.00
03893             -12.40   -11200.00
03894             -17.20   -11200.00
03895              -5.20   -11400.00
03896             -10.40   -11400.00
03897             -18.80   -11600.00
03898              -9.60   -11600.00
03899              -7.20   -11600.00
03900             -18.40   -11800.00
03901             -14.80   -12000.00
03902              -7.60   -12000.00
03903             -17.20   -12200.00
03904             -18.80   -12200.00
03905             -12.00   -12200.00
03906             -12.00   -12400.00
03907             -20.40   -12400.00
03908             -17.20   -12400.00
03909             -14.00   -12400.00
03910             -19.60   -12400.00
03911             -22.00   -12600.00
03912             -16.80   -12600.00
03913             -17.20   -12600.00
03914             -23.20   -12600.00
03915             -20.00   -12600.00
03916             -18.00   -12800.00
03917             -24.40   -12800.00
03918             -24.00   -12800.00
03919             -21.20   -12800.00
03920             -25.20   -12800.00
03921             -26.00   -12800.00
03922             -23.60   -12800.00
03923             -26.40   -13000.00
03924             -24.80   -12800.00
03925             -23.60   -13000.00
03926             -26.00   -12800.00
03927             -25.20   -12800.00
03928             -26.80   -13000.00
03929             -28.00   -13000.00
03930             -25.20   -12800.00
03931             -24.40   -12800.00
03932             -23.60   -12800.00
03933             -20.40   -12800.00
03934             -20.40   -12600.00
03935             -19.60   -12800.00
03936             -20.40   -12400.00
03937             -20.40   -12800.00
03938             -18.80   -12600.00
03939             -18.80   -12400.00
03940             -18.00   -12400.00
03941             -16.40   -12400.00
03942             -15.20   -12200.00
03943             -14.80   -12200.00
03944             -14.80   -12200.00
03945             -15.20   -12200.00
03946             -15.20   -12200.00
03947             -14.80   -12000.00
03948             -14.00   -12000.00
03949             -13.20   -12000.00
03950             -12.40   -11600.00
03951             -12.00   -11600.00
03952             -12.00   -11600.00
03953             -12.00   -11400.00
03954             -11.60   -11400.00
03955             -12.00   -11400.00
03956             -11.20   -11000.00
03957             -11.60   -11000.00
03958             -10.40   -11000.00
03959              -9.20   -10800.00
03960             -10.00   -10800.00
03961             -10.00   -10600.00
03962              -8.00   -10400.00
03963              -8.80   -10400.00
03964             -10.00   -10200.00
03965              -8.40   -10000.00
03966              -7.60    -9800.00
03967              -9.20    -9800.00
03968              -8.40    -9800.00
03969              -6.40    -9600.00
03970              -7.60    -9600.00
03971              -8.40    -9200.00
03972              -5.60    -9200.00
03973              -6.00    -9000.00
03974              -7.60    -8800.00
03975              -6.80    -8800.00
03976              -5.20    -8400.00
03977              -6.80    -8400.00
03978              -6.80    -8200.00
03979              -5.20    -8000.00
03980              -5.60    -7800.00
03981              -6.80    -7600.00
03982              -5.20    -7600.00
03983              -3.60    -7400.00
03984              -5.60    -7200.00
03985              -5.20    -7000.00
03986              -4.00    -6800.00
03987              -4.00    -6600.00
03988              -5.60    -6400.00
03989              -3.60    -6200.00
03990              -3.60    -6000.00
03991              -4.00    -6000.00
03992              -5.20    -5800.00
03993              -2.40    -5800.00
03994              -2.80    -5400.00
03995              -5.20    -5000.00
03996              -2.80    -4800.00
03997              -2.00    -4600.00
03998              -3.60    -4600.00
03999              -4.40    -4200.00
04000              -1.20    -4200.00
04001              -0.80    -4000.00
04002              -4.40    -3800.00
04003              -2.00    -3600.00
04004              -1.20    -3400.00
04005              -2.40    -3200.00
04006              -3.60    -2800.00
04007              -0.40    -2600.00
04008              -0.40    -2600.00
04009              -2.80    -2400.00
04010              -1.20    -2200.00
04011              -0.40    -1800.00
04012              -2.40    -1800.00
04013              -1.20    -1600.00
04014               0.40    -1200.00
04015              -0.80    -1200.00
04016              -1.20     -800.00
04017              -0.80     -600.00
04018              -0.40     -400.00
04019              -1.20     -200.00
04020              -0.80        0.00
04021               0.40      200.00
04022               0.80      400.00
04023               1.20      600.00
04024              -0.40      600.00
04025              -1.20      800.00
04026               1.20     1200.00
04027               0.40     1400.00
04028              -0.80     1400.00
04029               2.40     1800.00
04030               8.40     2000.00
04031              19.60     2400.00
04032             -13.20     2600.00
04033             -32.80     2800.00
04034               2.80     2800.00
04035               2.40     2800.00
04036              36.00     3200.00
04037              10.40     3600.00
04038             -50.00     3600.00
04039              50.00     4000.00
04040              50.00     3800.00
04041             -50.00     4000.00
04042              18.00     4600.00
04043              50.00     4400.00
04044             -50.00     4800.00
04045              -5.20     5200.00
04046              50.00     5000.00
04047             -27.60     5400.00
04048             -15.20     5600.00
04049              16.40     5600.00
04050              22.00     6000.00
04051             -15.20     6200.00
04052             -18.40     6400.00
04053              43.60     6400.00
04054               6.00     6800.00
04055             -31.20     7000.00
04056              13.20     7000.00
04057              26.40     7200.00
04058              -7.60     7400.00
04059             -17.60     7600.00
04060              26.80     8000.00
04061              16.80     8200.00
04062             -24.80     8000.00
04063              14.80     8400.00
04064              23.60     8400.00
04065             -16.00     8600.00
04066               2.40     8800.00
04067              29.20     8800.00
04068              -4.00     9200.00
04069              -8.80     9200.00
04070              24.80     9400.00
04071               7.20     9400.00
04072              -7.60     9600.00
04073              13.20     9600.00
04074              14.80    10000.00
04075               2.00    10200.00
04076               5.20    10200.00
04077              14.00    10200.00
04078               7.60    10400.00
04079               3.60    10400.00
04080              12.40    10800.00
04081              12.00    10800.00
04082               4.40    10800.00
04083              10.40    11000.00
04084              16.40    11000.00
04085               6.80    11200.00
04086               7.60    11200.00
04087              17.20    11400.00
04088              10.80    11600.00
04089               6.80    11600.00
04090              16.80    11600.00
04091              14.80    11800.00
04092               7.60    12000.00
04093              14.40    11800.00
04094              16.80    12000.00
04095              11.60    12000.00
04096              13.60    12200.00
04097              19.60    12200.00
04098              15.20    12400.00
04099              13.60    12400.00
04100              18.80    12400.00
04101              19.60    12400.00
04102              16.80    12600.00
04103              17.60    12600.00
04104              21.60    12600.00
04105              20.00    12600.00
04106              18.40    12800.00
04107              22.00    12600.00
04108              23.20    12800.00
04109              20.40    12800.00
04110              23.20    12800.00
04111              24.80    12800.00
04112              23.60    13000.00
04113              23.20    12800.00
04114              26.00    12800.00
04115              25.20    12800.00
04116              24.40    12800.00
04117              26.40    12800.00
04118              26.40    12800.00
04119              24.80    12800.00
04120              25.20    12800.00
04121              24.00    12800.00
04122              23.20    12600.00
04123              23.20    12800.00
04124              21.20    12800.00
04125              21.20    12600.00
04126              20.00    12600.00
04127              19.60    12600.00
04128              18.80    12400.00
04129              18.00    12600.00
04130              18.00    12400.00
04131              16.80    12400.00
04132              16.40    12400.00
04133              15.60    12400.00
04134              15.20    12400.00
04135              14.80    12200.00
04136              13.60    12200.00
04137              14.00    12000.00
04138              13.60    12000.00
04139              12.40    12000.00
04140              14.00    12000.00
04141              11.60    11800.00
04142              11.60    11800.00
04143              12.00    11600.00
04144              11.60    11400.00
04145              10.80    11200.00
04146              10.40    11400.00
04147              10.40    11200.00
04148              10.40    11000.00
04149               9.20    10800.00
04150               8.80    10800.00
04151               9.60    10600.00
04152               8.80    10400.00
04153               7.60    10400.00
04154               8.40    10200.00
04155               7.60    10200.00
04156               7.20    10000.00
04157               7.60    10000.00
04158               7.60     9600.00
04159               6.80     9600.00
04160               6.80     9400.00
04161               6.80     9400.00
04162               5.60     9200.00
04163               6.00     9200.00
04164               6.80     8800.00
04165               5.60     8800.00
04166               5.20     8600.00
04167               5.20     8400.00
04168               5.20     8400.00
04169               4.40     8400.00
04170               5.20     8000.00
04171               4.40     7800.00
04172               4.40     7800.00
04173               4.00     7400.00
04174               4.00     7200.00
04175               4.00     7200.00
04176               4.00     6800.00
04177               4.00     6800.00
04178               3.60     6400.00
04179               3.60     6400.00
04180               3.60     6200.00
04181               2.80     6200.00
04182               3.60     6000.00
04183               2.40     5800.00
04184               2.40     5600.00
04185               2.80     5400.00
04186               2.40     5200.00
04187               2.00     4800.00
04188               2.40     4600.00
04189               2.40     4400.00
04190               2.00     4200.00
04191               2.00     4000.00
04192               2.40     3800.00
04193               2.00     3800.00
04194               1.20     3600.00
04195               2.00     3400.00
04196               2.00     3000.00
04197               1.20     2800.00
04198               1.60     2800.00
04199               0.80     2400.00
04200               0.80     2200.00
04201               0.80     2000.00
04202               0.80     2000.00
04203               0.80     1600.00
04204               0.40     1400.00
04205               0.40     1200.00
04206               0.40     1000.00
04207               0.40      800.00
04208               0.40      800.00
04209               0.00      400.00
04210              -0.40      400.00
04211               0.00        0.00
04212               0.00     -200.00
04213               0.80     -400.00
04214               0.80     -600.00
04215              -1.20     -800.00
04216              -1.20    -1000.00
04217               0.00    -1000.00
04218              -0.80    -1400.00
04219              -1.20    -1600.00
04220               3.60    -1800.00
04221              29.60    -2200.00
04222             -13.60    -2600.00
04223             -47.60    -2800.00
04224              -3.20    -2800.00
04225               5.60    -2600.00
04226              50.00    -3200.00
04227             -28.40    -3400.00
04228             -50.00    -3000.00
04229              50.00    -3800.00
04230              45.60    -4200.00
04231             -50.00    -4000.00
04232              50.00    -4400.00
04233              50.00    -4400.00
04234             -50.00    -4400.00
04235              50.00    -5000.00
04236              50.00    -5000.00
04237             -50.00    -5200.00
04238               4.00    -5800.00
04239               1.20    -5600.00
04240              22.00    -6000.00
04241             -20.40    -6000.00
04242             -50.00    -6200.00
04243              50.00    -6600.00
04244             -15.60    -6400.00
04245             -50.00    -7000.00
04246              35.20    -7200.00
04247               8.00    -7000.00
04248             -23.60    -7400.00
04249             -26.40    -7400.00
04250              30.80    -7600.00
04251               2.40    -8000.00
04252             -50.00    -8000.00
04253              26.40    -8200.00
04254               5.60    -8200.00
04255             -34.40    -8400.00
04256              -1.20    -8800.00
04257              15.20    -8800.00
04258             -16.40    -9000.00
04259             -24.40    -9200.00
04260              21.20    -9400.00
04261             -14.80    -9400.00
04262             -23.20    -9600.00
04263               8.80    -9800.00
04264              -8.80    -9800.00
04265             -12.40   -10000.00
04266              -7.20   -10000.00
04267              -1.20   -10200.00
04268             -13.20   -10400.00
04269             -13.20   -10600.00
04270              -0.40   -10600.00
04271             -12.40   -10800.00
04272             -15.20   -10800.00
04273              -3.60   -11000.00
04274              -7.20   -10800.00
04275             -18.40   -11200.00
04276              -9.20   -11200.00
04277              -4.40   -11400.00
04278             -17.60   -11600.00
04279             -14.80   -11600.00
04280              -4.40   -11600.00
04281             -14.00   -11800.00
04282             -20.00   -12000.00
04283              -8.40   -12000.00
04284             -12.00   -12000.00
04285             -20.40   -12200.00
04286             -14.80   -12200.00
04287             -10.00   -12200.00
04288             -18.40   -12200.00
04289             -20.00   -12200.00
04290             -13.20   -12400.00
04291             -17.20   -12600.00
04292             -22.00   -12600.00
04293             -18.00   -12600.00
04294             -16.00   -12400.00
04295             -21.60   -12800.00
04296             -22.00   -12800.00
04297             -18.80   -12800.00
04298             -22.00   -12800.00
04299             -24.80   -12800.00
04300             -22.40   -12800.00
04301             -21.20   -12800.00
04302             -24.80   -13000.00
04303             -26.00   -12800.00
04304             -23.20   -12800.00
04305             -25.20   -13000.00
04306             -27.60   -13000.00
04307             -25.20   -12800.00
04308             -25.20   -13000.00
04309             -26.40   -12800.00
04310             -26.40   -12800.00
04311             -25.20   -12800.00
04312             -23.60   -12800.00
04313             -24.40   -12800.00
04314             -23.20   -12800.00
04315             -21.20   -12800.00
04316             -21.20   -12800.00
04317             -22.00   -12800.00
04318             -19.60   -12600.00
04319             -18.40   -12600.00
04320             -18.80   -12400.00
04321             -18.40   -12400.00
04322             -15.60   -12400.00
04323             -16.80   -12400.00
04324             -16.80   -12400.00
04325             -15.60   -12200.00
04326             -14.80   -12200.00
04327             -14.80   -12000.00
04328             -14.00   -12000.00
04329             -13.60   -12000.00
04330             -13.20   -12000.00
04331             -13.60   -11800.00
04332             -13.20   -11800.00
04333             -11.60   -11600.00
04334             -11.60   -11600.00
04335             -12.00   -11400.00
04336             -10.80   -11000.00
04337             -10.80   -11200.00
04338             -11.60   -11000.00
04339             -10.40   -11000.00
04340              -9.20   -10800.00
04341              -9.20   -10800.00
04342             -10.40   -10800.00
04343              -8.80   -10600.00
04344              -8.80   -10400.00
04345              -9.20   -10400.00
04346              -8.40   -10200.00
04347              -7.60    -9800.00
04348              -8.40    -9800.00
04349              -8.40    -9800.00
04350              -7.60    -9600.00
04351              -7.20    -9400.00
04352              -7.60    -9400.00
04353              -7.20    -9200.00
04354              -6.40    -9000.00
04355              -6.40    -8800.00
04356              -7.20    -8800.00
04357              -5.60    -8800.00
04358              -6.00    -8400.00
04359              -6.80    -8400.00
04360              -6.00    -8200.00
04361              -4.40    -8000.00
04362              -5.60    -7600.00
04363              -6.00    -7600.00
04364              -4.40    -7400.00
04365              -5.20    -7200.00
04366              -5.20    -7200.00
04367              -4.40    -6800.00
04368              -4.40    -6800.00
04369              -4.00    -6600.00
04370              -4.40    -6400.00
04371              -4.40    -6200.00
04372              -4.00    -6000.00
04373              -4.00    -5800.00
04374              -4.40    -5600.00
04375              -3.20    -5400.00
04376              -2.40    -5000.00
04377              -4.00    -5000.00
04378              -3.60    -4600.00
04379              -2.00    -4600.00
04380              -2.80    -4400.00
04381              -3.60    -4200.00
04382              -2.00    -4000.00
04383              -2.00    -3800.00
04384              -3.60    -3800.00
04385              -2.40    -3400.00
04386              -1.20    -3400.00
04387              -2.40    -3200.00
04388              -2.00    -2800.00
04389              -1.20    -2600.00
04390              -1.20    -2600.00
04391              -2.40    -2400.00
04392              -2.00    -2000.00
04393               0.00    -1800.00
04394              -2.00    -1600.00
04395              -1.20    -1400.00
04396               0.40    -1200.00
04397              -1.20    -1000.00
04398              -1.20     -800.00
04399              -0.80     -400.00
04400               0.40     -400.00
04401              -1.20     -200.00
04402              -0.40        0.00
04403               0.40      400.00
04404               1.20      400.00
04405               1.20      600.00
04406              -1.20      800.00
04407               1.60      800.00
04408               0.80     1200.00
04409              -0.80     1400.00
04410               1.20     1800.00
04411               5.20     2000.00
04412              16.80     2200.00
04413               6.40     2400.00
04414             -33.20     2800.00
04415             -11.60     2800.00
04416               5.20     2800.00
04417              12.40     3200.00
04418              42.40     3200.00
04419             -50.00     3400.00
04420             -12.40     3800.00
04421              50.00     3800.00
04422             -50.00     3800.00
04423             -50.00     4400.00
04424              50.00     4400.00
04425             -15.20     4600.00
04426             -50.00     5200.00
04427              50.00     5000.00
04428               9.20     5400.00
04429             -32.40     5400.00
04430               7.20     5600.00
04431              25.60     6000.00
04432               2.00     6000.00
04433             -34.80     6200.00
04434              25.60     6400.00
04435              34.40     6600.00
04436             -33.20     6800.00
04437              -5.60     7000.00
04438              30.40     7000.00
04439               7.20     7200.00
04440             -20.40     7600.00
04441               8.40     7800.00
04442              32.80     8000.00
04443             -15.20     8200.00
04444              -7.60     8200.00
04445              30.80     8400.00
04446              -2.00     8400.00
04447             -15.20     8600.00
04448              24.80     8800.00
04449              14.40     9200.00
04450             -16.40     9200.00
04451              14.00     9200.00
04452              20.40     9400.00
04453              -7.60     9600.00
04454               4.00     9800.00
04455              17.60    10000.00
04456               6.00    10000.00
04457               2.00    10200.00
04458              11.60    10200.00
04459              12.00    10400.00
04460               3.60    10400.00
04461               8.40    10800.00
04462              14.40    10800.00
04463               6.80    10800.00
04464               6.00    11000.00
04465              15.60    11000.00
04466              10.80    11200.00
04467               4.40    11200.00
04468              14.00    11600.00
04469              15.20    11600.00
04470               6.00    11600.00
04471              13.20    11600.00
04472              18.00    11800.00
04473               9.20    12000.00
04474              11.60    12000.00
04475              18.00    12000.00
04476              13.20    12200.00
04477              11.60    12200.00
04478              18.00    12400.00
04479              16.80    12400.00
04480              13.60    12400.00
04481              16.80    12400.00
04482              19.60    12400.00
04483              16.80    12400.00
04484              16.80    12600.00
04485              21.20    12600.00
04486              21.20    12600.00
04487              18.00    12800.00
04488              21.60    12800.00
04489              22.80    12800.00
04490              20.80    12800.00
04491              22.80    12800.00
04492              23.60    12800.00
04493              24.40    12800.00
04494              23.20    12800.00
04495              24.40    12800.00
04496              26.00    12800.00
04497              24.40    12800.00
04498              24.80    12800.00
04499              26.40    12800.00
04500              25.20    12800.00
04501              23.60    12800.00
04502              24.40    12800.00
04503              24.40    12800.00
04504              21.60    12800.00
04505              21.20    12800.00
04506              22.80    12600.00
04507              20.00    12800.00
04508              18.80    12600.00
04509              19.60    12600.00
04510              18.00    12400.00
04511              16.80    12600.00
04512              17.20    12400.00
04513              16.80    12600.00
04514              15.20    12400.00
04515              15.60    12400.00
04516              15.20    12400.00
04517              13.60    12200.00
04518              14.80    12200.00
04519              13.60    12000.00
04520              13.20    12000.00
04521              13.60    11800.00
04522              12.40    11800.00
04523              12.00    11800.00
04524              12.00    11600.00
04525              11.60    11400.00
04526              10.80    11400.00
04527              10.40    11200.00
04528              10.40    11200.00
04529              10.00    11000.00
04530               9.60    11000.00
04531              10.40    10800.00
04532               8.80    10800.00
04533               8.80    10600.00
04534               8.80    10400.00
04535               8.40    10400.00
04536               8.40    10200.00
04537               7.60    10200.00
04538               7.60    10000.00
04539               7.60    10000.00
04540               7.20     9600.00
04541               6.80     9400.00
04542               6.80     9400.00
04543               6.00     9200.00
04544               6.00     9200.00
04545               6.00     8800.00
04546               6.00     8800.00
04547               5.60     8600.00
04548               5.20     8600.00
04549               5.60     8400.00
04550               5.20     8200.00
04551               4.40     8000.00
04552               4.40     8000.00
04553               4.40     7800.00
04554               4.00     7600.00
04555               3.60     7400.00
04556               4.00     7200.00
04557               4.00     7000.00
04558               3.60     6800.00
04559               3.60     6600.00
04560               4.00     6400.00
04561               2.80     6400.00
04562               2.80     6000.00
04563               3.20     6000.00
04564               2.80     5600.00
04565               2.40     5600.00
04566               2.40     5400.00
04567               2.80     5200.00
04568               2.40     4800.00
04569               2.00     4800.00
04570               2.40     4600.00
04571               2.00     4400.00
04572               2.00     4200.00
04573               2.00     4000.00
04574               2.00     3800.00
04575               1.60     3600.00
04576               0.80     3400.00
04577               0.80     3200.00
04578               1.20     3000.00
04579               0.80     2800.00
04580               0.80     2600.00
04581               1.20     2400.00
04582               0.80     2200.00
04583               0.80     2000.00
04584               0.80     1600.00
04585               0.80     1400.00
04586               0.40     1400.00
04587               0.40     1200.00
04588               0.80     1000.00
04589              -0.40      800.00
04590               0.40      600.00
04591               0.40      400.00
04592               0.00        0.00
04593              -0.40     -200.00
04594               0.40     -200.00
04595               2.00     -400.00
04596               0.40     -800.00
04597              -1.20     -800.00
04598              -0.40    -1200.00
04599               0.40    -1400.00
04600              -1.20    -1600.00
04601               0.40    -1600.00
04602              18.80    -2000.00
04603              13.20    -2600.00
04604             -45.60    -2600.00
04605             -18.40    -2800.00
04606               2.40    -2600.00
04607              44.00    -2800.00
04608              36.00    -3600.00
04609             -50.00    -3000.00
04610              42.00    -3400.00
04611              50.00    -4200.00
04612             -50.00    -4000.00
04613             -38.00    -4000.00
04614              50.00    -4800.00
04615             -50.00    -4400.00
04616             -50.00    -4600.00
04617              50.00    -5000.00
04618             -45.20    -5000.00
04619             -34.80    -5600.00
04620              13.20    -5600.00
04621               6.40    -5800.00
04622              18.00    -6000.00
04623             -50.00    -6000.00
04624              31.60    -6400.00
04625              44.40    -6600.00
04626             -50.00    -6600.00
04627               6.80    -6800.00
04628              29.20    -6800.00
04629             -15.20    -7400.00
04630             -31.20    -7600.00
04631               6.40    -7400.00
04632              34.00    -8000.00
04633             -48.40    -8000.00
04634              -6.00    -8200.00
04635              30.40    -8400.00
04636             -30.00    -8400.00
04637             -18.40    -8800.00
04638              14.80    -8800.00
04639               2.00    -9000.00
04640             -32.80    -9000.00
04641               6.80    -9200.00
04642               8.40    -9200.00
04643             -31.20    -9400.00
04644               0.80    -9600.00
04645              -0.40    -9800.00
04646             -12.40   -10000.00
04647             -10.40   -10000.00
04648              -4.40   -10200.00
04649              -4.40   -10400.00
04650             -17.20   -10400.00
04651              -4.80   -10600.00
04652              -5.60   -10600.00
04653             -15.60   -10800.00
04654              -9.20   -10800.00
04655              -2.40   -11000.00
04656             -13.60   -11000.00
04657             -16.40   -11200.00
04658              -3.60   -11400.00
04659             -12.00   -11400.00
04660             -18.80   -11400.00
04661              -7.60   -11600.00
04662              -7.60   -11600.00
04663             -20.40   -12000.00
04664             -12.80   -12000.00
04665              -7.60   -12000.00
04666             -18.80   -12000.00
04667             -18.40   -12200.00
04668             -10.00   -12200.00
04669             -14.00   -12400.00
04670             -21.20   -12200.00
04671             -15.20   -12400.00
04672             -14.80   -12400.00
04673             -20.40   -12400.00
04674             -20.40   -12400.00
04675             -16.40   -12600.00
04676             -18.40   -12400.00
04677             -23.60   -12800.00
04678             -20.00   -12800.00
04679             -19.60   -12800.00
04680             -24.80   -12800.00
04681             -24.00   -12800.00
04682             -21.20   -12800.00
04683             -23.20   -12800.00
04684             -26.80   -13000.00
04685             -23.60   -12800.00
04686             -24.40   -12800.00
04687             -27.60   -12800.00
04688             -26.00   -13000.00
04689             -24.80   -12800.00
04690             -26.40   -12800.00
04691             -26.80   -12800.00
04692             -26.00   -13000.00
04693             -24.40   -12800.00
04694             -24.80   -12800.00
04695             -24.40   -12800.00
04696             -21.60   -12600.00
04697             -21.20   -12800.00
04698             -21.60   -12800.00
04699             -20.40   -12600.00
04700             -18.40   -12400.00
04701             -18.40   -12400.00
04702             -18.80   -12400.00
04703             -17.20   -12400.00
04704             -16.40   -12400.00
04705             -17.20   -12400.00
04706             -16.40   -12200.00
04707             -15.20   -12400.00
04708             -14.80   -12200.00
04709             -15.20   -12000.00
04710             -14.00   -12000.00
04711             -12.80   -12000.00
04712             -14.00   -12000.00
04713             -13.60   -11600.00
04714             -12.00   -11600.00
04715             -11.60   -11600.00
04716             -12.00   -11400.00
04717             -11.60   -11400.00
04718             -10.40   -11200.00
04719             -10.80   -11000.00
04720             -11.20   -11000.00
04721              -9.20   -10800.00
04722              -9.20   -10800.00
04723             -10.40   -10600.00
04724              -9.20   -10600.00
04725              -8.40   -10400.00
04726              -9.20   -10400.00
04727              -9.20   -10200.00
04728              -7.60   -10000.00
04729              -7.60    -9800.00
04730              -8.40    -9800.00
04731              -7.60    -9800.00
04732              -6.80    -9600.00
04733              -7.60    -9200.00
04734              -7.20    -9200.00
04735              -6.00    -9200.00
04736              -6.00    -9000.00
04737              -6.80    -8800.00
04738              -6.00    -8400.00
04739              -6.00    -8800.00
04740              -6.00    -8400.00
04741              -6.00    -8400.00
04742              -5.60    -8000.00
04743              -4.40    -8000.00
04744              -6.80    -7800.00
04745              -5.20    -7600.00
04746              -5.20    -7200.00
04747              -5.60    -7200.00
04748              -4.40    -6800.00
04749              -4.40    -6800.00
04750              -4.40    -6600.00
04751              -4.00    -6400.00
04752              -4.40    -6400.00
04753              -4.40    -6000.00
04754              -4.00    -5800.00
04755              -4.00    -5600.00
04756              -3.60    -5600.00
04757              -2.80    -5200.00
04758              -3.60    -5000.00
04759              -4.00    -4800.00
04760              -2.80    -4600.00
04761              -2.80    -4400.00
04762              -2.40    -4400.00
04763              -2.40    -4000.00
04764              -2.40    -4000.00
04765              -2.40    -3800.00
04766              -2.40    -3600.00
04767              -2.40    -3400.00
04768              -2.00    -3200.00
04769              -1.20    -3000.00
04770              -2.00    -2600.00
04771              -2.00    -2600.00
04772              -1.20    -2400.00
04773              -2.00    -2000.00
04774              -1.20    -2000.00
04775              -1.20    -1800.00
04776              -0.80    -1200.00
04777              -0.80    -1200.00
04778              -1.20    -1000.00
04779              -0.80     -800.00
04780              -0.40     -800.00
04781              -1.20     -400.00
04782               0.40     -200.00
04783               0.00        0.00
04784              -0.40      200.00
04785               0.80      400.00
04786               2.80      600.00
04787              -0.40      800.00
04788              -0.80      800.00
04789               2.00     1200.00
04790               1.20     1200.00
04791              -0.80     1800.00
04792               3.60     1800.00
04793              12.40     2000.00
04794              18.40     2200.00
04795             -22.40     2600.00
04796             -27.60     2800.00
04797               6.80     2800.00
04798               2.80     3000.00
04799              45.20     3200.00
04800             -12.00     3200.00
04801             -50.00     3600.00
04802              50.00     4000.00
04803              38.80     3800.00
04804             -50.00     4200.00
04805              50.00     4600.00
04806              50.00     4400.00
04807             -50.00     4800.00
04808              24.80     5200.00
04809              48.80     5200.00
04810             -34.40     5600.00
04811              -8.40     5600.00
04812              20.00     5600.00
04813              18.40     6000.00
04814             -26.80     6200.00
04815              -4.00     6200.00
04816              47.20     6600.00
04817             -10.80     6800.00
04818             -24.80     6800.00
04819              22.80     7000.00
04820              21.20     7200.00
04821             -15.20     7600.00
04822             -10.40     7600.00
04823              31.60     7800.00
04824               5.20     8200.00
04825             -22.00     8200.00
04826              22.80     8400.00
04827              15.60     8400.00
04828             -18.80     8600.00
04829              10.80     8800.00
04830              26.80     9000.00
04831             -10.80     9200.00
04832              -0.80     9200.00
04833              26.00     9400.00
04834              -0.40     9600.00
04835              -4.40     9600.00
04836              15.60     9800.00
04837              10.40    10000.00
04838               2.00    10000.00
04839               7.60    10200.00
04840              13.20    10400.00
04841               5.60    10400.00
04842               6.00    10600.00
04843              12.40    10800.00
04844              10.00    10800.00
04845               5.60    10800.00
04846              12.00    11000.00
04847              14.00    11000.00
04848               6.00    11200.00
04849              10.00    11200.00
04850              16.00    11400.00
04851               9.20    11600.00
04852               8.80    11600.00
04853              17.20    11800.00
04854              13.20    11800.00
04855               8.80    12000.00
04856              16.40    12000.00
04857              16.40    12000.00
04858              11.60    12200.00
04859              15.20    12400.00
04860              18.80    12200.00
04861              15.20    12400.00
04862              14.80    12400.00
04863              18.80    12400.00
04864              18.80    12600.00
04865              16.40    12400.00
04866              18.40    12600.00
04867              22.00    12800.00
04868              19.60    12600.00
04869              18.80    12800.00
04870              23.20    12800.00
04871              22.00    12600.00
04872              20.00    12800.00
04873              23.60    12800.00
04874              24.80    12800.00
04875              22.80    13000.00
04876              24.40    12800.00
04877              26.00    12800.00
04878              24.40    12800.00
04879              24.40    12800.00
04880              26.40    12800.00
04881              26.00    12800.00
04882              24.80    12800.00
04883              24.40    12800.00
04884              23.60    12800.00
04885              22.80    12800.00
04886              21.60    12800.00
04887              21.20    12600.00
04888              21.20    12600.00
04889              20.00    12600.00
04890              18.40    12600.00
04891              18.80    12600.00
04892              18.40    12600.00
04893              16.40    12600.00
04894              16.80    12400.00
04895              16.80    12400.00
04896              15.20    12400.00
04897              14.00    12400.00
04898              15.20    12200.00
04899              14.40    12200.00
04900              13.60    12000.00
04901              13.60    12000.00
04902              13.20    11800.00
04903              12.40    11800.00
04904              11.60    11800.00
04905              11.60    11600.00
04906              11.60    11600.00
04907              10.80    11400.00
04908              11.20    11200.00
04909              10.80    11200.00
04910              10.40    11200.00
04911              10.00    11000.00
04912              10.00    10800.00
04913               8.80    10800.00
04914               8.80    10600.00
04915               8.40    10400.00
04916               8.40    10400.00
04917               8.40    10200.00
04918               8.40    10000.00
04919               7.60    10000.00
04920               7.60     9800.00
04921               7.20     9800.00
04922               6.80     9600.00
04923               6.80     9400.00
04924               6.80     9200.00
04925               6.00     9200.00
04926               6.40     9200.00
04927               6.00     8800.00
04928               5.60     8800.00
04929               5.60     8600.00
04930               5.60     8600.00
04931               5.20     8200.00
04932               5.20     8200.00
04933               4.80     8000.00
04934               4.80     7600.00
04935               4.40     7800.00
04936               4.00     7400.00
04937               4.40     7200.00
04938               4.00     7000.00
04939               3.60     6800.00
04940               4.00     6800.00
04941               3.60     6400.00
04942               3.20     6400.00
04943               3.20     6200.00
04944               3.20     6000.00
04945               2.40     5800.00
04946               3.60     5600.00
04947               2.80     5400.00
04948               2.40     5200.00
04949               2.40     5000.00
04950               2.00     4800.00
04951               2.40     4600.00
04952               2.00     4400.00
04953               2.00     4400.00
04954               2.00     4000.00
04955               1.60     3800.00
04956               1.60     3600.00
04957               1.20     3400.00
04958               0.80     3200.00
04959               1.20     3000.00
04960               1.20     2800.00
04961               1.20     2800.00
04962               0.80     2400.00
04963               0.80     2200.00
04964               0.80     2200.00
04965               0.40     1800.00
04966               0.80     1600.00
04967               0.80     1400.00
04968               0.40     1200.00
04969               0.40     1000.00
04970               0.40      800.00
04971               0.40      600.00
04972               0.00      400.00
04973              -0.40      200.00
04974               0.40        0.00
04975              -0.40     -200.00
04976               0.80     -400.00
04977               0.80     -800.00
04978              -1.20     -800.00
04979              -1.20    -1200.00
04980               0.80    -1200.00
04981              -0.80    -1600.00
04982              -0.80    -1600.00
04983               7.20    -1800.00
04984              30.00    -2200.00
04985             -26.00    -2600.00
04986             -40.40    -2800.00
04987               1.20    -2800.00
04988              15.60    -2800.00
04989              50.00    -3200.00
04990             -50.00    -3400.00
04991             -50.00    -3000.00
04992              50.00    -4000.00
04993             -28.40    -4000.00
04994             -50.00    -4000.00
04995              50.00    -4400.00
04996              35.60    -4400.00
04997             -50.00    -4400.00
04998              50.00    -5000.00
04999              34.80    -5000.00
05000             -50.00    -5600.00
