Unit:(mV)
                     CH1         CH2
Frequency              ? 262.471 kHz
00001               0.40     4800.00
00002               0.40     4600.00
00003               0.40     4000.00
00004               0.40     4000.00
00005               0.40     3800.00
00006               0.40     3600.00
00007              -0.40     3200.00
00008               0.40     3200.00
00009              -0.40     2800.00
00010              -0.40     2600.00
00011               0.40     2200.00
00012               0.00     2000.00
00013               0.40     1600.00
00014              -0.40     1400.00
00015               0.40     1000.00
00016               0.40      800.00
00017              -0.80      600.00
00018              -0.40      200.00
00019               0.40        0.00
00020              -0.40     -200.00
00021               0.40     -400.00
00022               2.40     -800.00
00023              -0.80     -800.00
00024              -2.00    -1200.00
00025               0.80    -1400.00
00026               0.40    -1800.00
00027              -1.20    -2000.00
00028               4.80    -2000.00
00029              32.80    -2600.00
00030             -14.00    -3200.00
00031             -50.00    -3600.00
00032              14.00    -3600.00
00033               6.80    -3600.00
00034              -7.20    -3600.00
00035              50.00    -4400.00
00036             -50.00    -4200.00
00037               9.20    -4400.00
00038              50.00    -5200.00
00039             -50.00    -5000.00
00040              -3.60    -5600.00
00041              50.00    -6000.00
00042             -50.00    -5800.00
00043              13.60    -6400.00
00044               4.00    -6400.00
00045               4.40    -6800.00
00046              12.00    -7200.00
00047             -50.00    -7200.00
00048              49.60    -7800.00
00049              -2.80    -7600.00
00050             -44.40    -8000.00
00051              35.60    -8400.00
00052               8.40    -8200.00
00053             -15.60    -8800.00
00054             -23.60    -8800.00
00055              35.20    -9200.00
00056              -6.80    -9400.00
00057             -34.80    -9600.00
00058              31.60   -10000.00
00059              -2.40   -10000.00
00060              -8.40   -10400.00
00061              -8.80   -10400.00
00062              13.60   -10800.00
00063              -2.40   -10800.00
00064             -22.80   -11000.00
00065              21.20   -11600.00
00066              -2.40   -11400.00
00067             -12.00   -11800.00
00068               2.00   -12000.00
00069               7.20   -12200.00
00070             -10.00   -12200.00
00071              -7.60   -12400.00
00072              10.00   -12800.00
00073              -2.80   -12800.00
00074              -8.40   -13000.00
00075               2.80   -13000.00
00076               4.00   -13400.00
00077             -11.20   -13400.00
00078               0.40   -13600.00
00079               3.60   -13800.00
00080              -6.00   -14000.00
00081              -4.40   -14000.00
00082               4.40   -14200.00
00083              -2.00   -14400.00
00084              -8.80   -14600.00
00085               2.80   -14600.00
00086              -1.20   -14800.00
00087              -6.00   -14800.00
00088              -1.20   -15000.00
00089               2.40   -15000.00
00090              -4.80   -15400.00
00091              -5.20   -15400.00
00092               1.60   -15600.00
00093              -3.20   -15600.00
00094              -5.20   -15600.00
00095              -0.40   -15600.00
00096               0.80   -16000.00
00097              -4.40   -15800.00
00098              -3.60   -16000.00
00099               0.80   -16200.00
00100              -3.60   -16200.00
00101              -4.40   -16200.00
00102               0.00   -16200.00
00103              -0.80   -16400.00
00104              -4.40   -16400.00
00105              -2.40   -16400.00
00106              -0.80   -16400.00
00107              -3.60   -16400.00
00108              -4.00   -16400.00
00109              -0.40   -16800.00
00110              -1.60   -16600.00
00111              -4.40   -16600.00
00112              -2.00   -16600.00
00113              -1.20   -16600.00
00114              -2.80   -16600.00
00115              -2.40   -16600.00
00116              -0.40   -16400.00
00117              -2.00   -16600.00
00118              -3.60   -16600.00
00119              -2.00   -16600.00
00120              -2.00   -16400.00
00121              -2.80   -16400.00
00122              -2.00   -16400.00
00123              -1.20   -16400.00
00124              -1.60   -16400.00
00125              -2.80   -16400.00
00126              -2.40   -16200.00
00127              -2.00   -16200.00
00128              -2.40   -16200.00
00129              -2.40   -16200.00
00130              -1.20   -16200.00
00131              -2.00   -16000.00
00132              -2.80   -16000.00
00133              -2.00   -15800.00
00134              -2.00   -15800.00
00135              -2.40   -15600.00
00136              -2.40   -15600.00
00137              -1.20   -15400.00
00138              -2.00   -15400.00
00139              -2.80   -15200.00
00140              -2.00   -15200.00
00141              -1.60   -15000.00
00142              -2.00   -14800.00
00143              -2.40   -14800.00
00144              -1.20   -14800.00
00145              -2.00   -14400.00
00146              -2.40   -14400.00
00147              -2.00   -14200.00
00148              -1.20   -14000.00
00149              -2.40   -13800.00
00150              -2.40   -13800.00
00151              -2.00   -13400.00
00152              -1.20   -13400.00
00153              -2.80   -13200.00
00154              -2.40   -13000.00
00155              -1.20   -13000.00
00156              -2.40   -12800.00
00157              -2.40   -12600.00
00158              -1.20   -12400.00
00159              -2.00   -12200.00
00160              -2.40   -12000.00
00161              -2.00   -11800.00
00162              -1.20   -11600.00
00163              -2.00   -11400.00
00164              -2.00   -11400.00
00165              -1.20   -11000.00
00166              -2.40   -10800.00
00167              -2.00   -10600.00
00168              -1.60   -10400.00
00169              -1.20   -10200.00
00170              -2.00   -10000.00
00171              -1.20    -9600.00
00172              -2.40    -9600.00
00173              -1.60    -9400.00
00174              -1.20    -9200.00
00175              -2.00    -9000.00
00176              -1.20    -8800.00
00177              -1.20    -8400.00
00178              -1.60    -8200.00
00179              -1.20    -8000.00
00180              -0.80    -7600.00
00181              -2.00    -7600.00
00182              -1.20    -7200.00
00183              -0.80    -7200.00
00184              -1.20    -6800.00
00185              -1.20    -6600.00
00186              -0.80    -6400.00
00187              -1.20    -6000.00
00188              -1.20    -5600.00
00189              -0.40    -5400.00
00190              -0.80    -5200.00
00191              -1.20    -5000.00
00192              -0.80    -4600.00
00193              -1.20    -4400.00
00194              -0.80    -4200.00
00195              -0.40    -4000.00
00196              -0.80    -3600.00
00197              -0.40    -3400.00
00198              -0.40    -3200.00
00199              -0.40    -3000.00
00200              -0.80    -2600.00
00201              -1.20    -2400.00
00202               0.40    -2000.00
00203              -0.40    -1800.00
00204              -0.80    -1600.00
00205              -0.80    -1400.00
00206               0.40    -1000.00
00207              -0.40     -800.00
00208              -0.80     -400.00
00209              -0.40     -200.00
00210               0.80        0.00
00211               0.40      400.00
00212               0.80      600.00
00213               2.00      800.00
00214              -0.40     1200.00
00215              -0.80     1400.00
00216               1.20     1800.00
00217               1.20     1800.00
00218              -2.00     2000.00
00219               5.20     2400.00
00220              23.60     2800.00
00221              -0.40     3200.00
00222             -43.60     3200.00
00223              -2.00     3600.00
00224              24.80     3600.00
00225             -30.00     4000.00
00226              16.80     4400.00
00227              40.40     4400.00
00228             -50.00     4800.00
00229              34.40     5200.00
00230              48.80     5200.00
00231             -50.00     5400.00
00232              12.00     5800.00
00233              29.20     6000.00
00234             -13.60     6400.00
00235              -5.20     6400.00
00236              -2.80     6800.00
00237              26.40     7200.00
00238             -20.00     7200.00
00239             -14.80     7600.00
00240              34.00     7800.00
00241             -16.00     8200.00
00242             -14.80     8400.00
00243              26.00     8600.00
00244               5.60     8800.00
00245             -23.60     8800.00
00246               2.80     9200.00
00247              22.00     9400.00
00248             -14.00     9600.00
00249              -7.20    10000.00
00250              15.20    10200.00
00251               5.60    10400.00
00252             -11.60    10600.00
00253               0.40    10800.00
00254              15.60    11000.00
00255             -10.00    11200.00
00256              -4.40    11600.00
00257              14.80    11600.00
00258              -0.40    11800.00
00259              -8.80    12000.00
00260               8.40    12000.00
00261               6.80    12400.00
00262              -9.60    12600.00
00263               1.20    12800.00
00264              11.60    12800.00
00265              -2.40    13200.00
00266              -4.40    13200.00
00267               8.40    13400.00
00268               2.80    13400.00
00269              -6.00    13800.00
00270               4.00    13600.00
00271               6.40    14000.00
00272              -4.00    14000.00
00273               0.40    14400.00
00274               8.40    14400.00
00275              -1.20    14600.00
00276              -2.40    14800.00
00277               6.80    14800.00
00278               2.00    14800.00
00279              -2.80    15000.00
00280               3.60    15000.00
00281               4.40    15400.00
00282              -1.20    15400.00
00283               0.80    15400.00
00284               4.00    15600.00
00285               0.40    15600.00
00286               0.00    15600.00
00287               2.80    16000.00
00288               2.80    15800.00
00289               0.40    16000.00
00290               1.20    16000.00
00291               2.80    16000.00
00292               0.80    16000.00
00293               0.40    16400.00
00294               3.60    16000.00
00295               2.00    16400.00
00296               0.40    16400.00
00297               2.40    16400.00
00298               2.00    16400.00
00299               0.40    16400.00
00300               1.60    16600.00
00301               2.80    16600.00
00302               0.80    16600.00
00303               0.80    16600.00
00304               2.00    16600.00
00305               2.00    16600.00
00306               0.80    16400.00
00307               2.40    16400.00
00308               2.40    16400.00
00309               1.20    16400.00
00310               1.20    16400.00
00311               2.00    16400.00
00312               1.60    16400.00
00313               1.60    16400.00
00314               2.00    16400.00
00315               2.00    16400.00
00316               2.00    16400.00
00317               1.20    16000.00
00318               2.00    16200.00
00319               1.20    16000.00
00320               1.20    16000.00
00321               2.40    16000.00
00322               2.00    15800.00
00323               2.00    15800.00
00324               2.00    15800.00
00325               1.20    15600.00
00326               1.20    15600.00
00327               2.40    15600.00
00328               1.20    15400.00
00329               2.00    15200.00
00330               2.00    15200.00
00331               1.20    15000.00
00332               2.00    14800.00
00333               2.00    14800.00
00334               1.20    14600.00
00335               1.60    14400.00
00336               2.00    14400.00
00337               1.20    14200.00
00338               1.60    14200.00
00339               1.20    14000.00
00340               1.20    13600.00
00341               1.60    13600.00
00342               1.20    13600.00
00343               1.20    13400.00
00344               1.20    13200.00
00345               0.80    12800.00
00346               0.80    12800.00
00347               1.60    12600.00
00348               0.80    12400.00
00349               0.40    12400.00
00350               1.20    12000.00
00351               2.00    12000.00
00352              -0.80    11800.00
00353               2.00    11600.00
00354               2.00    11400.00
00355              -1.20    11200.00
00356               2.40    11000.00
00357               2.00    10800.00
00358              -1.20    10400.00
00359               2.80    10400.00
00360               0.40    10200.00
00361               0.40    10000.00
00362               1.20     9600.00
00363               0.80     9400.00
00364               0.40     9200.00
00365               0.80     9200.00
00366               0.80     8800.00
00367               0.40     8400.00
00368               1.20     8200.00
00369               0.40     8000.00
00370              -0.40     8000.00
00371               2.00     7600.00
00372              -0.40     7200.00
00373              -0.40     7000.00
00374               2.00     6800.00
00375               1.20     6800.00
00376              -0.40     6400.00
00377               0.40     6200.00
00378               2.00     6000.00
00379              -0.80     5600.00
00380              -0.80     5400.00
00381               2.00     5200.00
00382               0.80     4800.00
00383              -1.20     4400.00
00384               0.80     4400.00
00385               2.00     3800.00
00386              -1.20     3800.00
00387               0.40     3600.00
00388               2.00     3200.00
00389              -0.40     2800.00
00390               0.40     2800.00
00391               0.80     2600.00
00392              -0.40     2200.00
00393              -0.80     2000.00
00394               0.40     1800.00
00395               0.40     1400.00
00396              -0.80     1200.00
00397               0.40      800.00
00398               0.40      400.00
00399              -0.80      200.00
00400               0.40        0.00
00401               0.40     -200.00
00402               0.40     -400.00
00403               2.80     -800.00
00404              -0.40    -1000.00
00405              -1.60    -1400.00
00406               0.40    -1600.00
00407               0.80    -1800.00
00408              -1.20    -2000.00
00409               4.00    -2200.00
00410              33.20    -2600.00
00411             -13.60    -3200.00
00412             -50.00    -3400.00
00413              13.20    -3600.00
00414               6.80    -3600.00
00415              -6.80    -3400.00
00416              50.00    -4400.00
00417             -50.00    -4200.00
00418              10.80    -4400.00
00419              50.00    -5200.00
00420             -50.00    -5000.00
00421              -2.40    -5600.00
00422              50.00    -5800.00
00423             -50.00    -5800.00
00424              14.80    -6400.00
00425               3.60    -6400.00
00426               4.80    -6800.00
00427              11.60    -7200.00
00428             -50.00    -7200.00
00429              49.20    -7800.00
00430              -3.60    -7600.00
00431             -44.40    -8000.00
00432              35.60    -8400.00
00433               8.00    -8200.00
00434             -15.60    -9000.00
00435             -23.60    -8800.00
00436              35.20    -9200.00
00437              -6.80    -9200.00
00438             -34.40    -9600.00
00439              31.20   -10000.00
00440              -2.40   -10000.00
00441              -8.40   -10400.00
00442             -10.00   -10400.00
00443              13.60   -10800.00
00444              -2.00   -10800.00
00445             -23.60   -11000.00
00446              20.80   -11400.00
00447              -1.20   -11600.00
00448             -12.40   -11600.00
00449               1.20   -12000.00
00450               8.40   -12200.00
00451             -10.40   -12200.00
00452              -8.40   -12600.00
00453              10.40   -12800.00
00454              -2.40   -12800.00
00455              -8.40   -13000.00
00456               2.00   -13200.00
00457               4.00   -13400.00
00458             -10.00   -13400.00
00459              -0.80   -13800.00
00460               2.40   -13800.00
00461              -4.00   -14000.00
00462              -4.40   -14000.00
00463               2.80   -14200.00
00464              -0.40   -14400.00
00465              -7.60   -14600.00
00466               1.60   -14800.00
00467               0.40   -14800.00
00468              -5.60   -14800.00
00469              -2.00   -15000.00
00470               2.40   -15200.00
00471              -4.40   -15200.00
00472              -5.20   -15200.00
00473               2.00   -15600.00
00474              -3.60   -15600.00
00475              -5.20   -15600.00
00476               0.40   -15600.00
00477               0.40   -16000.00
00478              -5.60   -16000.00
00479              -2.80   -16000.00
00480               0.80   -16200.00
00481              -4.40   -16000.00
00482              -4.00   -16200.00
00483               0.80   -16200.00
00484              -2.00   -16400.00
00485              -4.40   -16400.00
00486              -2.00   -16400.00
00487              -1.60   -16400.00
00488              -4.00   -16400.00
00489              -2.40   -16400.00
00490              -0.40   -16400.00
00491              -2.40   -16600.00
00492              -3.60   -16400.00
00493              -1.60   -16600.00
00494              -2.40   -16600.00
00495              -2.80   -16400.00
00496              -2.40   -16400.00
00497              -1.20   -16600.00
00498              -2.40   -16600.00
00499              -2.80   -16600.00
00500              -2.00   -16400.00
00501              -2.40   -16400.00
00502              -2.80   -16400.00
00503              -2.00   -16400.00
00504              -2.00   -16400.00
00505              -2.00   -16400.00
00506              -2.40   -16200.00
00507              -2.40   -16200.00
00508              -2.40   -16200.00
00509              -2.40   -16200.00
00510              -2.00   -16200.00
00511              -2.00   -16000.00
00512              -2.40   -16000.00
00513              -2.00   -16000.00
00514              -2.00   -15800.00
00515              -2.40   -15600.00
00516              -2.00   -15600.00
00517              -2.00   -15400.00
00518              -2.40   -15400.00
00519              -2.00   -15400.00
00520              -2.40   -15200.00
00521              -2.40   -15200.00
00522              -1.60   -15000.00
00523              -2.00   -14800.00
00524              -2.00   -14800.00
00525              -2.00   -14600.00
00526              -2.00   -14600.00
00527              -2.00   -14400.00
00528              -2.00   -14000.00
00529              -2.00   -14000.00
00530              -1.20   -13800.00
00531              -2.00   -13800.00
00532              -2.00   -13600.00
00533              -1.20   -13400.00
00534              -2.00   -13200.00
00535              -2.00   -13000.00
00536              -1.20   -13000.00
00537              -1.60   -12800.00
00538              -2.00   -12600.00
00539              -2.00   -12400.00
00540              -2.00   -12200.00
00541              -2.00   -12200.00
00542              -2.00   -12000.00
00543              -1.20   -11600.00
00544              -1.60   -11400.00
00545              -1.60   -11400.00
00546              -2.00   -11000.00
00547              -1.60   -10800.00
00548              -1.20   -10800.00
00549              -1.60   -10400.00
00550              -1.20   -10200.00
00551              -2.00   -10000.00
00552              -1.20    -9600.00
00553              -1.60    -9600.00
00554              -2.00    -9600.00
00555              -1.20    -9200.00
00556              -1.20    -8800.00
00557              -1.20    -8800.00
00558              -0.80    -8400.00
00559              -1.20    -8200.00
00560              -1.20    -8000.00
00561              -0.80    -7600.00
00562              -1.60    -7400.00
00563              -1.20    -7200.00
00564              -1.20    -7000.00
00565              -1.20    -6800.00
00566              -1.20    -6400.00
00567              -0.80    -6200.00
00568              -0.80    -6000.00
00569              -0.80    -5800.00
00570              -0.80    -5600.00
00571              -0.80    -5200.00
00572              -1.20    -5000.00
00573              -1.20    -4600.00
00574              -0.80    -4400.00
00575              -0.80    -4200.00
00576              -0.80    -4000.00
00577              -0.40    -3600.00
00578              -0.80    -3400.00
00579              -0.80    -3200.00
00580              -0.40    -2800.00
00581              -0.80    -2600.00
00582              -0.80    -2400.00
00583              -0.40    -2000.00
00584              -0.40    -1800.00
00585              -0.40    -1600.00
00586              -0.40    -1200.00
00587              -0.40    -1000.00
00588               0.00     -800.00
00589              -0.80     -400.00
00590               0.40     -200.00
00591               0.40        0.00
00592              -0.40      400.00
00593               2.00      400.00
00594               1.60      800.00
00595              -2.00     1000.00
00596               0.40     1200.00
00597               2.80     1800.00
00598              -0.80     1800.00
00599              -0.40     2000.00
00600               8.40     2400.00
00601              21.20     2800.00
00602              -2.00     3200.00
00603             -39.20     3400.00
00604              -2.00     3600.00
00605              21.20     3600.00
00606             -28.00     3800.00
00607              18.40     4400.00
00608              37.20     4400.00
00609             -50.00     4800.00
00610              36.40     5200.00
00611              46.80     5200.00
00612             -50.00     5600.00
00613              12.40     5800.00
00614              29.60     6000.00
00615             -13.60     6400.00
00616              -5.20     6400.00
00617              -2.40     7000.00
00618              26.80     7200.00
00619             -20.40     7200.00
00620             -14.80     7600.00
00621              34.40     7800.00
00622             -15.60     8200.00
00623             -14.80     8400.00
00624              25.20     8600.00
00625               6.00     8800.00
00626             -23.60     9000.00
00627               2.80     9200.00
00628              21.60     9600.00
00629             -14.00     9800.00
00630              -6.80    10000.00
00631              14.40    10200.00
00632               4.40    10400.00
00633             -10.80    10400.00
00634               0.80    10800.00
00635              14.00    11000.00
00636             -10.00    11200.00
00637              -3.20    11400.00
00638              14.00    11600.00
00639              -1.20    11800.00
00640              -8.40    12000.00
00641               8.40    12200.00
00642               6.00    12400.00
00643              -9.20    12600.00
00644               2.00    12800.00
00645              10.40    13000.00
00646              -2.40    13000.00
00647              -3.60    13200.00
00648               8.40    13200.00
00649               2.00    13400.00
00650              -5.60    13600.00
00651               4.00    14000.00
00652               6.00    14000.00
00653              -4.00    14200.00
00654               0.40    14200.00
00655               8.40    14400.00
00656              -2.00    14800.00
00657              -2.00    14800.00
00658               6.00    14800.00
00659               1.20    14800.00
00660              -2.00    15000.00
00661               4.00    15200.00
00662               3.60    15200.00
00663              -1.20    15400.00
00664               2.00    15600.00
00665               3.60    15600.00
00666               0.40    15800.00
00667               0.80    15600.00
00668               2.80    16000.00
00669               2.00    16000.00
00670               0.40    16000.00
00671               0.80    16000.00
00672               2.40    16200.00
00673               0.80    16000.00
00674               0.40    16200.00
00675               2.80    16400.00
00676               2.00    16400.00
00677               0.40    16400.00
00678               2.00    16400.00
00679               2.00    16400.00
00680               0.80    16400.00
00681               2.00    16400.00
00682               2.40    16400.00
00683               1.20    16600.00
00684               0.80    16600.00
00685               2.00    16600.00
00686               1.20    16400.00
00687               0.80    16600.00
00688               2.00    16600.00
00689               2.00    16400.00
00690               1.60    16600.00
00691               1.20    16400.00
00692               2.00    16400.00
00693               2.00    16400.00
00694               1.60    16400.00
00695               1.20    16400.00
00696               2.40    16400.00
00697               2.00    16400.00
00698               1.20    16200.00
00699               2.00    16200.00
00700               2.00    16000.00
00701               0.80    16000.00
00702               2.00    16000.00
00703               1.20    15800.00
00704               1.20    15800.00
00705               1.20    15800.00
00706               1.20    15600.00
00707               1.20    15600.00
00708               2.40    15600.00
00709               1.60    15400.00
00710               2.00    15200.00
00711               2.00    15200.00
00712               1.20    15000.00
00713               1.20    14800.00
00714               2.00    14800.00
00715               1.20    14600.00
00716               1.20    14600.00
00717               2.00    14400.00
00718               1.20    14200.00
00719               1.20    14000.00
00720               1.20    13800.00
00721               2.00    13800.00
00722               1.20    13600.00
00723               1.20    13400.00
00724               1.20    13200.00
00725               1.60    13200.00
00726               1.20    13000.00
00727               1.20    12800.00
00728               1.20    12800.00
00729               1.20    12600.00
00730               1.20    12400.00
00731               1.20    12000.00
00732               1.20    11800.00
00733               1.20    11800.00
00734               1.20    11600.00
00735               0.80    11200.00
00736               0.80    11000.00
00737               0.80    11000.00
00738               0.80    10800.00
00739               0.80    10600.00
00740               0.80    10200.00
00741               1.20    10200.00
00742               0.80    10000.00
00743               0.80     9600.00
00744               0.80     9400.00
00745               0.40     9200.00
00746               0.80     8800.00
00747               0.80     8800.00
00748               0.80     8600.00
00749               0.40     8400.00
00750               0.80     8000.00
00751               0.80     7800.00
00752               0.40     7600.00
00753               0.80     7200.00
00754               0.40     7200.00
00755               0.40     6800.00
00756               0.40     6600.00
00757               0.80     6400.00
00758               0.40     6000.00
00759               0.40     6000.00
00760               0.40     5600.00
00761               0.40     5200.00
00762               0.40     5000.00
00763               0.40     4800.00
00764               0.40     4600.00
00765               0.40     4200.00
00766               0.40     4000.00
00767               0.40     3600.00
00768               0.40     3600.00
00769               0.40     3200.00
00770               0.40     3000.00
00771               0.40     2800.00
00772               0.40     2400.00
00773               0.40     2200.00
00774              -0.40     2000.00
00775               0.40     1600.00
00776               0.40     1400.00
00777              -0.40     1200.00
00778              -0.40      800.00
00779               0.40      600.00
00780              -0.40      200.00
00781              -0.40        0.00
00782               0.40     -200.00
00783               0.80     -400.00
00784               2.40     -800.00
00785              -0.80    -1000.00
00786              -1.20    -1200.00
00787               0.80    -1400.00
00788               0.80    -1800.00
00789              -1.20    -2000.00
00790               4.80    -2000.00
00791              32.80    -2600.00
00792             -14.00    -3200.00
00793             -50.00    -3400.00
00794              13.60    -3600.00
00795               6.00    -3600.00
00796              -6.00    -3600.00
00797              50.00    -4400.00
00798             -50.00    -4000.00
00799              11.60    -4400.00
00800              50.00    -5400.00
00801             -50.00    -5000.00
00802              -1.20    -5600.00
00803              50.00    -5800.00
00804             -50.00    -5800.00
00805              14.80    -6400.00
00806               3.60    -6400.00
00807               5.20    -6800.00
00808              10.40    -7200.00
00809             -50.00    -7200.00
00810              50.00    -7800.00
00811              -5.20    -7600.00
00812             -42.80    -8000.00
00813              36.40    -8400.00
00814               5.20    -8200.00
00815             -14.00    -8800.00
00816             -22.80    -9000.00
00817              34.00    -9200.00
00818              -6.80    -9600.00
00819             -33.20    -9600.00
00820              30.80    -9800.00
00821              -4.00   -10000.00
00822              -6.80   -10400.00
00823             -10.00   -10600.00
00824              12.40   -10600.00
00825              -1.20   -10800.00
00826             -22.80   -11000.00
00827              20.00   -11400.00
00828              -2.40   -11400.00
00829             -12.00   -11600.00
00830               1.60   -12000.00
00831               7.20   -12200.00
00832              -9.20   -12200.00
00833              -8.40   -12400.00
00834               9.20   -12800.00
00835              -2.80   -12800.00
00836              -8.40   -13000.00
00837               2.80   -13200.00
00838               4.00   -13200.00
00839             -10.80   -13600.00
00840               0.40   -13600.00
00841               3.60   -13800.00
00842              -6.00   -14000.00
00843              -4.00   -14000.00
00844               4.40   -14400.00
00845              -2.40   -14400.00
00846              -7.60   -14600.00
00847               3.60   -14800.00
00848              -2.00   -14600.00
00849              -5.60   -14800.00
00850              -0.80   -15000.00
00851               2.00   -15200.00
00852              -4.40   -15200.00
00853              -3.20   -15400.00
00854               1.20   -15400.00
00855              -4.00   -15600.00
00856              -4.40   -15600.00
00857               0.00   -15600.00
00858               0.40   -15800.00
00859              -4.40   -15800.00
00860              -2.80   -16000.00
00861               0.40   -16000.00
00862              -2.80   -16200.00
00863              -4.40   -16200.00
00864               0.40   -16200.00
00865              -1.20   -16200.00
00866              -4.40   -16400.00
00867              -2.00   -16400.00
00868              -1.20   -16400.00
00869              -3.20   -16400.00
00870              -3.60   -16600.00
00871              -0.80   -16400.00
00872              -2.00   -16400.00
00873              -3.60   -16600.00
00874              -2.00   -16600.00
00875              -2.00   -16600.00
00876              -2.80   -16600.00
00877              -2.40   -16400.00
00878              -1.20   -16600.00
00879              -2.40   -16600.00
00880              -2.80   -16400.00
00881              -1.20   -16600.00
00882              -2.40   -16600.00
00883              -2.80   -16400.00
00884              -2.40   -16400.00
00885              -2.00   -16400.00
00886              -2.00   -16400.00
00887              -2.40   -16400.00
00888              -2.40   -16200.00
00889              -2.80   -16400.00
00890              -2.00   -16200.00
00891              -2.40   -16000.00
00892              -2.40   -16200.00
00893              -2.00   -16000.00
00894              -2.00   -16000.00
00895              -2.40   -15800.00
00896              -2.40   -15600.00
00897              -1.20   -15600.00
00898              -2.00   -15600.00
00899              -2.40   -15400.00
00900              -2.00   -15200.00
00901              -2.40   -15200.00
00902              -2.40   -15200.00
00903              -2.00   -15000.00
00904              -1.20   -14800.00
00905              -2.00   -14600.00
00906              -2.40   -14600.00
00907              -1.20   -14400.00
00908              -2.00   -14400.00
00909              -2.40   -14000.00
00910              -1.20   -14000.00
00911              -1.20   -14000.00
00912              -2.40   -13600.00
00913              -1.60   -13600.00
00914              -1.20   -13600.00
00915              -2.00   -13200.00
00916              -2.40   -13000.00
00917              -1.20   -13000.00
00918              -1.20   -12800.00
00919              -2.00   -12600.00
00920              -1.20   -12400.00
00921              -1.20   -12400.00
00922              -2.00   -12000.00
00923              -2.00   -12000.00
00924              -1.20   -11600.00
00925              -1.60   -11400.00
00926              -1.20   -11200.00
00927              -1.20   -11000.00
00928              -2.00   -10800.00
00929              -1.20   -10600.00
00930              -1.20   -10600.00
00931              -1.60   -10200.00
00932              -1.60   -10000.00
00933              -0.80    -9800.00
00934              -2.40    -9600.00
00935              -2.00    -9400.00
00936              -1.20    -9200.00
00937              -2.00    -8800.00
00938              -1.20    -8600.00
00939              -0.80    -8400.00
00940              -1.60    -8200.00
00941              -1.20    -8000.00
00942              -1.20    -8000.00
00943              -1.20    -7400.00
00944              -1.20    -7200.00
00945              -1.20    -7200.00
00946              -1.20    -6600.00
00947              -1.20    -6400.00
00948              -1.20    -6400.00
00949              -1.20    -6000.00
00950              -1.20    -5800.00
00951              -0.80    -5600.00
00952              -1.20    -5200.00
00953              -1.20    -5000.00
00954              -0.80    -4600.00
00955              -1.20    -4400.00
00956              -0.80    -4000.00
00957              -0.80    -4000.00
00958              -0.80    -3600.00
00959              -0.80    -3400.00
00960              -1.20    -3000.00
00961              -0.40    -2800.00
00962              -1.20    -2600.00
00963              -0.80    -2400.00
00964              -0.80    -2000.00
00965              -0.40    -1800.00
00966              -1.20    -1600.00
00967              -0.40    -1200.00
00968              -0.40    -1000.00
00969              -0.40     -800.00
00970              -0.80     -400.00
00971               0.40     -200.00
00972              -0.40        0.00
00973              -0.80      400.00
00974               2.40      600.00
00975               1.60      800.00
00976              -2.00     1200.00
00977               0.80     1400.00
00978               2.00     1400.00
00979              -0.40     2000.00
00980              -0.40     2000.00
00981               7.20     2400.00
00982              21.20     2800.00
00983              -2.00     3200.00
00984             -39.60     3200.00
00985              -1.20     3600.00
00986              21.20     3600.00
00987             -28.40     4000.00
00988              18.80     4400.00
00989              37.60     4400.00
00990             -50.00     4800.00
00991              36.80     5200.00
00992              47.20     5200.00
00993             -50.00     5600.00
00994              12.40     5800.00
00995              29.60     6000.00
00996             -13.60     6400.00
00997              -5.60     6800.00
00998              -2.80     6800.00
00999              27.20     7000.00
01000             -20.40     7200.00
01001             -15.20     7400.00
01002              34.80     7800.00
01003             -15.60     8200.00
01004             -15.20     8400.00
01005              25.20     8600.00
01006               5.60     8800.00
01007             -23.60     8800.00
01008               2.80     9200.00
01009              21.60     9400.00
01010             -14.00     9800.00
01011              -6.80    10000.00
01012              14.40    10200.00
01013               4.40    10200.00
01014             -11.20    10600.00
01015               0.40    10800.00
01016              14.00    11000.00
01017              -9.60    11200.00
01018              -3.60    11600.00
01019              14.40    11600.00
01020              -1.20    12000.00
01021              -8.40    12000.00
01022               8.00    12000.00
01023               6.00    12400.00
01024              -9.20    12600.00
01025               2.00    12800.00
01026              10.40    12800.00
01027              -2.40    13200.00
01028              -3.60    13200.00
01029               7.60    13400.00
01030               2.40    13400.00
01031              -5.60    13800.00
01032               4.00    14000.00
01033               6.00    14000.00
01034              -3.60    14200.00
01035               0.80    14200.00
01036               7.60    14400.00
01037              -1.20    14400.00
01038              -2.40    14800.00
01039               5.60    15000.00
01040               2.00    14800.00
01041              -2.00    15000.00
01042               3.60    15200.00
01043               4.40    15200.00
01044              -1.20    15400.00
01045               0.80    15600.00
01046               4.00    15800.00
01047               0.80    15600.00
01048              -0.40    15800.00
01049               3.60    15800.00
01050               3.60    16000.00
01051              -0.40    16000.00
01052               1.20    16000.00
01053               4.00    16200.00
01054               0.80    16200.00
01055               0.40    16200.00
01056               3.60    16400.00
01057               2.00    16400.00
01058               0.00    16400.00
01059               2.00    16400.00
01060               2.80    16400.00
01061               0.80    16400.00
01062               1.20    16600.00
01063               3.60    16600.00
01064               1.20    16600.00
01065               0.80    16400.00
01066               2.40    16400.00
01067               2.00    16600.00
01068               0.80    16400.00
01069               2.00    16600.00
01070               2.00    16400.00
01071               0.80    16400.00
01072               1.20    16400.00
01073               1.60    16400.00
01074               1.20    16400.00
01075               1.20    16400.00
01076               1.60    16400.00
01077               2.00    16400.00
01078               1.20    16200.00
01079               1.20    16400.00
01080               2.00    16200.00
01081               0.80    16000.00
01082               1.60    16000.00
01083               2.40    16000.00
01084               2.00    15800.00
01085               1.60    15800.00
01086               2.00    15800.00
01087               0.80    15800.00
01088               1.60    15600.00
01089               2.40    15600.00
01090               0.40    15200.00
01091               1.20    15200.00
01092               2.00    15200.00
01093               1.20    15000.00
01094               1.20    15000.00
01095               2.00    14800.00
01096               1.20    14600.00
01097               1.20    14400.00
01098               1.20    14600.00
01099               1.20    14200.00
01100               2.00    14200.00
01101               1.20    14000.00
01102               1.20    13800.00
01103               2.00    13600.00
01104               1.20    13400.00
01105               0.80    13400.00
01106               1.60    13200.00
01107               2.00    13000.00
01108               0.80    12800.00
01109               0.80    12800.00
01110               2.00    12400.00
01111               1.20    12400.00
01112               0.80    12200.00
01113               1.60    12000.00
01114               1.20    11600.00
01115               0.80    11600.00
01116               0.80    11200.00
01117               1.20    11000.00
01118               0.80    11000.00
01119               0.80    10800.00
01120               1.20    10400.00
01121               0.80    10400.00
01122               1.20    10000.00
01123               0.80    10000.00
01124               1.20     9600.00
01125               0.80     9400.00
01126               0.40     9200.00
01127               0.80     8800.00
01128               0.80     8800.00
01129               0.40     8600.00
01130               0.40     8400.00
01131               0.80     8200.00
01132               0.40     7800.00
01133               0.40     7600.00
01134               0.80     7400.00
01135               0.40     7000.00
01136               0.40     7000.00
01137               0.40     6600.00
01138               0.80     6400.00
01139               0.40     6200.00
01140               0.40     5800.00
01141               0.40     5600.00
01142               0.00     5400.00
01143               0.40     5200.00
01144               0.00     4800.00
01145               0.40     4600.00
01146               0.00     4200.00
01147               0.00     4000.00
01148               0.40     3800.00
01149               0.40     3400.00
01150               0.40     3200.00
01151              -0.40     3000.00
01152              -0.40     2800.00
01153              -0.40     2400.00
01154               0.40     2200.00
01155               0.40     2000.00
01156               0.40     1800.00
01157              -0.40     1400.00
01158               0.00     1200.00
01159              -0.40      800.00
01160              -0.40      600.00
01161              -0.40      400.00
01162              -0.40        0.00
01163               0.40     -200.00
01164               0.80     -400.00
01165               2.00     -400.00
01166              -0.40    -1000.00
01167              -1.20    -1200.00
01168               0.80    -1400.00
01169               0.40    -1800.00
01170              -0.40    -1800.00
01171               4.40    -2200.00
01172              32.40    -2800.00
01173             -13.60    -3200.00
01174             -50.00    -3400.00
01175              12.80    -3600.00
01176               7.20    -3600.00
01177              -5.60    -3400.00
01178              50.00    -4400.00
01179             -50.00    -4200.00
01180              13.20    -4400.00
01181              50.00    -5000.00
01182             -50.00    -5000.00
01183               0.40    -5600.00
01184              50.00    -5800.00
01185             -50.00    -5600.00
01186              16.40    -6400.00
01187               3.60    -6400.00
01188               4.00    -6800.00
01189              11.60    -7200.00
01190             -50.00    -7000.00
01191              48.80    -7600.00
01192              -3.60    -7600.00
01193             -42.80    -8000.00
01194              34.40    -8400.00
01195               7.20    -8400.00
01196             -15.20    -9000.00
01197             -23.60    -8800.00
01198              34.40    -9200.00
01199              -7.20    -9200.00
01200             -34.00    -9600.00
01201              30.00   -10000.00
01202              -3.20   -10000.00
01203              -7.60   -10400.00
01204             -10.40   -10400.00
01205              13.20   -10800.00
01206              -2.80   -10800.00
01207             -22.80   -11200.00
01208              20.40   -11400.00
01209              -2.80   -11400.00
01210             -12.00   -11800.00
01211               1.60   -12000.00
01212               6.80   -12200.00
01213             -10.00   -12400.00
01214              -7.60   -12400.00
01215               8.80   -12800.00
01216              -2.40   -12800.00
01217              -8.40   -13000.00
01218               2.00   -13200.00
01219               4.00   -13400.00
01220             -10.40   -13400.00
01221               0.00   -13600.00
01222               2.80   -13800.00
01223              -5.60   -14000.00
01224              -4.80   -14200.00
01225               4.00   -14200.00
01226              -2.00   -14400.00
01227              -8.40   -14600.00
01228               2.80   -14800.00
01229              -0.80   -14800.00
01230              -6.00   -14800.00
01231               0.00   -15000.00
01232               2.40   -15200.00
01233              -4.80   -15200.00
01234              -3.20   -15400.00
01235               2.00   -15600.00
01236              -4.00   -15600.00
01237              -4.40   -15600.00
01238               0.40   -15600.00
01239               0.00   -15800.00
01240              -4.00   -16000.00
01241              -2.80   -16000.00
01242               0.40   -16200.00
01243              -3.60   -16200.00
01244              -4.00   -16200.00
01245               0.40   -16200.00
01246              -1.20   -16400.00
01247              -3.60   -16400.00
01248              -2.00   -16400.00
01249              -0.80   -16400.00
01250              -2.40   -16400.00
01251              -3.60   -16400.00
01252              -0.40   -16400.00
01253              -1.20   -16400.00
01254              -3.60   -16600.00
01255              -2.00   -16600.00
01256              -2.00   -16800.00
01257              -2.80   -16600.00
01258              -2.80   -16400.00
01259              -1.20   -16600.00
01260              -2.00   -16600.00
01261              -2.80   -16400.00
01262              -2.00   -16400.00
01263              -2.40   -16400.00
01264              -2.40   -16400.00
01265              -1.60   -16600.00
01266              -2.00   -16400.00
01267              -2.00   -16400.00
01268              -2.40   -16400.00
01269              -2.40   -16200.00
01270              -2.40   -16200.00
01271              -2.40   -16200.00
01272              -2.00   -16000.00
01273              -2.40   -16000.00
01274              -2.00   -16000.00
01275              -2.40   -16000.00
01276              -2.40   -15800.00
01277              -2.00   -15800.00
01278              -2.00   -15600.00
01279              -2.00   -15600.00
01280              -2.40   -15400.00
01281              -2.00   -15400.00
01282              -2.40   -15200.00
01283              -2.40   -15200.00
01284              -2.00   -15000.00
01285              -2.00   -14800.00
01286              -2.00   -14800.00
01287              -2.00   -14600.00
01288              -2.00   -14400.00
01289              -2.00   -14400.00
01290              -2.00   -14400.00
01291              -2.00   -13800.00
01292              -1.60   -13800.00
01293              -1.60   -13800.00
01294              -1.60   -13400.00
01295              -1.60   -13400.00
01296              -2.40   -13200.00
01297              -2.00   -13200.00
01298              -1.20   -12800.00
01299              -1.60   -12800.00
01300              -2.00   -12600.00
01301              -1.20   -12400.00
01302              -2.00   -12200.00
01303              -2.00   -12200.00
01304              -1.20   -11800.00
01305              -1.20   -11600.00
01306              -1.60   -11400.00
01307              -1.60   -11200.00
01308              -2.00   -11000.00
01309              -2.00   -10800.00
01310              -1.20   -10600.00
01311              -1.20   -10400.00
01312              -1.20   -10200.00
01313              -1.20   -10000.00
01314              -0.80    -9800.00
01315              -2.40    -9600.00
01316              -2.00    -9200.00
01317              -1.20    -9000.00
01318              -2.00    -9000.00
01319              -2.00    -8600.00
01320              -0.80    -8400.00
01321              -2.00    -8200.00
01322              -1.20    -8000.00
01323              -1.20    -7600.00
01324              -1.60    -7400.00
01325              -1.20    -7200.00
01326              -1.20    -7000.00
01327              -2.00    -6800.00
01328              -1.20    -6400.00
01329              -1.20    -6400.00
01330              -2.00    -6000.00
01331              -1.20    -5600.00
01332              -0.80    -5400.00
01333              -1.20    -5200.00
01334              -1.20    -4800.00
01335              -0.80    -4600.00
01336              -1.20    -4400.00
01337              -1.20    -4200.00
01338              -0.80    -4000.00
01339              -0.80    -3600.00
01340              -0.40    -3400.00
01341              -1.20    -3200.00
01342              -1.20    -2800.00
01343              -0.80    -2600.00
01344              -1.20    -2400.00
01345              -0.80    -2000.00
01346               0.40    -1800.00
01347              -0.40    -1600.00
01348              -0.80    -1200.00
01349              -0.40    -1000.00
01350              -0.40     -800.00
01351              -0.80     -400.00
01352              -0.40     -200.00
01353              -0.40        0.00
01354              -0.40      400.00
01355               2.00      600.00
01356               0.80      800.00
01357              -1.20     1000.00
01358               0.80     1400.00
01359               1.20     1800.00
01360              -0.40     2000.00
01361               0.40     2200.00
01362               6.80     2400.00
01363              20.80     2800.00
01364              -1.20     3200.00
01365             -40.40     3400.00
01366              -2.00     3600.00
01367              22.00     3600.00
01368             -28.40     4000.00
01369              18.40     4400.00
01370              38.80     4400.00
01371             -50.00     4800.00
01372              36.00     5000.00
01373              47.60     5200.00
01374             -50.00     5600.00
01375              12.00     5800.00
01376              29.60     6200.00
01377             -13.20     6400.00
01378              -5.60     6800.00
01379              -2.80     6800.00
01380              27.60     7000.00
01381             -20.40     7200.00
01382             -15.20     7600.00
01383              35.20     7800.00
01384             -15.20     8200.00
01385             -15.60     8400.00
01386              24.80     8600.00
01387               6.00     8600.00
01388             -23.20     8800.00
01389               2.40     9200.00
01390              22.00     9400.00
01391             -13.60     9800.00
01392              -7.20    10000.00
01393              14.40    10200.00
01394               5.20    10400.00
01395             -11.60    10400.00
01396               0.40    10800.00
01397              14.80    11000.00
01398             -10.00    11200.00
01399              -3.60    11600.00
01400              13.60    11600.00
01401              -1.20    11800.00
01402              -8.40    12000.00
01403               7.60    12000.00
01404               6.00    12400.00
01405              -8.80    12600.00
01406               1.20    12800.00
01407              10.40    12800.00
01408              -2.40    13000.00
01409              -4.00    13200.00
01410               7.60    13400.00
01411               2.00    13400.00
01412              -5.20    13600.00
01413               4.00    14000.00
01414               6.00    14000.00
01415              -4.00    14000.00
01416               0.80    14400.00
01417               7.60    14400.00
01418              -1.60    14600.00
01419              -2.00    14800.00
01420               5.20    15000.00
01421               2.00    15000.00
01422              -2.40    15000.00
01423               3.60    15000.00
01424               4.00    15200.00
01425              -1.20    15200.00
01426               1.20    15600.00
01427               4.00    15600.00
01428               0.40    15600.00
01429               0.80    15800.00
01430               3.60    15800.00
01431               2.40    15800.00
01432               0.40    16000.00
01433               2.00    16200.00
01434               3.60    16200.00
01435               0.80    16000.00
01436               1.20    16400.00
01437               4.00    16200.00
01438               1.60    16400.00
01439               0.40    16400.00
01440               2.80    16400.00
01441               2.40    16400.00
01442               0.80    16600.00
01443               2.00    16400.00
01444               2.80    16600.00
01445               0.80    16600.00
01446               0.80    16400.00
01447               2.40    16600.00
01448               2.00    16600.00
01449               0.80    16600.00
01450               2.00    16400.00
01451               2.00    16400.00
01452               1.20    16400.00
01453               1.20    16400.00
01454               2.00    16400.00
01455               2.00    16400.00
01456               1.20    16400.00
01457               2.00    16400.00
01458               2.00    16400.00
01459               1.60    16400.00
01460               1.20    16200.00
01461               2.00    16200.00
01462               1.60    16000.00
01463               0.80    16000.00
01464               2.00    16000.00
01465               2.40    15800.00
01466               2.00    16000.00
01467               1.20    15600.00
01468               0.80    15600.00
01469               1.20    15600.00
01470               2.00    15600.00
01471               0.80    15200.00
01472               1.20    15200.00
01473               2.00    15000.00
01474               1.20    15000.00
01475               1.60    15000.00
01476               2.00    14600.00
01477               1.20    14600.00
01478               1.20    14600.00
01479               2.00    14400.00
01480               1.20    14200.00
01481               1.20    14200.00
01482               2.00    14000.00
01483               1.20    13800.00
01484               0.80    13600.00
01485               1.20    13400.00
01486               1.20    13200.00
01487               1.20    13200.00
01488               1.20    12800.00
01489               0.80    12800.00
01490               1.20    12600.00
01491               1.20    12600.00
01492               1.20    12400.00
01493               1.20    12000.00
01494               1.20    12000.00
01495               0.80    11600.00
01496               1.20    11600.00
01497               0.80    11400.00
01498               0.80    11200.00
01499               0.80    11000.00
01500               0.80    10800.00
01501               0.80    10400.00
01502               1.20    10200.00
01503               0.80    10200.00
01504               1.20    10000.00
01505               0.80     9600.00
01506               0.80     9400.00
01507               0.80     9200.00
01508               1.20     9200.00
01509               0.40     8800.00
01510               0.80     8400.00
01511               0.80     8400.00
01512               0.40     8000.00
01513               0.80     7800.00
01514               0.80     7600.00
01515               0.80     7200.00
01516               0.80     7200.00
01517               0.80     6800.00
01518               0.40     6600.00
01519               0.40     6200.00
01520               0.40     6200.00
01521               0.40     5800.00
01522               0.40     5600.00
01523               0.40     5200.00
01524               0.40     5000.00
01525               0.40     4800.00
01526               0.00     4600.00
01527               0.40     4400.00
01528              -0.40     4000.00
01529              -0.40     3600.00
01530               0.00     3400.00
01531               0.40     3200.00
01532              -0.40     3000.00
01533               0.00     2800.00
01534              -0.40     2400.00
01535              -0.40     2200.00
01536              -0.40     2000.00
01537              -0.40     1800.00
01538               0.00     1400.00
01539              -0.40     1200.00
01540              -0.40      800.00
01541              -0.40      400.00
01542              -0.40      400.00
01543              -0.80        0.00
01544               0.40     -200.00
01545               0.40     -600.00
01546               2.40     -400.00
01547              -0.80    -1000.00
01548              -1.20    -1200.00
01549               0.80    -1600.00
01550               0.40    -1800.00
01551              -0.80    -2000.00
01552               5.20    -2200.00
01553              32.00    -2800.00
01554             -14.00    -3200.00
01555             -50.00    -3400.00
01556              12.40    -3600.00
01557               7.20    -3600.00
01558              -5.60    -3600.00
01559              50.00    -4400.00
01560             -50.00    -4200.00
01561              12.00    -4400.00
01562              50.00    -5200.00
01563             -50.00    -4800.00
01564              -1.20    -5600.00
01565              50.00    -5800.00
01566             -50.00    -5800.00
01567              15.60    -6400.00
01568               3.60    -6200.00
01569               4.40    -6800.00
01570              11.60    -7200.00
01571             -50.00    -7200.00
01572              48.80    -7600.00
01573              -3.60    -7600.00
01574             -42.80    -8000.00
01575              34.40    -8400.00
01576               7.60    -8200.00
01577             -15.20    -8800.00
01578             -23.60    -8800.00
01579              34.80    -9200.00
01580              -7.20    -9200.00
01581             -34.00    -9400.00
01582              30.40   -10000.00
01583              -2.80   -10000.00
01584              -7.60   -10400.00
01585              -9.20   -10400.00
01586              13.20   -10800.00
01587              -2.40   -11000.00
01588             -22.00   -11000.00
01589              20.40   -11600.00
01590              -3.60   -11600.00
01591             -11.60   -11800.00
01592               2.00   -12000.00
01593               6.40   -12200.00
01594              -9.20   -12200.00
01595              -7.60   -12400.00
01596               8.80   -12800.00
01597              -2.80   -13000.00
01598              -7.60   -13000.00
01599               2.00   -13200.00
01600               3.60   -13400.00
01601             -10.40   -13600.00
01602              -0.40   -13800.00
01603               2.80   -13800.00
01604              -5.60   -13800.00
01605              -4.40   -14200.00
01606               4.00   -14400.00
01607              -2.00   -14400.00
01608              -8.80   -14600.00
01609               2.80   -14800.00
01610              -0.80   -14800.00
01611              -6.00   -14800.00
01612              -1.20   -15000.00
01613               2.40   -15200.00
01614              -4.40   -15400.00
01615              -4.40   -15400.00
01616               2.40   -15400.00
01617              -2.80   -15600.00
01618              -4.40   -15800.00
01619               0.40   -15600.00
01620               0.40   -15800.00
01621              -4.40   -16000.00
01622              -2.80   -16000.00
01623               0.80   -16000.00
01624              -3.60   -16200.00
01625              -4.40   -16200.00
01626               0.40   -16200.00
01627              -0.80   -16200.00
01628              -3.60   -16400.00
01629              -2.00   -16400.00
01630              -0.40   -16400.00
01631              -3.60   -16400.00
01632              -3.20   -16400.00
01633               0.40   -16600.00
01634              -2.00   -16400.00
01635              -4.00   -16400.00
01636              -1.20   -16600.00
01637              -2.40   -16600.00
01638              -2.80   -16400.00
01639              -2.40   -16600.00
01640              -1.20   -16400.00
01641              -1.60   -16600.00
01642              -2.80   -16400.00
01643              -2.40   -16400.00
01644              -2.00   -16400.00
01645              -2.40   -16400.00
01646              -2.80   -16400.00
01647              -2.00   -16400.00
01648              -1.20   -16400.00
01649              -3.60   -16400.00
01650              -2.00   -16400.00
01651              -1.60   -16400.00
01652              -2.40   -16200.00
01653              -2.40   -16200.00
01654              -2.00   -16200.00
01655              -2.40   -16000.00
01656              -2.80   -16000.00
01657              -2.40   -15800.00
01658              -2.40   -15600.00
01659              -2.40   -15600.00
01660              -2.40   -15400.00
01661              -2.40   -15400.00
01662              -2.00   -15400.00
01663              -2.40   -15200.00
01664              -2.40   -15000.00
01665              -2.00   -14800.00
01666              -2.00   -15000.00
01667              -2.40   -14800.00
01668              -2.40   -14600.00
01669              -2.40   -14400.00
01670              -2.00   -14400.00
01671              -2.40   -14200.00
01672              -2.00   -14200.00
01673              -1.20   -13800.00
01674              -2.00   -13600.00
01675              -2.00   -13600.00
01676              -1.60   -13600.00
01677              -2.00   -13200.00
01678              -2.40   -13000.00
01679              -1.20   -13000.00
01680              -2.00   -12800.00
01681              -2.00   -12800.00
01682              -2.00   -12400.00
01683              -1.20   -12400.00
01684              -2.00   -12200.00
01685              -2.00   -12000.00
01686              -1.20   -11600.00
01687              -1.20   -11400.00
01688              -2.00   -11400.00
01689              -1.60   -11000.00
01690              -1.20   -10800.00
01691              -2.00   -10800.00
01692              -1.20   -10400.00
01693              -1.20   -10200.00
01694              -2.00   -10000.00
01695              -0.80    -9800.00
01696              -2.00    -9600.00
01697              -1.60    -9400.00
01698              -1.20    -9200.00
01699              -1.20    -9000.00
01700              -1.20    -8800.00
01701              -0.80    -8600.00
01702              -1.60    -8200.00
01703              -0.80    -8000.00
01704              -1.20    -7600.00
01705              -1.20    -7400.00
01706              -1.20    -7200.00
01707              -0.80    -7200.00
01708              -1.20    -6600.00
01709              -1.20    -6600.00
01710              -1.20    -6400.00
01711              -1.20    -6000.00
01712              -1.20    -5800.00
01713              -0.80    -5400.00
01714              -1.20    -5200.00
01715              -1.20    -5000.00
01716              -0.80    -4600.00
01717              -1.20    -4400.00
01718              -0.80    -4200.00
01719              -0.80    -4000.00
01720              -1.20    -3600.00
01721              -1.20    -3400.00
01722              -1.20    -3200.00
01723              -0.80    -2800.00
01724              -1.20    -2600.00
01725              -1.20    -2400.00
01726              -0.40    -2000.00
01727              -0.40    -2000.00
01728              -1.20    -1600.00
01729              -0.80    -1200.00
01730              -0.40    -1000.00
01731              -1.20     -800.00
01732              -0.80     -400.00
01733               0.40     -400.00
01734              -1.20      200.00
01735              -0.40      200.00
01736               2.40      600.00
01737               2.00      800.00
01738              -2.40     1200.00
01739               0.80     1400.00
01740               2.80     1600.00
01741              -1.20     1800.00
01742              -1.20     2000.00
01743               7.60     2400.00
01744              21.20     2800.00
01745              -2.40     3000.00
01746             -40.40     3200.00
01747              -1.20     3600.00
01748              21.60     3600.00
01749             -30.00     3800.00
01750              19.60     4400.00
01751              38.00     4400.00
01752             -50.00     4800.00
01753              37.20     5200.00
01754              48.00     5200.00
01755             -50.00     5600.00
01756              12.00     5800.00
01757              30.80     6000.00
01758             -13.60     6400.00
01759              -6.80     6800.00
01760              -1.20     6800.00
01761              28.00     7000.00
01762             -21.60     7200.00
01763             -14.80     7600.00
01764              36.80     7800.00
01765             -16.40     8200.00
01766             -15.20     8400.00
01767              26.40     8400.00
01768               6.00     8800.00
01769             -24.40     8800.00
01770               3.60     9200.00
01771              22.80     9400.00
01772             -14.00     9600.00
01773              -6.80    10000.00
01774              14.80    10200.00
01775               4.80    10400.00
01776             -10.80    10400.00
01777               0.40    10800.00
01778              14.00    10800.00
01779              -9.20    11200.00
01780              -3.60    11400.00
01781              13.60    11800.00
01782              -1.20    11800.00
01783              -7.60    11800.00
01784               7.20    12200.00
01785               6.00    12400.00
01786              -8.80    12400.00
01787               1.20    12800.00
01788              10.00    12800.00
01789              -2.40    13000.00
01790              -4.40    13200.00
01791               7.60    13200.00
01792               2.40    13600.00
01793              -5.60    13600.00
01794               3.60    14000.00
01795               6.00    14000.00
01796              -4.00    14000.00
01797               0.80    14400.00
01798               7.60    14600.00
01799              -2.00    14600.00
01800              -2.40    14800.00
01801               5.60    15000.00
01802               2.00    14800.00
01803              -2.40    15000.00
01804               4.00    15200.00
01805               4.40    15200.00
01806              -2.00    15400.00
01807               2.00    15600.00
01808               3.60    15600.00
01809              -0.40    15600.00
01810               0.80    15800.00
01811               3.20    15800.00
01812               1.20    16000.00
01813               0.80    16000.00
01814               2.00    16000.00
01815               2.40    16000.00
01816               0.80    16200.00
01817               1.20    16400.00
01818               3.60    16400.00
01819               2.00    16400.00
01820               0.40    16400.00
01821               2.80    16400.00
01822               2.00    16400.00
01823               0.40    16400.00
01824               2.40    16600.00
01825               2.80    16600.00
01826               0.80    16400.00
01827               1.20    16600.00
01828               2.40    16600.00
01829               2.00    16400.00
01830               1.20    16600.00
01831               2.00    16400.00
01832               2.40    16600.00
01833               1.60    16600.00
01834               1.20    16400.00
01835               2.00    16400.00
01836               2.00    16400.00
01837               1.60    16400.00
01838               1.60    16400.00
01839               2.00    16400.00
01840               2.00    16400.00
01841               0.80    16200.00
01842               1.60    16000.00
01843               2.00    16000.00
01844               1.20    16000.00
01845               2.00    16000.00
01846               2.00    16000.00
01847               1.60    15800.00
01848               1.20    15800.00
01849               1.20    15600.00
01850               0.80    15600.00
01851               1.20    15400.00
01852               0.80    15200.00
01853               2.00    15400.00
01854               1.60    15000.00
01855               1.20    15000.00
01856               1.20    15000.00
01857               1.20    14800.00
01858               0.80    14800.00
01859               1.20    14400.00
01860               1.60    14600.00
01861               1.20    14400.00
01862               1.20    14200.00
01863               1.20    14000.00
01864               1.20    13600.00
01865               1.20    13600.00
01866               1.20    13600.00
01867               1.20    13400.00
01868               1.20    13200.00
01869               1.20    12800.00
01870               0.80    12800.00
01871               1.20    12800.00
01872               1.20    12400.00
01873               0.80    12400.00
01874               0.80    12000.00
01875               1.20    11800.00
01876               0.80    11800.00
01877               1.20    11600.00
01878               1.20    11400.00
01879               1.20    11200.00
01880               0.80    11000.00
01881               1.20    10600.00
01882               0.80    10400.00
01883               0.80    10200.00
01884               0.80    10000.00
01885               1.20    10000.00
01886               0.80     9800.00
01887               0.80     9400.00
01888               1.20     9200.00
01889               0.80     9000.00
01890               0.80     8800.00
01891               0.80     8600.00
01892               0.80     8400.00
01893               0.40     8000.00
01894               0.80     8000.00
01895               0.80     7600.00
01896               0.80     7200.00
01897               0.40     7000.00
01898               0.80     6800.00
01899               0.40     6400.00
01900               0.80     6400.00
01901               0.40     6000.00
01902               0.80     5800.00
01903               0.40     5600.00
01904               0.40     5400.00
01905               0.80     5200.00
01906               0.40     4800.00
01907               0.40     4400.00
01908               0.00     4400.00
01909              -0.40     4000.00
01910               0.40     3800.00
01911              -0.40     3600.00
01912               0.40     3200.00
01913              -0.40     3000.00
01914              -0.40     2800.00
01915              -0.40     2400.00
01916              -0.40     2200.00
01917              -0.40     1800.00
01918              -0.40     1600.00
01919              -0.40     1400.00
01920               0.00     1200.00
01921              -0.40      800.00
01922              -0.40      400.00
01923              -0.80      400.00
01924              -0.40        0.00
01925               0.40     -200.00
01926               0.40     -400.00
01927               2.40     -800.00
01928              -0.80    -1000.00
01929              -2.00    -1200.00
01930               0.40    -1600.00
01931               0.40    -1800.00
01932              -1.20    -2000.00
01933               4.40    -2200.00
01934              32.80    -2800.00
01935             -14.00    -3200.00
01936             -50.00    -3400.00
01937              13.20    -3600.00
01938               6.80    -3600.00
01939              -6.00    -3600.00
01940              50.00    -4200.00
01941             -50.00    -4400.00
01942              11.60    -4400.00
01943              50.00    -5200.00
01944             -50.00    -5000.00
01945              -0.80    -5600.00
01946              50.00    -5800.00
01947             -50.00    -5800.00
01948              15.60    -6400.00
01949               4.00    -6400.00
01950               4.00    -6800.00
01951              12.00    -7400.00
01952             -50.00    -7000.00
01953              48.40    -7800.00
01954              -3.20    -7600.00
01955             -42.40    -8000.00
01956              34.40    -8400.00
01957               8.00    -8400.00
01958             -14.80    -9000.00
01959             -24.40    -8800.00
01960              34.80    -9200.00
01961              -6.80    -9400.00
01962             -33.20    -9600.00
01963              30.80   -10000.00
01964              -2.40   -10000.00
01965              -7.60   -10400.00
01966              -8.40   -10400.00
01967              14.80   -10800.00
01968              -8.80   -10800.00
01969             -13.60   -11200.00
01970               9.20   -11400.00
01971              -0.40   -11600.00
01972              -6.80   -11600.00
01973              -4.40   -12000.00
01974              21.60   -12200.00
01975             -14.80   -12400.00
01976             -10.80   -12600.00
01977              10.40   -12800.00
01978              -6.40   -13000.00
01979             -12.00   -13000.00
01980               2.00   -13200.00
01981               7.60   -13200.00
01982              -7.20   -13400.00
01983              -1.20   -13600.00
01984               7.60   -13800.00
01985              -5.20   -14000.00
01986             -13.60   -14000.00
01987               6.00   -14400.00
01988              -6.40   -14400.00
01989              -8.80   -14600.00
01990               9.20   -14800.00
01991              -1.20   -14800.00
01992              -6.00   -14800.00
01993               3.60   -15200.00
01994              -1.20   -15200.00
01995              -9.20   -15200.00
01996              -2.80   -15400.00
01997               0.80   -15600.00
01998              -4.00   -15800.00
01999              -3.60   -15400.00
02000               4.00   -15600.00
02001               0.40   -15800.00
02002              -5.60   -16000.00
02003              -2.40   -16000.00
02004              -0.80   -16200.00
02005              -4.40   -16200.00
02006              -5.20   -16400.00
02007               0.40   -16200.00
02008              -0.80   -16200.00
02009              -3.60   -16400.00
02010              -1.20   -16400.00
02011              -0.80   -16400.00
02012              -3.20   -16600.00
02013              -2.80   -16400.00
02014              -2.40   -16400.00
02015              -0.80   -16400.00
02016              -2.40   -16600.00
02017              -4.00   -16800.00
02018              -0.80   -16600.00
02019              -1.20   -16800.00
02020              -3.20   -16400.00
02021              -1.20   -16600.00
02022              -1.20   -16600.00
02023              -3.60   -16600.00
02024              -2.40   -16600.00
02025              -2.00   -16400.00
02026              -2.80   -16400.00
02027              -2.40   -16400.00
02028              -1.20   -16400.00
02029              -1.20   -16400.00
02030              -3.60   -16200.00
02031              -2.00   -16400.00
02032              -1.60   -16200.00
02033              -3.20   -16200.00
02034              -2.40   -16200.00
02035              -1.20   -16000.00
02036              -2.40   -16000.00
02037              -2.40   -16000.00
02038              -1.20   -15800.00
02039              -2.40   -15600.00
02040              -2.40   -15600.00
02041              -2.00   -15400.00
02042              -2.40   -15400.00
02043              -2.40   -15400.00
02044              -2.00   -15200.00
02045              -2.40   -15200.00
02046              -2.40   -15000.00
02047              -1.20   -14800.00
02048              -2.40   -14800.00
02049              -2.40   -14600.00
02050              -2.40   -14600.00
02051              -2.40   -14400.00
02052              -2.40   -14200.00
02053              -2.00   -14000.00
02054              -2.00   -13800.00
02055              -2.00   -13800.00
02056              -2.00   -13600.00
02057              -2.40   -13600.00
02058              -2.00   -13200.00
02059              -2.40   -13200.00
02060              -1.60   -13000.00
02061              -1.20   -13000.00
02062              -2.00   -12600.00
02063              -2.00   -12400.00
02064              -2.00   -12200.00
02065              -2.00   -12000.00
02066              -2.00   -12000.00
02067              -1.20   -11600.00
02068              -1.20   -11400.00
02069              -2.00   -11000.00
02070              -2.00   -11200.00
02071              -2.00   -10800.00
02072              -2.00   -10600.00
02073              -2.00   -10400.00
02074              -1.20   -10000.00
02075              -1.20   -10000.00
02076              -0.80    -9800.00
02077              -2.40    -9600.00
02078              -1.20    -9200.00
02079              -0.80    -9200.00
02080              -2.00    -8800.00
02081              -2.00    -8800.00
02082               0.00    -8400.00
02083              -2.00    -8200.00
02084              -2.00    -8000.00
02085              -0.40    -8000.00
02086              -1.20    -7600.00
02087              -2.00    -7200.00
02088              -0.80    -7000.00
02089              -1.20    -6800.00
02090              -1.20    -6600.00
02091              -1.20    -6200.00
02092              -0.80    -6000.00
02093              -0.80    -5800.00
02094              -0.80    -5600.00
02095              -1.20    -5200.00
02096              -1.20    -5000.00
02097              -0.40    -4600.00
02098              -1.20    -4400.00
02099              -0.80    -4200.00
02100              -0.80    -4000.00
02101              -0.80    -3600.00
02102              -0.80    -3400.00
02103              -0.40    -3200.00
02104              -1.20    -2800.00
02105              -0.40    -2600.00
02106              -0.80    -2400.00
02107              -0.80    -2200.00
02108              -0.80    -2000.00
02109               0.00    -1600.00
02110              -0.80    -1200.00
02111              -2.00    -1000.00
02112               0.40     -800.00
02113               0.40     -400.00
02114              -1.60     -200.00
02115              -0.40        0.00
02116               1.20      200.00
02117               0.80      600.00
02118               0.40      800.00
02119               0.80     1000.00
02120               0.40     1200.00
02121               0.40     1800.00
02122               0.40     1800.00
02123               1.20     2000.00
02124               6.40     2400.00
02125              19.60     2800.00
02126              -0.40     3000.00
02127             -39.60     3400.00
02128              -3.60     3600.00
02129              22.00     3600.00
02130             -28.00     3800.00
02131              18.40     4600.00
02132              37.60     4400.00
02133             -50.00     4600.00
02134              37.20     5200.00
02135              47.60     5200.00
02136             -50.00     5600.00
02137              13.20     5800.00
02138              30.40     6000.00
02139             -13.60     6400.00
02140              -6.00     6600.00
02141              -1.60     6800.00
02142              27.60     7000.00
02143             -20.40     7200.00
02144             -14.80     7600.00
02145              34.40     7800.00
02146             -15.20     8200.00
02147             -14.80     8400.00
02148              24.80     8400.00
02149               6.80     8800.00
02150             -22.40     9000.00
02151               1.20     9200.00
02152              22.00     9400.00
02153             -12.40     9800.00
02154              -7.20    10000.00
02155              13.20    10200.00
02156               5.60    10400.00
02157             -10.00    10600.00
02158              -0.80    10800.00
02159              14.40    11000.00
02160              -8.80    11200.00
02161              -4.00    11600.00
02162              13.60    11800.00
02163              -0.40    11800.00
02164              -7.60    12000.00
02165               7.20    12000.00
02166               6.80    12400.00
02167              -8.40    12600.00
02168               0.80    12800.00
02169              10.00    12800.00
02170              -2.00    13000.00
02171              -4.40    13200.00
02172               8.00    13400.00
02173               2.40    13400.00
02174              -5.60    13600.00
02175               4.00    14000.00
02176               5.60    14000.00
02177              -4.00    14200.00
02178               0.40    14200.00
02179               7.60    14600.00
02180              -2.00    14600.00
02181              -2.00    14800.00
02182               5.60    14800.00
02183               1.20    15000.00
02184              -2.00    15000.00
02185               3.60    15200.00
02186               3.60    15200.00
02187              -2.00    15600.00
02188               2.40    15400.00
02189               2.40    15800.00
02190              -0.80    15800.00
02191               2.00    15800.00
02192               2.80    16000.00
02193               0.80    16000.00
02194               1.60    16000.00
02195               1.20    16200.00
02196               2.00    16200.00
02197               1.60    16400.00
02198               0.80    16400.00
02199               2.80    16400.00
02200               2.00    16400.00
02201               0.80    16400.00
02202               2.00    16400.00
02203               2.00    16600.00
02204               1.20    16400.00
02205               2.00    16600.00
02206               2.40    16600.00
02207               2.00    16600.00
02208               0.80    16600.00
02209               2.00    16400.00
02210               2.00    16600.00
02211               1.20    16400.00
02212               2.00    16600.00
02213               2.40    16600.00
02214               1.60    16400.00
02215               1.20    16600.00
02216               2.00    16600.00
02217               2.00    16400.00
02218               2.00    16400.00
02219               2.00    16400.00
02220               2.00    16400.00
02221               2.00    16200.00
02222               1.20    16200.00
02223               2.00    16200.00
02224               2.00    16000.00
02225               2.00    16000.00
02226               2.00    16000.00
02227               2.40    16000.00
02228               2.00    15800.00
02229               1.20    15800.00
02230               1.20    15600.00
02231               1.20    15600.00
02232               2.00    15600.00
02233               0.40    15400.00
02234               2.00    15200.00
02235               2.00    15200.00
02236               0.80    15000.00
02237               1.20    15000.00
02238               2.00    14800.00
02239               0.80    14800.00
02240               0.80    14400.00
02241               2.00    14600.00
02242               1.20    14200.00
02243               1.20    14200.00
02244               1.20    14000.00
02245               1.20    13800.00
02246               0.80    13600.00
02247               1.20    13600.00
02248               0.80    13400.00
02249               0.80    13200.00
02250               0.80    13000.00
02251               0.80    12800.00
02252               0.80    12600.00
02253               0.80    12600.00
02254               0.80    12200.00
02255               0.80    12200.00
02256               0.80    11800.00
02257               0.80    11800.00
02258               1.20    11600.00
02259               1.20    11400.00
02260               1.20    11000.00
02261               0.80    11000.00
02262               0.80    10800.00
02263               0.80    10400.00
02264               1.20    10400.00
02265               0.40    10200.00
02266               0.80    10000.00
02267               0.80     9600.00
02268               0.40     9400.00
02269               0.80     9200.00
02270               1.20     9000.00
02271              -0.40     8800.00
02272               2.00     8600.00
02273               2.00     8400.00
02274              -1.20     8000.00
02275               2.40     8000.00
02276               0.80     7600.00
02277              -1.20     7400.00
02278               2.80     7000.00
02279              -0.40     6800.00
02280               0.40     6400.00
02281               0.80     6400.00
02282               0.80     6000.00
02283               0.40     6000.00
02284               0.80     5600.00
02285               0.40     5400.00
02286               0.40     5000.00
02287               0.80     4800.00
02288               0.00     4400.00
02289              -0.40     4400.00
02290               2.00     4000.00
02291              -0.40     3600.00
02292              -0.40     3600.00
02293               1.20     3200.00
02294               0.80     3000.00
02295              -0.80     2800.00
02296               0.40     2400.00
02297               0.80     2000.00
02298              -0.80     2000.00
02299              -1.20     1800.00
02300               1.20     1400.00
02301               0.40     1200.00
02302              -2.00      800.00
02303               0.80      600.00
02304               0.80      200.00
02305              -1.20        0.00
02306              -0.40     -200.00
02307               0.80     -400.00
02308               2.40     -600.00
02309              -1.20    -1000.00
02310              -1.60    -1200.00
02311               1.20    -1600.00
02312              -0.80    -1800.00
02313              -1.20    -2000.00
02314               6.00    -2200.00
02315              32.00    -2600.00
02316             -15.20    -3200.00
02317             -49.60    -3400.00
02318              13.60    -3600.00
02319               5.60    -3600.00
02320              -6.40    -3600.00
02321              50.00    -4400.00
02322             -50.00    -4200.00
02323              11.60    -4600.00
02324              50.00    -5200.00
02325             -50.00    -5000.00
02326              -1.20    -5600.00
02327              50.00    -5800.00
02328             -50.00    -5800.00
02329              14.80    -6400.00
02330               3.60    -6200.00
02331               5.20    -6800.00
02332              10.80    -7200.00
02333             -50.00    -7200.00
02334              49.20    -7800.00
02335              -3.20    -7600.00
02336             -43.60    -8000.00
02337              34.80    -8400.00
02338               8.40    -8400.00
02339             -16.00    -8800.00
02340             -24.40    -9000.00
02341              36.00    -9200.00
02342              -7.20    -9400.00
02343             -34.40    -9600.00
02344              31.20    -9800.00
02345              -2.40    -9800.00
02346              -8.40   -10600.00
02347              -9.60   -10600.00
02348              14.00   -10800.00
02349              -2.80   -10800.00
02350             -22.80   -11200.00
02351              21.20   -11400.00
02352              -2.40   -11400.00
02353             -12.00   -12000.00
02354               2.00   -12000.00
02355               7.20   -12200.00
02356              -9.20   -12400.00
02357              -7.60   -12600.00
02358               8.80   -12800.00
02359              -1.60   -12800.00
02360              -8.40   -13000.00
02361               1.60   -13200.00
02362               4.00   -13400.00
02363             -10.80   -13600.00
02364              -0.80   -13600.00
02365               2.80   -13800.00
02366              -5.60   -14000.00
02367              -4.40   -14000.00
02368               4.00   -14200.00
02369              -2.40   -14400.00
02370              -8.40   -14600.00
02371               4.00   -14800.00
02372              -2.40   -14800.00
02373              -6.40   -14800.00
02374               0.40   -15000.00
02375               1.20   -15200.00
02376              -5.20   -15200.00
02377              -3.60   -15400.00
02378               1.20   -15600.00
02379              -4.40   -15400.00
02380              -4.40   -15600.00
02381               0.40   -15800.00
02382              -0.80   -16000.00
02383              -4.40   -16000.00
02384              -2.40   -16000.00
02385               0.40   -16200.00
02386              -4.00   -16200.00
02387              -4.40   -16200.00
02388               0.40   -16200.00
02389              -1.20   -16200.00
02390              -4.40   -16400.00
02391              -1.20   -16400.00
02392              -0.80   -16600.00
02393              -4.00   -16400.00
02394              -3.20   -16400.00
02395              -0.40   -16400.00
02396              -2.40   -16600.00
02397              -4.00   -16600.00
02398              -1.20   -16400.00
02399              -2.00   -16400.00
02400              -3.60   -16600.00
02401              -2.00   -16400.00
02402              -0.80   -16600.00
02403              -2.40   -16400.00
02404              -2.80   -16400.00
02405              -1.20   -16600.00
02406              -2.00   -16400.00
02407              -2.80   -16400.00
02408              -1.20   -16400.00
02409              -2.00   -16400.00
02410              -2.00   -16400.00
02411              -2.40   -16400.00
02412              -2.00   -16200.00
02413              -2.00   -16400.00
02414              -2.00   -16000.00
02415              -2.00   -16000.00
02416              -2.00   -16000.00
02417              -2.40   -16000.00
02418              -2.40   -15800.00
02419              -2.40   -15600.00
02420              -2.40   -15600.00
02421              -2.00   -15600.00
02422              -2.00   -15400.00
02423              -2.40   -15400.00
02424              -1.20   -15400.00
02425              -2.40   -15200.00
02426              -2.80   -15000.00
02427              -1.60   -15000.00
02428              -2.00   -14800.00
02429              -2.40   -14800.00
02430              -1.60   -14600.00
02431              -2.00   -14400.00
02432              -2.40   -14400.00
02433              -2.40   -14200.00
02434              -1.20   -14000.00
02435              -2.00   -13800.00
02436              -2.40   -13800.00
02437              -2.40   -13600.00
02438              -1.60   -13600.00
02439              -2.40   -13400.00
02440              -2.40   -13000.00
02441              -1.20   -13000.00
02442              -1.60   -12800.00
02443              -2.40   -12800.00
02444              -1.20   -12400.00
02445              -2.00   -12200.00
02446              -2.40   -12200.00
02447              -2.00   -12000.00
02448              -1.20   -11600.00
02449              -2.00   -11400.00
02450              -2.40   -11200.00
02451              -1.20   -11000.00
02452              -2.00   -11000.00
02453              -2.00   -10800.00
02454              -1.20   -10400.00
02455              -1.20   -10000.00
02456              -1.60   -10000.00
02457              -1.20    -9800.00
02458              -1.20    -9600.00
02459              -2.40    -9200.00
02460              -1.20    -9200.00
02461              -1.20    -9000.00
02462              -1.20    -8800.00
02463              -0.80    -8400.00
02464              -1.20    -8200.00
02465              -1.20    -8000.00
02466              -0.80    -7800.00
02467              -1.60    -7400.00
02468              -1.20    -7200.00
02469              -0.40    -7000.00
02470              -1.20    -6800.00
02471              -0.80    -6600.00
02472              -0.80    -6200.00
02473              -0.80    -6000.00
02474              -0.80    -5800.00
02475              -0.80    -5400.00
02476              -1.20    -5200.00
02477              -0.80    -4800.00
02478              -0.80    -4600.00
02479              -1.20    -4400.00
02480              -0.80    -4200.00
02481              -0.40    -4000.00
02482              -0.40    -3800.00
02483              -0.80    -3600.00
02484              -0.40    -3200.00
02485              -0.40    -2800.00
02486              -0.40    -2600.00
02487              -0.80    -2400.00
02488              -0.40    -2000.00
02489              -0.80    -1800.00
02490              -0.80    -1600.00
02491               0.00    -1200.00
02492              -0.80    -1000.00
02493              -0.80     -800.00
02494              -0.40     -400.00
02495               0.00     -200.00
02496               0.00        0.00
02497              -0.40      400.00
02498               2.00      600.00
02499               0.80      800.00
02500              -1.20     1200.00
02501               0.40     1200.00
02502               2.00     1800.00
02503              -0.40     1800.00
02504              -0.40     2000.00
02505               6.80     2400.00
02506              20.80     2800.00
02507              -1.20     3200.00
02508             -40.80     3400.00
02509              -1.60     3600.00
02510              21.60     3600.00
02511             -29.60     3800.00
02512              18.40     4400.00
02513              38.80     4400.00
02514             -50.00     4800.00
02515              36.00     5200.00
02516              47.60     5200.00
02517             -50.00     5400.00
02518              12.00     5800.00
02519              29.60     6000.00
02520             -13.60     6400.00
02521              -5.60     6800.00
02522              -2.40     6800.00
02523              27.60     7000.00
02524             -20.40     7200.00
02525             -14.80     7600.00
02526              34.80     7800.00
02527             -15.60     8200.00
02528             -14.80     8400.00
02529              25.20     8600.00
02530               6.00     8800.00
02531             -23.20     9000.00
02532               2.40     9200.00
02533              22.00     9400.00
02534             -13.60     9800.00
02535              -6.80    10000.00
02536              14.80    10200.00
02537               4.80    10400.00
02538             -10.80    10600.00
02539               0.40    10800.00
02540              14.40    11000.00
02541             -10.00    11200.00
02542              -3.60    11200.00
02543              14.40    11800.00
02544              -1.20    12000.00
02545              -8.40    12000.00
02546               8.40    12000.00
02547               5.60    12400.00
02548              -9.20    12600.00
02549               2.00    12800.00
02550              10.40    12800.00
02551              -2.40    13200.00
02552              -3.60    13200.00
02553               8.00    13400.00
02554               2.00    13400.00
02555              -5.20    14000.00
02556               4.00    13800.00
02557               6.00    14200.00
02558              -4.00    14200.00
02559               0.40    14200.00
02560               7.60    14600.00
02561              -2.40    14600.00
02562              -2.40    14800.00
02563               6.00    14800.00
02564               0.80    15000.00
02565              -2.40    15000.00
02566               4.00    15200.00
02567               4.00    15200.00
02568              -2.00    15600.00
02569               1.20    15600.00
02570               4.00    15600.00
02571               0.00    15600.00
02572               0.40    15800.00
02573               3.60    15800.00
02574               2.00    16000.00
02575               0.00    16000.00
02576               2.00    16000.00
02577               2.80    16200.00
02578               0.80    16400.00
02579               0.40    16400.00
02580               3.60    16200.00
02581               1.20    16400.00
02582               0.40    16400.00
02583               2.00    16400.00
02584               2.00    16600.00
02585               0.40    16400.00
02586               2.00    16600.00
02587               2.80    16600.00
02588               1.20    16600.00
02589               1.20    16600.00
02590               2.00    16600.00
02591               2.00    16400.00
02592               0.80    16600.00
02593               2.00    16600.00
02594               2.00    16400.00
02595               1.20    16600.00
02596               1.60    16600.00
02597               2.00    16600.00
02598               2.00    16400.00
02599               1.20    16400.00
02600               2.00    16400.00
02601               2.00    16400.00
02602               2.00    16200.00
02603               1.20    16400.00
02604               1.20    16200.00
02605               2.00    16000.00
02606               2.00    16000.00
02607               2.00    16000.00
02608               2.00    15800.00
02609               1.60    16000.00
02610               1.20    15800.00
02611               0.80    15600.00
02612               1.60    15600.00
02613               2.40    15600.00
02614               1.20    15600.00
02615               2.00    15400.00
02616               2.00    15200.00
02617               1.20    15000.00
02618               1.20    15000.00
02619               2.00    14800.00
02620               0.80    14800.00
02621               0.80    14400.00
02622               1.20    14600.00
02623               1.20    14200.00
02624               0.80    14200.00
02625               1.20    14000.00
02626               1.20    13800.00
02627               2.00    13600.00
02628               0.80    13600.00
02629               1.20    13400.00
02630               2.00    13200.00
02631               1.20    13000.00
02632               0.80    12800.00
02633               1.20    12800.00
02634               1.20    12400.00
02635               0.80    12400.00
02636               0.80    12000.00
02637               1.20    12000.00
02638               0.80    11600.00
02639               0.80    11600.00
02640               1.20    11200.00
02641               0.80    11200.00
02642               0.80    11000.00
02643               0.80    10800.00
02644               0.80    10400.00
02645               0.80    10200.00
02646               1.20    10200.00
02647               0.80     9800.00
02648               0.80     9600.00
02649               0.80     9400.00
02650               0.80     9200.00
02651               0.80     9000.00
02652               0.80     8800.00
02653               0.40     8600.00
02654               0.80     8400.00
02655               0.40     8000.00
02656               0.40     8000.00
02657               0.80     7600.00
02658               0.40     7400.00
02659               0.80     7000.00
02660               0.80     7000.00
02661               0.40     6800.00
02662               0.80     6400.00
02663               0.40     6200.00
02664               0.40     6000.00
02665               0.40     5600.00
02666               0.80     5400.00
02667               0.40     5200.00
02668               0.80     4800.00
02669              -0.80     4400.00
02670               0.40     4200.00
02671               2.00     4000.00
02672              -0.40     3600.00
02673              -1.20     3600.00
02674               2.00     3200.00
02675               2.00     3000.00
02676              -2.40     2800.00
02677              -0.40     2400.00
02678               2.40     2200.00
02679              -0.80     2000.00
02680              -1.60     1600.00
02681               0.80     1400.00
02682               0.80     1200.00
02683              -1.20      800.00
02684              -0.80      600.00
02685               0.80      400.00
02686               0.40        0.00
02687              -0.80     -200.00
02688               0.80     -400.00
02689               2.80     -800.00
02690              -2.40    -1000.00
02691              -1.20    -1200.00
02692               2.00    -1400.00
02693              -0.80    -1800.00
02694              -2.00    -2000.00
02695               6.00    -2200.00
02696              31.60    -2800.00
02697             -16.40    -3200.00
02698             -48.80    -3400.00
02699              12.80    -3600.00
02700               5.20    -3600.00
02701              -4.40    -3600.00
02702              50.00    -4400.00
02703             -50.00    -4000.00
02704              12.40    -4400.00
02705              50.00    -5400.00
02706             -50.00    -4800.00
02707              -0.40    -5600.00
02708              50.00    -6000.00
02709             -50.00    -5600.00
02710              15.60    -6400.00
02711               3.60    -6400.00
02712               4.00    -6800.00
02713              10.80    -7200.00
02714             -50.00    -7200.00
02715              48.80    -7600.00
02716              -3.60    -7600.00
02717             -42.80    -8000.00
02718              34.00    -8400.00
02719               8.40    -8200.00
02720             -15.20    -9000.00
02721             -24.40    -8800.00
02722              35.60    -9200.00
02723              -6.80    -9400.00
02724             -34.80    -9600.00
02725              31.20   -10000.00
02726              -2.40   -10000.00
02727              -8.00   -10400.00
02728             -10.00   -10400.00
02729              14.80   -10800.00
02730              -2.80   -10800.00
02731             -22.80   -11200.00
02732              21.20   -11400.00
02733              -2.80   -11400.00
02734             -12.40   -12000.00
02735               2.40   -12000.00
02736               7.20   -12200.00
02737             -10.40   -12200.00
02738              -7.20   -12600.00
02739               9.20   -12800.00
02740              -2.40   -12800.00
02741              -8.80   -13000.00
02742               2.80   -13000.00
02743               4.00   -13400.00
02744             -10.80   -13600.00
02745               0.40   -13800.00
02746               2.80   -14000.00
02747              -6.00   -14000.00
02748              -4.40   -14200.00
02749               4.40   -14200.00
02750              -2.00   -14400.00
02751              -8.40   -14600.00
02752               3.20   -14800.00
02753              -1.20   -14800.00
02754              -6.00   -15000.00
02755              -0.80   -15200.00
02756               1.60   -15200.00
02757              -5.20   -15200.00
02758              -3.60   -15400.00
02759               0.80   -15600.00
02760              -4.40   -15600.00
02761              -4.00   -15600.00
02762               0.40   -15600.00
02763              -0.80   -15800.00
02764              -4.40   -16000.00
02765              -2.40   -16200.00
02766              -0.40   -16200.00
02767              -4.00   -16200.00
02768              -4.00   -16200.00
02769              -0.40   -16400.00
02770              -1.20   -16400.00
02771              -4.00   -16400.00
02772              -2.40   -16400.00
02773              -1.20   -16400.00
02774              -3.20   -16600.00
02775              -2.80   -16400.00
02776              -0.80   -16400.00
02777              -1.60   -16400.00
02778              -3.60   -16800.00
02779              -2.00   -16800.00
02780              -2.00   -16600.00
02781              -2.80   -16600.00
02782              -2.40   -16600.00
02783              -1.20   -16600.00
02784              -2.00   -16800.00
02785              -2.80   -16400.00
02786              -2.00   -16800.00
02787              -2.40   -16400.00
02788              -2.40   -16400.00
02789              -2.40   -16400.00
02790              -1.20   -16400.00
02791              -2.00   -16400.00
02792              -2.80   -16400.00
02793              -2.40   -16400.00
02794              -2.00   -16400.00
02795              -2.40   -16200.00
02796              -2.00   -16200.00
02797              -2.00   -16000.00
02798              -2.00   -16000.00
02799              -2.40   -15800.00
02800              -2.40   -15800.00
02801              -1.60   -15800.00
02802              -2.00   -15600.00
02803              -2.40   -15400.00
02804              -2.00   -15400.00
02805              -1.20   -15400.00
02806              -2.40   -15400.00
02807              -2.00   -15000.00
02808              -2.00   -14800.00
02809              -2.00   -14800.00
02810              -2.00   -14800.00
02811              -2.00   -14800.00
02812              -2.00   -14400.00
02813              -1.60   -14400.00
02814              -2.40   -14000.00
02815              -1.60   -14000.00
02816              -2.00   -13800.00
02817              -2.00   -13800.00
02818              -2.40   -13600.00
02819              -1.20   -13600.00
02820              -2.00   -13200.00
02821              -2.40   -13200.00
02822              -1.60   -13000.00
02823              -2.00   -12800.00
02824              -2.00   -12600.00
02825              -2.00   -12400.00
02826              -2.00   -12400.00
02827              -2.00   -12200.00
02828              -2.00   -11800.00
02829              -2.00   -11600.00
02830              -1.20   -11600.00
02831              -2.00   -11400.00
02832              -2.00   -11000.00
02833              -2.00   -10800.00
02834              -1.20   -10800.00
02835              -1.20   -10600.00
02836              -1.20   -10200.00
02837              -2.00   -10000.00
02838              -1.20    -9800.00
02839              -2.40    -9800.00
02840              -2.00    -9400.00
02841              -1.20    -9200.00
02842              -2.00    -8800.00
02843              -2.00    -8800.00
02844              -0.80    -8400.00
02845              -1.60    -8200.00
02846              -1.20    -8000.00
02847              -1.20    -7600.00
02848              -1.20    -7400.00
02849              -1.20    -7200.00
02850              -1.20    -7000.00
02851              -1.20    -6800.00
02852              -1.20    -6600.00
02853              -1.20    -6400.00
02854              -0.80    -6000.00
02855              -0.40    -5800.00
02856              -1.20    -5400.00
02857              -1.20    -5200.00
02858              -0.80    -4800.00
02859              -0.80    -4600.00
02860              -1.20    -4400.00
02861              -0.80    -4000.00
02862              -0.80    -4000.00
02863              -0.40    -3600.00
02864              -0.80    -3400.00
02865              -0.80    -3200.00
02866              -0.80    -2800.00
02867              -0.80    -2600.00
02868              -1.20    -2200.00
02869              -0.80    -2000.00
02870              -0.80    -1800.00
02871              -0.40    -1600.00
02872               0.00    -1200.00
02873              -0.80     -800.00
02874              -0.40     -800.00
02875              -0.40     -600.00
02876               0.40     -400.00
02877              -0.40        0.00
02878               0.40      400.00
02879               2.00      400.00
02880               0.40      800.00
02881              -0.80     1200.00
02882               0.40     1200.00
02883               0.80     1600.00
02884               0.80     1800.00
02885              -0.80     2000.00
02886               5.60     2400.00
02887              22.00     2800.00
02888              -1.20     3200.00
02889             -42.00     3400.00
02890              -0.80     3600.00
02891              22.40     3600.00
02892             -30.40     3800.00
02893              18.40     4400.00
02894              38.80     4600.00
02895             -50.00     4800.00
02896              36.00     5200.00
02897              48.00     5200.00
02898             -50.00     5600.00
02899              11.60     5800.00
02900              29.60     6000.00
02901             -13.20     6400.00
02902              -6.40     6400.00
02903              -2.40     6800.00
02904              27.60     7200.00
02905             -21.60     7200.00
02906             -14.00     7600.00
02907              34.40     7600.00
02908             -16.40     8200.00
02909             -14.00     8400.00
02910              25.20     8600.00
02911               5.20     8800.00
02912             -23.20     9000.00
02913               2.80     9200.00
02914              21.20     9600.00
02915             -14.00     9800.00
02916              -6.00    10000.00
02917              14.00    10200.00
02918               4.80    10400.00
02919             -10.40    10600.00
02920               0.40    10800.00
02921              14.40    11000.00
02922              -9.20    11200.00
02923              -2.80    11600.00
02924              14.00    11800.00
02925              -1.60    11800.00
02926              -8.00    12000.00
02927               8.40    12200.00
02928               5.60    12400.00
02929              -8.80    12600.00
02930               2.00    12800.00
02931              10.40    12800.00
02932              -2.40    13200.00
02933              -3.60    13200.00
02934               7.60    13400.00
02935               2.00    13400.00
02936              -5.20    13800.00
02937               4.00    14000.00
02938               6.40    14000.00
02939              -3.60    14200.00
02940               0.40    14200.00
02941               8.40    14600.00
02942              -1.20    14600.00
02943              -2.40    14800.00
02944               6.00    14800.00
02945               2.40    14800.00
02946              -2.80    15000.00
02947               3.60    15000.00
02948               4.80    15200.00
02949              -2.00    15400.00
02950               0.80    15600.00
02951               4.00    15600.00
02952               0.40    15800.00
02953               0.00    15600.00
02954               3.60    15800.00
02955               2.40    16000.00
02956              -0.80    16000.00
02957               1.20    16000.00
02958               3.60    16400.00
02959               0.40    16400.00
02960               0.40    16400.00
02961               3.60    16400.00
02962               1.60    16400.00
02963               0.00    16400.00
02964               2.40    16600.00
02965               2.40    16400.00
02966               0.80    16600.00
02967               1.20    16400.00
02968               2.80    16600.00
02969               1.20    16600.00
02970               0.80    16600.00
02971               2.40    16600.00
02972               1.20    16400.00
02973               0.80    16600.00
02974               2.00    16600.00
02975               2.40    16400.00
02976               0.80    16400.00
02977               1.20    16600.00
02978               2.00    16600.00
02979               2.00    16600.00
02980               2.00    16400.00
02981               2.00    16400.00
02982               2.00    16400.00
02983               2.00    16200.00
02984               1.20    16400.00
02985               2.00    16200.00
02986               2.00    16000.00
02987               1.20    16000.00
02988               2.00    16000.00
02989               2.40    15800.00
02990               2.00    15800.00
02991               1.60    15600.00
02992               1.20    15600.00
02993               0.80    15600.00
02994               2.00    15600.00
02995               1.20    15600.00
02996               2.00    15200.00
02997               2.40    15200.00
02998               1.20    15000.00
02999               2.00    15000.00
03000               2.00    14800.00
03001               1.60    14600.00
03002               2.00    14600.00
03003               1.20    14400.00
03004               1.20    14400.00
03005               2.00    14200.00
03006               1.20    14000.00
03007               2.00    14000.00
03008               2.00    13600.00
03009               1.20    13600.00
03010               0.80    13200.00
03011               1.20    13200.00
03012               1.20    12800.00
03013               0.80    12800.00
03014               1.20    12600.00
03015               1.20    12600.00
03016               0.80    12400.00
03017               0.80    12000.00
03018               1.20    12000.00
03019               0.80    11800.00
03020               0.80    11400.00
03021               0.80    11200.00
03022               0.80    11200.00
03023               0.40    11000.00
03024               1.20    10800.00
03025               0.80    10600.00
03026               0.40    10200.00
03027               0.80    10200.00
03028               1.20    10000.00
03029               0.40     9600.00
03030               0.80     9400.00
03031               0.40     9200.00
03032               0.40     8800.00
03033               0.80     8800.00
03034               0.40     8600.00
03035               0.40     8400.00
03036               0.80     8200.00
03037               0.40     7800.00
03038               0.40     7600.00
03039               0.80     7400.00
03040               0.80     7200.00
03041               0.00     6800.00
03042               0.80     6400.00
03043               0.80     6400.00
03044               0.40     6200.00
03045               0.40     6000.00
03046               0.80     5600.00
03047               0.40     5400.00
03048               0.40     5000.00
03049               0.40     4800.00
03050               0.40     4600.00
03051               0.40     4400.00
03052               0.40     4200.00
03053              -0.40     3800.00
03054               0.40     3600.00
03055               0.40     3200.00
03056              -0.40     3000.00
03057               0.40     2800.00
03058               0.40     2400.00
03059              -0.40     2200.00
03060              -0.40     2000.00
03061               0.40     1800.00
03062               0.40     1400.00
03063              -0.40     1200.00
03064              -0.40      800.00
03065              -0.40      600.00
03066              -0.40      400.00
03067              -0.40        0.00
03068               0.00     -200.00
03069               0.40     -400.00
03070               2.80     -800.00
03071              -0.80    -1000.00
03072              -2.00    -1200.00
03073               1.20    -1600.00
03074               0.80    -1800.00
03075              -1.60    -2000.00
03076               5.20    -2200.00
03077              32.80    -2600.00
03078             -15.20    -3200.00
03079             -50.00    -3400.00
03080              14.00    -3600.00
03081               5.20    -3600.00
03082              -6.00    -3400.00
03083              50.00    -4400.00
03084             -50.00    -4000.00
03085              12.00    -4400.00
03086              50.00    -5200.00
03087             -50.00    -5000.00
03088              -0.80    -5600.00
03089              50.00    -5800.00
03090             -50.00    -5800.00
03091              15.60    -6400.00
03092               2.40    -6400.00
03093               5.20    -6800.00
03094              10.40    -7200.00
03095             -50.00    -7200.00
03096              49.20    -7800.00
03097              -4.40    -7600.00
03098             -42.80    -8000.00
03099              34.80    -8400.00
03100               7.60    -8400.00
03101             -15.20    -8800.00
03102             -24.00    -8800.00
03103              34.80    -9200.00
03104              -7.60    -9600.00
03105             -33.60    -9600.00
03106              30.80   -10000.00
03107              -2.80    -9800.00
03108              -8.40   -10400.00
03109              -9.60   -10600.00
03110              13.60   -10800.00
03111              -2.80   -10800.00
03112             -22.00   -11000.00
03113              21.60   -11400.00
03114              -3.60   -11400.00
03115             -12.40   -12000.00
03116               2.40   -12000.00
03117               6.80   -12200.00
03118             -10.00   -12400.00
03119              -6.80   -12600.00
03120               9.20   -12800.00
03121              -2.40   -12800.00
03122              -8.40   -13000.00
03123               2.80   -13200.00
03124               3.60   -13600.00
03125             -10.80   -13600.00
03126              -0.40   -13800.00
03127               3.20   -13800.00
03128              -5.60   -14000.00
03129              -4.40   -14000.00
03130               4.00   -14200.00
03131              -2.00   -14400.00
03132              -8.80   -14600.00
03133               3.60   -14600.00
03134              -0.80   -14800.00
03135              -6.00   -14800.00
03136              -0.40   -14800.00
03137               2.40   -15200.00
03138              -5.20   -15200.00
03139              -4.00   -15400.00
03140               2.40   -15600.00
03141              -4.00   -15600.00
03142              -4.80   -15600.00
03143               0.40   -15600.00
03144              -0.40   -16000.00
03145              -5.20   -16000.00
03146              -2.80   -16000.00
03147               0.80   -16200.00
03148              -4.40   -16200.00
03149              -4.00   -16200.00
03150               0.40   -16200.00
03151              -1.20   -16400.00
03152              -4.40   -16400.00
03153              -2.00   -16400.00
03154              -1.20   -16400.00
03155              -4.00   -16600.00
03156              -3.60   -16400.00
03157               0.40   -16400.00
03158              -2.40   -16600.00
03159              -4.00   -16600.00
03160              -1.20   -16600.00
03161              -2.00   -16800.00
03162              -3.60   -16600.00
03163              -2.00   -16600.00
03164              -1.20   -16400.00
03165              -2.40   -16600.00
03166              -2.80   -16400.00
03167              -1.20   -16600.00
03168              -2.40   -16600.00
03169              -2.80   -16400.00
03170              -2.40   -16400.00
03171              -1.20   -16200.00
03172              -2.00   -16400.00
03173              -2.80   -16400.00
03174              -2.00   -16400.00
03175              -2.00   -16200.00
03176              -3.60   -16000.00
03177              -2.40   -16200.00
03178              -1.20   -16200.00
03179              -2.40   -16000.00
03180              -2.40   -16000.00
03181              -1.60   -15800.00
03182              -2.00   -15800.00
03183              -2.40   -15600.00
03184              -2.00   -15600.00
03185              -2.00   -15400.00
03186              -2.00   -15200.00
03187              -2.40   -15200.00
03188              -2.00   -15200.00
03189              -2.00   -15000.00
03190              -2.00   -14800.00
03191              -2.00   -14800.00
03192              -2.00   -14600.00
03193              -2.00   -14400.00
03194              -2.40   -14400.00
03195              -1.20   -14000.00
03196              -1.60   -14000.00
03197              -1.60   -13800.00
03198              -1.60   -13800.00
03199              -2.00   -13600.00
03200              -2.00   -13400.00
03201              -2.00   -13200.00
03202              -2.00   -13200.00
03203              -1.20   -13000.00
03204              -1.20   -12800.00
03205              -1.60   -12400.00
03206              -2.40   -12400.00
03207              -1.20   -12200.00
03208              -2.00   -12000.00
03209              -2.40   -12000.00
03210              -1.20   -11600.00
03211              -1.20   -11400.00
03212              -2.00   -11400.00
03213              -1.20   -11000.00
03214              -2.00   -10800.00
03215              -2.00   -10800.00
03216              -2.00   -10600.00
03217              -1.20   -10400.00
03218              -1.20   -10000.00
03219              -1.20    -9800.00
03220              -2.00    -9600.00
03221              -2.00    -9200.00
03222              -1.60    -9200.00
03223              -2.00    -8800.00
03224              -1.20    -8800.00
03225              -1.20    -8600.00
03226              -2.00    -8200.00
03227              -0.80    -8000.00
03228              -1.20    -7600.00
03229              -1.60    -7400.00
03230              -1.20    -7200.00
03231              -1.20    -6800.00
03232              -1.20    -6800.00
03233              -1.20    -6600.00
03234              -1.20    -6400.00
03235              -1.20    -6000.00
03236              -1.20    -5800.00
03237              -0.80    -5600.00
03238              -1.20    -5200.00
03239              -1.20    -5000.00
03240              -1.20    -4600.00
03241              -0.80    -4400.00
03242              -1.20    -4200.00
03243              -0.80    -4000.00
03244              -0.40    -3600.00
03245              -0.80    -3400.00
03246              -0.80    -3200.00
03247              -0.80    -3000.00
03248              -0.80    -2800.00
03249              -0.80    -2400.00
03250              -0.80    -2200.00
03251              -0.40    -1800.00
03252              -0.80    -1600.00
03253              -0.80    -1200.00
03254              -0.40     -800.00
03255              -0.40     -800.00
03256              -0.40     -400.00
03257               0.40     -200.00
03258              -0.40        0.00
03259               0.40      200.00
03260               2.40      600.00
03261               0.40      800.00
03262              -1.20     1200.00
03263               0.80     1400.00
03264               0.80     1600.00
03265               0.40     2000.00
03266               0.40     2200.00
03267               6.00     2400.00
03268              21.20     2800.00
03269              -0.80     3200.00
03270             -41.20     3600.00
03271              -1.60     3600.00
03272              22.40     3600.00
03273             -29.60     3800.00
03274              18.40     4400.00
03275              38.00     4400.00
03276             -50.00     4800.00
03277              36.80     5200.00
03278              46.80     5200.00
03279             -50.00     5600.00
03280              12.80     6000.00
03281              29.20     6000.00
03282             -13.60     6400.00
03283              -5.60     6600.00
03284              -2.40     6800.00
03285              27.60     7000.00
03286             -21.60     7200.00
03287             -14.00     7600.00
03288              34.80     7800.00
03289             -16.80     8200.00
03290             -14.80     8400.00
03291              26.00     8400.00
03292               5.60     8800.00
03293             -23.60     8800.00
03294               2.80     9200.00
03295              21.60     9600.00
03296             -14.40     9800.00
03297              -6.80    10000.00
03298              14.00    10200.00
03299               5.20    10400.00
03300             -10.80    10400.00
03301               0.40    10800.00
03302              15.20    11000.00
03303             -10.00    11200.00
03304              -3.60    11600.00
03305              14.80    11800.00
03306              -1.20    11800.00
03307              -8.40    12000.00
03308               8.00    12000.00
03309               5.60    12400.00
03310              -8.80    12600.00
03311               2.00    12800.00
03312              10.40    12800.00
03313              -2.00    13000.00
03314              -4.00    13200.00
03315               8.00    13200.00
03316               2.00    13600.00
03317              -5.60    13600.00
03318               4.40    13800.00
03319               6.00    14000.00
03320              -4.40    14200.00
03321               1.20    14400.00
03322               8.40    14600.00
03323              -2.40    14600.00
03324              -2.00    14800.00
03325               6.00    14800.00
03326               1.20    15000.00
03327              -2.00    15200.00
03328               4.40    15200.00
03329               4.00    15200.00
03330              -2.00    15400.00
03331               2.00    15600.00
03332               4.00    15600.00
03333               0.40    15800.00
03334               0.80    15800.00
03335               4.00    16000.00
03336               2.40    16000.00
03337               0.40    16000.00
03338               2.00    16000.00
03339               2.80    16200.00
03340              -0.40    16200.00
03341               0.80    16200.00
03342               4.00    16400.00
03343               1.20    16400.00
03344              -0.40    16400.00
03345               2.40    16600.00
03346               2.00    16400.00
03347               0.40    16600.00
03348               2.40    16400.00
03349               2.80    16600.00
03350               0.80    16600.00
03351               1.20    16400.00
03352               2.40    16600.00
03353               1.20    16400.00
03354               0.80    16400.00
03355               2.00    16600.00
03356               2.00    16400.00
03357               1.20    16600.00
03358               1.20    16400.00
03359               2.00    16400.00
03360               1.60    16400.00
03361               1.20    16400.00
03362               2.00    16400.00
03363               2.00    16400.00
03364               1.20    16400.00
03365               1.20    16200.00
03366               2.00    16200.00
03367               2.00    16000.00
03368               1.20    16000.00
03369               2.00    16000.00
03370               2.40    16000.00
03371               2.00    15800.00
03372               1.20    15600.00
03373               0.80    15800.00
03374               1.20    15600.00
03375               2.00    15600.00
03376               1.20    15400.00
03377               2.00    15200.00
03378               2.00    15200.00
03379               1.60    15000.00
03380               2.00    15000.00
03381               2.00    14800.00
03382               0.80    14600.00
03383               1.20    14600.00
03384               2.00    14400.00
03385               1.20    14200.00
03386               1.60    14200.00
03387               1.20    14000.00
03388               1.60    14000.00
03389               0.80    13600.00
03390               2.00    13600.00
03391               0.80    13200.00
03392               1.20    13200.00
03393               1.20    13000.00
03394               1.20    12800.00
03395               1.20    12600.00
03396               1.20    12400.00
03397               0.80    12400.00
03398               0.80    12000.00
03399               1.20    12000.00
03400               1.20    11800.00
03401               0.80    11400.00
03402               1.20    11200.00
03403               0.80    11200.00
03404               0.40    11000.00
03405               0.80    10800.00
03406               0.80    10400.00
03407               0.80    10400.00
03408               0.80    10000.00
03409               0.80    10000.00
03410               1.20     9600.00
03411               0.40     9400.00
03412               0.80     9200.00
03413               0.80     9000.00
03414               0.40     8800.00
03415               0.80     8800.00
03416               0.80     8400.00
03417               0.40     8000.00
03418               0.40     7800.00
03419               0.40     7600.00
03420               0.40     7200.00
03421               0.40     7000.00
03422               0.40     6800.00
03423               0.40     6600.00
03424               0.40     6400.00
03425               0.40     6200.00
03426               0.40     6000.00
03427               0.40     5600.00
03428               0.40     5400.00
03429               0.40     5200.00
03430               0.40     4800.00
03431               0.40     4600.00
03432               0.40     4400.00
03433              -0.40     4000.00
03434               0.00     3600.00
03435               0.40     3600.00
03436              -0.40     3200.00
03437               0.40     2800.00
03438               0.00     2800.00
03439              -0.40     2400.00
03440               0.40     2200.00
03441               0.40     2000.00
03442               0.40     1600.00
03443              -0.40     1400.00
03444               0.00     1200.00
03445               0.40      800.00
03446              -0.40      600.00
03447              -0.80      400.00
03448               0.80        0.00
03449              -0.40     -200.00
03450               0.40     -400.00
03451               3.60     -800.00
03452              -0.80    -1000.00
03453              -2.40    -1200.00
03454               1.20    -1600.00
03455               1.20    -1800.00
03456              -2.40    -2000.00
03457               5.60    -2000.00
03458              33.20    -2800.00
03459             -15.60    -3200.00
03460             -50.00    -3400.00
03461              14.80    -3600.00
03462               5.20    -3600.00
03463              -5.60    -3600.00
03464              50.00    -4200.00
03465             -50.00    -4200.00
03466              13.20    -4400.00
03467              50.00    -5200.00
03468             -50.00    -5000.00
03469               0.80    -5600.00
03470              50.00    -5800.00
03471             -50.00    -5800.00
03472              15.60    -6400.00
03473               2.40    -6400.00
03474               5.60    -6800.00
03475              10.40    -7200.00
03476             -50.00    -7200.00
03477              50.00    -7800.00
03478              -5.20    -7600.00
03479             -42.80    -8000.00
03480              34.80    -8400.00
03481               6.80    -8400.00
03482             -15.20    -9000.00
03483             -23.60    -8800.00
03484              35.60    -9200.00
03485              -8.40    -9400.00
03486             -33.20    -9600.00
03487              30.80   -10000.00
03488              -3.60   -10000.00
03489              -8.00   -10400.00
03490             -10.00   -10600.00
03491              13.60   -10800.00
03492              -3.60   -10800.00
03493             -22.40   -11200.00
03494              21.20   -11400.00
03495              -3.60   -11600.00
03496             -11.60   -12000.00
03497               2.00   -12000.00
03498               6.80   -12200.00
03499              -9.60   -12400.00
03500              -7.20   -12400.00
03501               8.80   -12800.00
03502              -2.80   -12800.00
03503              -8.00   -13000.00
03504               2.40   -13200.00
03505               4.00   -13400.00
03506             -10.80   -13600.00
03507               0.00   -13800.00
03508               3.20   -13800.00
03509              -5.20   -14000.00
03510              -4.80   -14000.00
03511               4.00   -14400.00
03512              -1.20   -14400.00
03513              -8.80   -14600.00
03514               2.80   -14800.00
03515               0.00   -14800.00
03516              -6.00   -14800.00
03517              -1.20   -14800.00
03518               3.60   -15200.00
03519              -4.40   -15200.00
03520              -5.20   -15400.00
03521               2.80   -15400.00
03522              -3.60   -15600.00
03523              -5.20   -15600.00
03524               0.40   -15600.00
03525               0.80   -15800.00
03526              -4.40   -16000.00
03527              -3.60   -16000.00
03528               0.80   -16200.00
03529              -3.60   -16200.00
03530              -4.40   -16200.00
03531               0.80   -16200.00
03532              -1.20   -16400.00
03533              -4.40   -16400.00
03534              -2.00   -16400.00
03535              -0.80   -16400.00
03536              -4.00   -16400.00
03537              -3.60   -16400.00
03538               0.40   -16400.00
03539              -1.20   -16600.00
03540              -4.40   -16400.00
03541              -2.00   -16600.00
03542              -1.20   -16600.00
03543              -3.60   -16800.00
03544              -2.80   -16400.00
03545              -1.20   -16400.00
03546              -2.40   -16600.00
03547              -3.20   -16600.00
03548              -2.00   -16600.00
03549              -2.00   -16400.00
03550              -2.80   -16400.00
03551              -2.40   -16400.00
03552              -1.20   -16400.00
03553              -2.00   -16400.00
03554              -2.80   -16400.00
03555              -2.00   -16200.00
03556              -2.40   -16200.00
03557              -2.40   -16200.00
03558              -2.00   -16000.00
03559              -2.80   -16200.00
03560              -1.60   -16000.00
03561              -2.00   -16000.00
03562              -2.80   -15800.00
03563              -2.00   -15800.00
03564              -0.80   -15600.00
03565              -4.00   -15600.00
03566              -1.20   -15600.00
03567              -1.20   -15200.00
03568              -3.60   -15200.00
03569              -2.00   -15200.00
03570              -1.20   -15200.00
03571              -2.40   -14800.00
03572              -2.40   -14800.00
03573              -1.20   -14600.00
03574              -2.00   -14400.00
03575              -2.40   -14400.00
03576              -1.20   -14200.00
03577              -2.00   -14000.00
03578              -2.00   -13800.00
03579              -1.20   -13800.00
03580              -2.40   -13600.00
03581              -2.00   -13400.00
03582              -1.20   -13200.00
03583              -2.00   -13200.00
03584              -1.20   -12800.00
03585              -1.20   -12800.00
03586              -1.20   -12400.00
03587              -2.00   -12400.00
03588              -1.60   -12400.00
03589              -2.00   -12200.00
03590              -2.00   -12000.00
03591              -1.20   -11600.00
03592              -1.20   -11400.00
03593              -2.00   -11000.00
03594              -1.20   -11000.00
03595              -2.00   -10800.00
03596              -1.20   -10600.00
03597              -1.20   -10400.00
03598              -1.20   -10200.00
03599              -2.00   -10000.00
03600              -0.80    -9800.00
03601              -2.40    -9600.00
03602              -2.00    -9600.00
03603              -1.20    -9200.00
03604              -2.00    -8800.00
03605              -1.20    -8600.00
03606              -1.20    -8400.00
03607              -2.00    -8200.00
03608              -1.20    -8000.00
03609              -1.60    -7600.00
03610              -1.20    -7600.00
03611              -1.20    -7200.00
03612              -1.20    -6800.00
03613              -1.20    -6800.00
03614              -1.60    -6600.00
03615              -2.00    -6200.00
03616              -1.20    -6000.00
03617              -0.40    -5800.00
03618              -2.40    -5600.00
03619              -0.80    -5200.00
03620              -0.80    -5000.00
03621              -1.60    -4600.00
03622              -2.00    -4600.00
03623               0.00    -4400.00
03624              -0.80    -4000.00
03625              -1.20    -3800.00
03626              -0.80    -3400.00
03627              -0.40    -3200.00
03628              -1.20    -2800.00
03629              -0.80    -2600.00
03630              -0.80    -2400.00
03631              -0.40    -2000.00
03632               0.40    -1800.00
03633              -1.60    -1400.00
03634              -0.40    -1200.00
03635              -0.40    -1000.00
03636              -1.20     -600.00
03637              -0.40     -400.00
03638               0.80     -200.00
03639              -0.80      200.00
03640              -0.40      200.00
03641               3.60      600.00
03642               0.40      800.00
03643              -2.40     1200.00
03644               2.00     1400.00
03645               2.00     1600.00
03646              -2.00     1800.00
03647               0.40     2200.00
03648               7.60     2400.00
03649              20.00     2800.00
03650              -1.20     3200.00
03651             -39.60     3400.00
03652              -1.20     3800.00
03653              21.20     3600.00
03654             -28.80     3800.00
03655              19.60     4400.00
03656              37.20     4400.00
03657             -50.00     4800.00
03658              37.20     5000.00
03659              46.80     5200.00
03660             -50.00     5600.00
03661              12.80     5800.00
03662              29.20     6000.00
03663             -12.40     6400.00
03664              -6.40     6600.00
03665              -2.40     6800.00
03666              28.00     7000.00
03667             -21.60     7200.00
03668             -14.80     7600.00
03669              35.60     7800.00
03670             -16.40     8200.00
03671             -14.80     8400.00
03672              25.20     8400.00
03673               6.00     8800.00
03674             -23.60     9000.00
03675               2.80     9200.00
03676              22.00     9400.00
03677             -14.40     9600.00
03678              -6.80    10000.00
03679              14.00    10200.00
03680               4.40    10200.00
03681             -11.20    10800.00
03682               0.40    10800.00
03683              14.00    11000.00
03684             -10.40    11000.00
03685              -3.20    11600.00
03686              14.00    11600.00
03687              -1.20    11800.00
03688              -8.00    12000.00
03689               7.60    12000.00
03690               6.00    12400.00
03691              -8.80    12600.00
03692               1.60    12800.00
03693              10.80    13000.00
03694              -2.40    13200.00
03695              -4.40    13200.00
03696               8.40    13400.00
03697               2.40    13400.00
03698              -6.00    13600.00
03699               4.00    13800.00
03700               6.80    14000.00
03701              -4.00    14200.00
03702               0.80    14400.00
03703               8.40    14400.00
03704              -2.00    14600.00
03705              -2.00    14800.00
03706               6.00    14800.00
03707               2.40    15000.00
03708              -2.40    15000.00
03709               3.60    15000.00
03710               5.20    15200.00
03711              -2.00    15400.00
03712               0.80    15600.00
03713               4.40    15600.00
03714               0.40    15600.00
03715               0.40    15800.00
03716               3.60    16000.00
03717               2.80    16000.00
03718              -0.40    16000.00
03719               1.20    16000.00
03720               3.60    16200.00
03721               0.80    16200.00
03722               0.80    16200.00
03723               4.00    16400.00
03724               2.00    16400.00
03725               0.00    16600.00
03726               2.40    16400.00
03727               2.40    16400.00
03728               0.40    16600.00
03729               2.00    16400.00
03730               3.60    16400.00
03731               0.80    16600.00
03732               1.20    16400.00
03733               2.40    16600.00
03734               1.20    16400.00
03735               1.20    16400.00
03736               2.40    16400.00
03737               2.00    16400.00
03738               1.20    16600.00
03739               1.20    16600.00
03740               1.60    16600.00
03741               1.20    16400.00
03742               1.20    16400.00
03743               2.00    16200.00
03744               1.20    16400.00
03745               1.20    16400.00
03746               2.00    16200.00
03747               1.20    16000.00
03748               1.20    16000.00
03749               1.20    16000.00
03750               2.00    15800.00
03751               2.00    16000.00
03752               2.00    15800.00
03753               0.80    15800.00
03754               1.20    15600.00
03755               1.20    15600.00
03756               2.00    15400.00
03757               0.80    15600.00
03758               2.00    15200.00
03759               1.60    15200.00
03760               1.20    15000.00
03761               1.60    14800.00
03762               2.00    15000.00
03763               1.60    14800.00
03764               1.20    14800.00
03765               1.20    14400.00
03766               1.20    14600.00
03767               1.20    14200.00
03768               0.80    14000.00
03769               1.60    14000.00
03770               1.20    13600.00
03771               1.20    13600.00
03772               1.20    13400.00
03773               1.20    13200.00
03774               1.20    12800.00
03775               0.80    12800.00
03776               1.60    12600.00
03777               1.20    12600.00
03778               0.80    12400.00
03779               1.20    12400.00
03780               2.00    12000.00
03781               0.40    11800.00
03782               1.20    11600.00
03783               1.20    11200.00
03784               0.80    11200.00
03785               1.20    10800.00
03786               1.20    10800.00
03787               0.80    10600.00
03788               0.80    10400.00
03789               0.80    10200.00
03790               0.80    10000.00
03791               1.20     9600.00
03792               0.40     9400.00
03793               0.80     9200.00
03794               0.80     9000.00
03795               0.40     8800.00
03796               0.80     8400.00
03797               0.80     8400.00
03798               0.40     8000.00
03799               0.40     8000.00
03800               0.40     7600.00
03801               0.40     7200.00
03802               0.40     7200.00
03803               0.40     6800.00
03804               0.40     6600.00
03805               0.40     6400.00
03806               0.40     6000.00
03807               0.40     6000.00
03808               0.40     5600.00
03809               0.40     5400.00
03810               0.40     5000.00
03811               0.40     4800.00
03812               0.40     4600.00
03813               0.40     4200.00
03814               0.40     4000.00
03815              -0.40     3800.00
03816               0.40     3600.00
03817               0.00     3200.00
03818               0.00     3000.00
03819               0.00     2800.00
03820              -0.40     2400.00
03821               0.00     2200.00
03822              -0.40     2000.00
03823               0.40     1600.00
03824              -0.40     1400.00
03825              -0.40     1200.00
03826              -0.40      800.00
03827              -0.40      600.00
03828              -0.40        0.00
03829              -0.80      200.00
03830               0.80     -200.00
03831               0.40     -400.00
03832               2.00     -800.00
03833               0.40     -800.00
03834              -2.00    -1200.00
03835               0.40    -1400.00
03836               1.20    -1800.00
03837              -1.20    -2000.00
03838               4.40    -2000.00
03839              33.20    -2800.00
03840             -14.80    -3200.00
03841             -50.00    -3400.00
03842              15.20    -3600.00
03843               6.00    -3600.00
03844              -5.60    -3600.00
03845              50.00    -4400.00
03846             -50.00    -4200.00
03847              14.00    -4400.00
03848              50.00    -5200.00
03849             -50.00    -5000.00
03850               2.00    -5600.00
03851              50.00    -5800.00
03852             -50.00    -5800.00
03853              16.40    -6400.00
03854               4.00    -6400.00
03855               5.20    -6800.00
03856              10.40    -7200.00
03857             -50.00    -7200.00
03858              49.60    -7800.00
03859              -5.20    -7600.00
03860             -42.00    -8000.00
03861              34.40    -8400.00
03862               6.80    -8400.00
03863             -14.80    -9000.00
03864             -23.60    -8800.00
03865              34.80    -9200.00
03866              -7.60    -9400.00
03867             -33.60    -9600.00
03868              30.80   -10000.00
03869              -3.20   -10000.00
03870              -8.40   -10400.00
03871              -9.20   -10400.00
03872              13.60   -10800.00
03873              -3.60   -11200.00
03874             -21.60   -11000.00
03875              20.40   -11400.00
03876              -3.60   -11600.00
03877             -11.60   -11800.00
03878               2.00   -12000.00
03879               6.80   -12200.00
03880             -10.00   -12400.00
03881              -7.20   -12600.00
03882               8.80   -12800.00
03883              -2.40   -12800.00
03884              -8.40   -13000.00
03885               2.40   -13000.00
03886               3.60   -13400.00
03887             -10.80   -13600.00
03888               0.40   -13600.00
03889               3.60   -13800.00
03890              -5.20   -14000.00
03891              -4.40   -14000.00
03892               4.40   -14400.00
03893              -2.40   -14400.00
03894              -8.80   -14600.00
03895               3.60   -14800.00
03896              -1.20   -14800.00
03897              -7.20   -14800.00
03898               0.00   -15000.00
03899               2.40   -15200.00
03900              -5.60   -15200.00
03901              -3.60   -15400.00
03902               2.80   -15600.00
03903              -4.00   -15600.00
03904              -4.40   -15600.00
03905               1.20   -15600.00
03906               0.40   -16000.00
03907              -5.20   -16000.00
03908              -2.40   -16000.00
03909               1.20   -16200.00
03910              -4.00   -16200.00
03911              -4.40   -16200.00
03912               0.80   -16200.00
03913              -0.80   -16400.00
03914              -4.40   -16400.00
03915              -2.00   -16400.00
03916              -0.40   -16400.00
03917              -3.60   -16400.00
03918              -3.60   -16400.00
03919               0.40   -16600.00
03920              -1.20   -16600.00
03921              -4.00   -16600.00
03922              -1.60   -16400.00
03923              -2.00   -16800.00
03924              -3.20   -16600.00
03925              -2.40   -16600.00
03926              -0.80   -16400.00
03927              -2.00   -16600.00
03928              -3.20   -16800.00
03929              -2.00   -16600.00
03930              -2.40   -16600.00
03931              -2.80   -16400.00
03932              -2.40   -16400.00
03933              -2.00   -16400.00
03934              -1.60   -16400.00
03935              -2.80   -16200.00
03936              -2.40   -16400.00
03937              -2.00   -16200.00
03938              -2.40   -16200.00
03939              -2.40   -16200.00
03940              -2.00   -16000.00
03941              -2.00   -16200.00
03942              -2.80   -16000.00
03943              -2.40   -15800.00
03944              -2.40   -15600.00
03945              -2.00   -15400.00
03946              -2.40   -15400.00
03947              -2.40   -15400.00
03948              -2.00   -15200.00
03949              -2.40   -15200.00
03950              -2.40   -15200.00
03951              -1.20   -15000.00
03952              -2.00   -14800.00
03953              -2.40   -14800.00
03954              -2.00   -14800.00
03955              -2.40   -14600.00
03956              -2.40   -14400.00
03957              -2.40   -14400.00
03958              -2.00   -14000.00
03959              -2.00   -13800.00
03960              -2.00   -13800.00
03961              -2.00   -13600.00
03962              -2.00   -13400.00
03963              -1.20   -13200.00
03964              -2.40   -13200.00
03965              -1.20   -13000.00
03966              -1.60   -12800.00
03967              -2.00   -12600.00
03968              -2.00   -12400.00
03969              -1.60   -12200.00
03970              -2.00   -12200.00
03971              -1.20   -12000.00
03972              -1.20   -11600.00
03973              -1.20   -11400.00
03974              -1.20   -11400.00
03975              -1.20   -11000.00
03976              -2.00   -10800.00
03977              -1.60   -10600.00
03978              -1.20   -10400.00
03979              -1.20   -10400.00
03980              -1.20   -10000.00
03981              -1.20    -9800.00
03982              -2.00    -9600.00
03983              -2.00    -9200.00
03984              -1.20    -9000.00
03985              -1.60    -9000.00
03986              -1.20    -8800.00
03987              -0.80    -8400.00
03988              -2.00    -8200.00
03989              -1.20    -8000.00
03990              -0.80    -7600.00
03991              -1.60    -7600.00
03992              -1.20    -7200.00
03993              -1.20    -7000.00
03994              -1.60    -6800.00
03995              -1.20    -6600.00
03996              -1.20    -6400.00
03997              -1.20    -6000.00
03998              -0.80    -5800.00
03999              -0.80    -5400.00
04000              -1.20    -5200.00
04001              -1.20    -5000.00
04002              -0.80    -4600.00
04003              -2.00    -4400.00
04004              -1.20    -4200.00
04005              -0.80    -4000.00
04006              -0.80    -3600.00
04007              -0.80    -3400.00
04008              -1.20    -3200.00
04009              -1.20    -2800.00
04010              -0.80    -2600.00
04011              -1.20    -2400.00
04012              -0.80    -2000.00
04013              -0.40    -1800.00
04014              -1.20    -1600.00
04015              -0.80    -1200.00
04016              -0.80    -1000.00
04017              -0.80     -800.00
04018              -0.80     -400.00
04019              -0.80     -200.00
04020               0.80        0.00
04021               0.40      400.00
04022               0.80      600.00
04023               2.00      800.00
04024              -0.80     1200.00
04025              -0.80     1400.00
04026               2.40     1800.00
04027               0.80     1800.00
04028              -1.20     2000.00
04029               6.80     2400.00
04030              22.40     3000.00
04031              -2.40     3000.00
04032             -41.20     3400.00
04033               0.00     3600.00
04034              21.60     3600.00
04035             -30.00     3800.00
04036              20.00     4400.00
04037              37.20     4400.00
04038             -50.00     4800.00
04039              38.00     5200.00
04040              45.60     5200.00
04041             -50.00     5600.00
04042              13.20     5800.00
04043              29.60     6000.00
04044             -13.20     6400.00
04045              -5.60     6600.00
04046              -1.20     6800.00
04047              27.60     7000.00
04048             -22.00     7200.00
04049             -12.80     7400.00
04050              34.80     7800.00
04051             -18.00     8200.00
04052             -13.60     8400.00
04053              26.80     8600.00
04054               4.80     8600.00
04055             -24.40     9000.00
04056               4.40     9200.00
04057              21.60     9400.00
04058             -16.40     9600.00
04059              -4.40    10000.00
04060              16.00    10200.00
04061               2.00    10400.00
04062             -12.00    10400.00
04063               3.60    10800.00
04064              13.60    11000.00
04065             -12.00    11200.00
04066              -1.60    11600.00
04067              15.20    11600.00
04068              -3.60    11800.00
04069              -7.60    12000.00
04070              10.00    12200.00
04071               5.60    12400.00
04072             -10.40    12400.00
04073               2.40    12800.00
04074              10.40    13000.00
04075              -2.40    13200.00
04076              -4.40    13200.00
04077               8.40    13400.00
04078               2.00    13600.00
04079              -5.60    13600.00
04080               3.60    14000.00
04081               5.60    14000.00
04082              -2.80    14200.00
04083               0.80    14400.00
04084               7.20    14600.00
04085              -1.20    14600.00
04086              -1.20    14800.00
04087               5.20    14800.00
04088               1.20    14800.00
04089              -1.20    15000.00
04090               4.00    15200.00
04091               3.60    15400.00
04092              -1.60    15400.00
04093               2.40    15600.00
04094               4.00    15600.00
04095              -0.40    15800.00
04096               1.20    15800.00
04097               4.00    15800.00
04098               2.00    16000.00
04099               0.00    16000.00
04100               2.40    16200.00
04101               2.80    16000.00
04102               0.80    16400.00
04103               1.20    16400.00
04104               4.00    16400.00
04105               1.20    16400.00
04106               0.40    16400.00
04107               2.80    16400.00
04108               2.40    16400.00
04109               0.40    16400.00
04110               2.40    16400.00
04111               2.80    16400.00
04112               0.80    16400.00
04113               2.00    16600.00
04114               2.40    16400.00
04115               2.00    16600.00
04116               1.60    16600.00
04117               2.40    16400.00
04118               2.40    16600.00
04119               1.20    16600.00
04120               1.20    16400.00
04121               2.40    16400.00
04122               1.20    16400.00
04123               1.20    16400.00
04124               2.00    16400.00
04125               2.00    16400.00
04126               1.20    16400.00
04127               1.20    16200.00
04128               2.00    16200.00
04129               1.20    16000.00
04130               0.80    16000.00
04131               2.00    16000.00
04132               2.40    15800.00
04133               1.20    15800.00
04134               0.80    15800.00
04135               1.20    15600.00
04136               1.20    15600.00
04137               2.00    15600.00
04138               1.20    15400.00
04139               1.20    15200.00
04140               1.60    15000.00
04141               1.20    15000.00
04142               1.20    15000.00
04143               2.00    14800.00
04144               1.20    14800.00
04145               1.20    14400.00
04146               1.20    14600.00
04147               1.20    14200.00
04148               1.20    14200.00
04149               1.60    14000.00
04150               1.20    13600.00
04151               1.20    13600.00
04152               1.20    13400.00
04153               1.20    13400.00
04154               1.20    13200.00
04155               1.20    13000.00
04156               0.80    12800.00
04157               1.20    12600.00
04158               1.20    12400.00
04159               0.80    12400.00
04160               1.20    12200.00
04161               1.60    12000.00
04162               0.80    11800.00
04163               0.40    11600.00
04164               2.40    11200.00
04165               2.00    11200.00
04166              -0.80    10800.00
04167               2.00    10800.00
04168               2.00    10600.00
04169              -1.20    10200.00
04170               2.40    10200.00
04171               0.80    10000.00
04172               0.40     9600.00
04173               1.20     9400.00
04174               1.20     9200.00
04175               0.40     9000.00
04176               0.40     8800.00
04177               2.00     8400.00
04178               0.40     8400.00
04179               1.60     8000.00
04180               0.40     7800.00
04181              -0.40     7600.00
04182               2.40     7200.00
04183               0.00     7000.00
04184              -0.80     6800.00
04185               2.00     6600.00
04186               0.40     6400.00
04187              -0.40     6200.00
04188               0.40     6000.00
04189               1.20     5600.00
04190              -0.40     5200.00
04191              -1.20     5000.00
04192               1.20     4800.00
04193               0.80     4400.00
04194              -1.60     4400.00
04195               0.80     4000.00
04196               2.00     3600.00
04197              -2.00     3400.00
04198              -0.40     3200.00
04199               1.60     3200.00
04200              -0.80     2800.00
04201              -0.40     2400.00
04202               0.80     2200.00
04203              -0.40     1800.00
04204              -1.20     1600.00
04205               0.80     1400.00
04206               0.40     1200.00
04207              -0.80      800.00
04208               0.40      600.00
04209              -0.40      200.00
04210              -0.80        0.00
04211               0.40     -200.00
04212               0.80     -400.00
04213               2.00     -800.00
04214              -0.40    -1000.00
04215              -1.20    -1200.00
04216               0.40    -1400.00
04217               0.40    -1800.00
04218              -1.20    -2000.00
04219               5.20    -2200.00
04220              32.80    -2800.00
04221             -15.20    -3200.00
04222             -50.00    -3400.00
04223              14.80    -3600.00
04224               5.60    -3600.00
04225              -5.20    -3600.00
04226              50.00    -4400.00
04227             -50.00    -4000.00
04228              15.20    -4400.00
04229              50.00    -5200.00
04230             -50.00    -5000.00
04231               2.40    -5600.00
04232              50.00    -6000.00
04233             -50.00    -5800.00
04234              17.20    -6400.00
04235               2.00    -6400.00
04236               6.00    -7000.00
04237              10.40    -7000.00
04238             -50.00    -7200.00
04239              50.00    -7600.00
04240              -5.20    -7600.00
04241             -42.00    -8000.00
04242              34.40    -8400.00
04243               7.60    -8400.00
04244             -15.20    -8800.00
04245             -23.60    -8800.00
04246              36.00    -9200.00
04247              -8.40    -9200.00
04248             -32.80    -9600.00
04249              30.80   -10000.00
04250              -3.60   -10000.00
04251              -7.20   -10400.00
04252             -10.00   -10400.00
04253              13.20   -10800.00
04254              -3.60   -10800.00
04255             -21.60   -11200.00
04256              20.00   -11600.00
04257              -3.60   -11600.00
04258             -10.80   -11800.00
04259               2.00   -12000.00
04260               5.60   -12200.00
04261              -9.20   -12400.00
04262              -7.20   -12600.00
04263               8.40   -12800.00
04264              -3.20   -12800.00
04265              -7.60   -13000.00
04266               2.00   -13200.00
04267               3.20   -13400.00
04268             -10.00   -13600.00
04269              -0.40   -13600.00
04270               2.00   -14000.00
04271              -5.20   -14000.00
04272              -4.40   -14000.00
04273               3.60   -14400.00
04274              -1.20   -14400.00
04275              -8.40   -14600.00
04276               2.00   -14800.00
04277              -0.80   -14800.00
04278              -5.60   -15000.00
04279              -2.00   -15000.00
04280               2.00   -15200.00
04281              -4.00   -15200.00
04282              -4.40   -15400.00
04283               1.20   -15600.00
04284              -3.60   -15600.00
04285              -4.40   -15600.00
04286              -0.40   -15600.00
04287              -0.40   -15600.00
04288              -4.00   -16000.00
04289              -2.40   -16000.00
04290               0.40   -16200.00
04291              -4.40   -16200.00
04292              -2.80   -16200.00
04293              -0.40   -16200.00
04294              -2.40   -16400.00
04295              -2.80   -16400.00
04296              -1.20   -16600.00
04297              -2.40   -16600.00
04298              -2.80   -16400.00
04299              -2.40   -16400.00
04300              -1.20   -16600.00
04301              -2.00   -16400.00
04302              -2.40   -16600.00
04303              -2.00   -16400.00
04304              -2.00   -16800.00
04305              -2.40   -16600.00
04306              -2.40   -16600.00
04307              -1.60   -16600.00
04308              -1.20   -16400.00
04309              -3.60   -16600.00
04310              -2.00   -16600.00
04311              -2.00   -16400.00
04312              -2.80   -16400.00
04313              -2.00   -16400.00
04314              -1.20   -16400.00
04315              -2.40   -16400.00
04316              -2.40   -16400.00
04317              -2.40   -16400.00
04318              -3.20   -16200.00
04319              -2.00   -16400.00
04320              -2.00   -16200.00
04321              -2.40   -16000.00
04322              -2.40   -16200.00
04323              -2.00   -16000.00
04324              -2.80   -15800.00
04325              -2.80   -15800.00
04326              -1.60   -15600.00
04327              -2.00   -15600.00
04328              -2.80   -15400.00
04329              -2.00   -15400.00
04330              -2.00   -15200.00
04331              -2.80   -15200.00
04332              -2.40   -15000.00
04333              -2.00   -14800.00
04334              -2.00   -14600.00
04335              -2.40   -14800.00
04336              -2.40   -14600.00
04337              -1.60   -14400.00
04338              -2.40   -14400.00
04339              -2.00   -14000.00
04340              -2.00   -13800.00
04341              -2.00   -13800.00
04342              -2.80   -13600.00
04343              -2.40   -13400.00
04344              -1.60   -13400.00
04345              -2.00   -13000.00
04346              -2.00   -13000.00
04347              -1.20   -12800.00
04348              -2.40   -12600.00
04349              -2.40   -12600.00
04350              -2.00   -12400.00
04351              -1.60   -12000.00
04352              -2.00   -12000.00
04353              -1.20   -11600.00
04354              -1.60   -11400.00
04355              -2.00   -11400.00
04356              -2.00   -11000.00
04357              -1.60   -10800.00
04358              -1.20   -10600.00
04359              -1.20   -10400.00
04360              -1.20   -10200.00
04361              -1.60   -10000.00
04362              -0.80    -9800.00
04363              -2.00    -9600.00
04364              -2.00    -9200.00
04365              -0.80    -9200.00
04366              -2.00    -9000.00
04367              -1.20    -8800.00
04368              -0.40    -8400.00
04369              -1.60    -8200.00
04370              -1.20    -8000.00
04371              -1.20    -7800.00
04372              -1.60    -7400.00
04373              -1.20    -7200.00
04374              -1.20    -7000.00
04375              -1.20    -6800.00
04376              -0.80    -6400.00
04377              -0.80    -6400.00
04378              -1.20    -6000.00
04379              -0.80    -5800.00
04380              -0.80    -5600.00
04381              -1.20    -5200.00
04382              -1.20    -5000.00
04383              -0.80    -4600.00
04384              -1.60    -4400.00
04385              -1.20    -4200.00
04386              -0.80    -4000.00
04387              -0.80    -3600.00
04388              -0.80    -3400.00
04389              -1.20    -3200.00
04390              -0.80    -2800.00
04391              -0.80    -2600.00
04392              -1.20    -2400.00
04393              -0.40    -2000.00
04394              -0.80    -1800.00
04395              -0.80    -1600.00
04396              -0.40    -1400.00
04397               0.00    -1000.00
04398              -1.20     -800.00
04399              -0.40     -400.00
04400               0.40     -200.00
04401              -0.80        0.00
04402              -0.40      400.00
04403               2.40      600.00
04404               0.40      800.00
04405              -1.20     1000.00
04406               1.20     1400.00
04407               0.80     1600.00
04408              -0.80     2000.00
04409               0.40     2000.00
04410               6.80     2400.00
04411              21.20     3000.00
04412              -1.20     3200.00
04413             -40.80     3400.00
04414              -1.20     3600.00
04415              22.00     3600.00
04416             -29.60     3800.00
04417              19.60     4400.00
04418              37.20     4400.00
04419             -50.00     4800.00
04420              38.00     5400.00
04421              45.60     5200.00
04422             -50.00     5600.00
04423              13.60     5800.00
04424              28.80     6000.00
04425             -13.20     6400.00
04426              -5.60     6600.00
04427              -2.00     7000.00
04428              27.60     7000.00
04429             -22.00     7200.00
04430             -13.20     7600.00
04431              34.80     7800.00
04432             -16.80     8200.00
04433             -14.00     8400.00
04434              26.00     8400.00
04435               5.60     8800.00
04436             -23.60     8800.00
04437               3.20     9200.00
04438              22.00     9400.00
04439             -14.00     9600.00
04440              -6.40    10000.00
04441              15.20    10200.00
04442               4.40    10400.00
04443             -10.80    10400.00
04444               0.80    10800.00
04445              14.00    11000.00
04446             -10.80    11200.00
04447              -2.80    11600.00
04448              14.00    11600.00
04449              -2.00    11800.00
04450              -8.00    12000.00
04451               8.40    12000.00
04452               5.60    12400.00
04453              -9.20    12400.00
04454               2.40    12800.00
04455              10.00    12800.00
04456              -2.40    13000.00
04457              -3.60    13200.00
04458               7.60    13400.00
04459               2.40    13400.00
04460              -5.60    13800.00
04461               3.60    14000.00
04462               6.80    14000.00
04463              -4.40    14200.00
04464               0.40    14200.00
04465               8.40    14600.00
04466              -2.40    14800.00
04467              -2.80    14600.00
04468               6.40    14800.00
04469               1.20    15000.00
04470              -2.40    15000.00
04471               4.00    15200.00
04472               4.00    15400.00
04473              -1.20    15400.00
04474               1.20    15600.00
04475               4.00    15600.00
04476               0.40    15800.00
04477               0.40    15800.00
04478               3.60    15800.00
04479               2.00    16000.00
04480              -0.40    16000.00
04481               2.00    16000.00
04482               2.80    16000.00
04483               0.40    16200.00
04484               0.80    16400.00
04485               3.60    16400.00
04486               1.60    16400.00
04487               0.40    16400.00
04488               2.40    16600.00
04489               2.00    16600.00
04490               1.20    16400.00
04491               2.40    16400.00
04492               2.40    16600.00
04493               1.20    16600.00
04494               2.00    16400.00
04495               2.40    16600.00
04496               2.00    16400.00
04497               1.20    16600.00
04498               2.40    16600.00
04499               2.00    16600.00
04500               1.20    16600.00
04501               2.00    16600.00
04502               2.00    16600.00
04503               1.60    16400.00
04504               2.00    16400.00
04505               2.00    16400.00
04506               2.00    16400.00
04507               1.60    16400.00
04508               1.60    16200.00
04509               2.00    16200.00
04510               1.20    16000.00
04511               1.20    16000.00
04512               2.00    15800.00
04513               2.00    15800.00
04514               1.20    15800.00
04515               0.80    15800.00
04516               0.80    15600.00
04517               0.80    15600.00
04518               2.40    15600.00
04519               1.20    15200.00
04520               1.20    15200.00
04521               2.00    15200.00
04522               1.60    15000.00
04523               0.80    14800.00
04524               1.60    14800.00
04525               1.20    14600.00
04526               0.80    14600.00
04527               1.20    14400.00
04528               1.20    14200.00
04529               0.80    14200.00
04530               0.80    14000.00
04531               2.00    13600.00
04532               1.20    13600.00
04533               1.20    13600.00
04534               0.80    13200.00
04535               0.80    13200.00
04536               1.20    13000.00
04537               0.80    12800.00
04538               1.20    12600.00
04539               1.20    12400.00
04540               0.80    12400.00
04541               0.80    12000.00
04542               1.20    12000.00
04543               0.80    11800.00
04544              -0.40    11600.00
04545               0.80    11200.00
04546               1.20    11000.00
04547               0.80    11000.00
04548               2.00    10800.00
04549               2.00    10600.00
04550               1.20    10400.00
04551               1.60    10200.00
04552               1.20    10000.00
04553              -0.40     9600.00
04554              -0.40     9600.00
04555               0.40     9400.00
04556              -0.80     9000.00
04557               0.40     8800.00
04558               2.80     8600.00
04559               1.60     8400.00
04560               2.00     8200.00
04561               2.00     7800.00
04562              -0.80     7600.00
04563              -0.40     7400.00
04564              -0.40     7000.00
04565              -1.20     6800.00
04566               1.20     6600.00
04567               2.00     6400.00
04568               2.40     6200.00
04569               2.40     5800.00
04570               0.40     5600.00
04571              -0.40     5400.00
04572              -1.20     5000.00
04573              -2.00     4800.00
04574              -0.40     4400.00
04575               0.80     4400.00
04576               0.80     4000.00
04577               1.20     3800.00
04578               0.80     3600.00
04579              -0.40     3200.00
04580              -0.80     3000.00
04581              -1.20     2600.00
04582              -1.20     2400.00
04583              -0.80     2200.00
04584               0.40     2000.00
04585               0.80     1600.00
04586               0.40     1400.00
04587              -0.40     1000.00
04588               0.40      800.00
04589              -1.20      600.00
04590              -1.20      400.00
04591               0.40        0.00
04592              -0.80     -200.00
04593              -0.40     -600.00
04594               4.00     -800.00
04595              -1.60    -1000.00
04596              -2.40    -1200.00
04597               2.00    -1600.00
04598               0.40    -1800.00
04599              -2.40    -2000.00
04600               5.60    -2200.00
04601              32.80    -2800.00
04602             -17.20    -3000.00
04603             -49.60    -3400.00
04604              15.20    -3600.00
04605               4.40    -3600.00
04606              -4.40    -3600.00
04607              50.00    -4400.00
04608             -50.00    -4200.00
04609              16.00    -4400.00
04610              50.00    -5200.00
04611             -50.00    -5000.00
04612               2.80    -5600.00
04613              50.00    -5800.00
04614             -50.00    -5600.00
04615              17.20    -6400.00
04616               2.40    -6400.00
04617               6.00    -6800.00
04618              10.00    -7200.00
04619             -50.00    -7000.00
04620              50.00    -7800.00
04621              -6.80    -7600.00
04622             -41.20    -8000.00
04623              34.80    -8400.00
04624               7.20    -8400.00
04625             -15.60    -9000.00
04626             -22.00    -8800.00
04627              36.40    -9200.00
04628             -10.00    -9400.00
04629             -32.40    -9600.00
04630              31.20   -10000.00
04631              -4.40   -10000.00
04632              -7.60   -10400.00
04633              -9.20   -10600.00
04634              15.20   -10800.00
04635              -4.80   -11000.00
04636             -21.60   -11200.00
04637              21.60   -11400.00
04638              -4.00   -11600.00
04639             -12.00   -11800.00
04640               3.60   -12000.00
04641               6.00   -12200.00
04642             -10.80   -12400.00
04643              -6.80   -12600.00
04644               9.20   -12800.00
04645              -3.60   -13000.00
04646              -8.80   -13000.00
04647               2.40   -13000.00
04648               4.00   -13600.00
04649             -11.60   -13600.00
04650              -0.40   -13800.00
04651               2.80   -13800.00
04652              -6.00   -14000.00
04653              -5.20   -14200.00
04654               4.40   -14400.00
04655              -2.00   -14400.00
04656              -9.20   -14600.00
04657               3.60   -14600.00
04658              -0.80   -14800.00
04659              -7.20   -15000.00
04660              -1.20   -15000.00
04661               2.80   -15200.00
04662              -6.00   -15200.00
04663              -4.40   -15400.00
04664               2.40   -15600.00
04665              -4.00   -15600.00
04666              -5.20   -15600.00
04667               0.40   -15800.00
04668              -0.40   -16000.00
04669              -5.20   -16000.00
04670              -2.40   -16000.00
04671               0.40   -16000.00
04672              -3.60   -16200.00
04673              -3.60   -16200.00
04674               0.80   -16200.00
04675              -1.60   -16400.00
04676              -4.40   -16400.00
04677              -2.00   -16400.00
04678              -1.20   -16600.00
04679              -3.60   -16400.00
04680              -2.80   -16400.00
04681              -0.40   -16400.00
04682              -2.40   -16400.00
04683              -2.80   -16400.00
04684              -1.60   -16600.00
04685              -2.40   -16600.00
04686              -2.40   -16400.00
04687              -2.40   -16600.00
04688              -1.20   -16600.00
04689              -2.00   -16600.00
04690              -2.80   -16600.00
04691              -2.40   -16800.00
04692              -2.00   -16400.00
04693              -2.40   -16400.00
04694              -2.40   -16400.00
04695              -2.00   -16400.00
04696              -1.20   -16400.00
04697              -3.20   -16400.00
04698              -2.40   -16400.00
04699              -1.60   -16200.00
04700              -2.40   -16200.00
04701              -2.40   -16200.00
04702              -1.20   -16000.00
04703              -2.00   -16000.00
04704              -2.40   -16000.00
04705              -2.40   -16000.00
04706              -2.40   -15800.00
04707              -2.00   -15600.00
04708              -2.40   -15600.00
04709              -2.40   -15400.00
04710              -2.00   -15400.00
04711              -2.40   -15200.00
04712              -2.40   -15200.00
04713              -2.00   -15000.00
04714              -2.00   -14800.00
04715              -2.40   -14800.00
04716              -2.40   -14600.00
04717              -2.00   -14600.00
04718              -2.40   -14400.00
04719              -2.40   -14200.00
04720              -1.60   -14000.00
04721              -2.00   -13800.00
04722              -2.40   -13800.00
04723              -2.40   -13600.00
04724              -1.60   -13400.00
04725              -2.40   -13200.00
04726              -2.80   -13000.00
04727              -1.60   -13000.00
04728              -1.60   -12800.00
04729              -2.40   -12400.00
04730              -2.40   -12400.00
04731              -2.00   -12200.00
04732              -1.20   -12200.00
04733              -2.00   -12000.00
04734              -1.20   -11600.00
04735              -1.20   -11400.00
04736              -2.00   -11200.00
04737              -1.60   -11000.00
04738              -2.00   -10800.00
04739              -2.00   -10600.00
04740              -1.20   -10600.00
04741              -1.20   -10200.00
04742              -1.20   -10000.00
04743              -1.20    -9800.00
04744              -2.40    -9600.00
04745              -1.20    -9600.00
04746              -1.20    -9000.00
04747              -1.20    -8800.00
04748              -1.20    -8800.00
04749              -1.20    -8400.00
04750              -1.60    -8200.00
04751              -0.80    -8000.00
04752              -1.20    -8000.00
04753              -1.20    -7600.00
04754              -0.80    -7200.00
04755              -1.20    -7200.00
04756              -1.20    -6800.00
04757              -0.80    -6400.00
04758              -1.20    -6400.00
04759              -1.20    -6000.00
04760              -0.80    -5800.00
04761              -0.80    -5600.00
04762              -1.20    -5200.00
04763              -0.80    -4800.00
04764              -0.80    -4600.00
04765              -1.20    -4400.00
04766              -0.80    -4200.00
04767              -0.40    -4000.00
04768              -0.80    -3600.00
04769              -0.80    -3400.00
04770              -0.80    -3200.00
04771              -0.80    -3000.00
04772              -0.80    -2600.00
04773              -1.20    -2400.00
04774              -0.80    -2000.00
04775              -0.40    -1800.00
04776              -0.80    -1600.00
04777              -0.40    -1400.00
04778              -0.40    -1000.00
04779              -0.80     -800.00
04780              -0.80     -400.00
04781              -0.80     -200.00
04782              -0.40        0.00
04783              -0.40      400.00
04784               2.00      600.00
04785               1.20      800.00
04786              -1.20     1200.00
04787               0.40     1200.00
04788               2.00     1600.00
04789              -0.80     1800.00
04790              -0.80     2000.00
04791               7.20     2400.00
04792              21.20     2800.00
04793              -2.40     3000.00
04794             -40.80     3400.00
04795              -0.80     3600.00
04796              21.60     3600.00
04797             -30.00     3800.00
04798              20.40     4400.00
04799              36.00     4400.00
04800             -50.00     4800.00
04801              39.20     5200.00
04802              45.20     5400.00
04803             -50.00     5600.00
04804              14.00     5800.00
04805              29.20     6000.00
04806             -13.60     6400.00
04807              -5.60     6600.00
04808              -1.20     6800.00
04809              27.20     7000.00
04810             -22.40     7200.00
04811             -12.40     7600.00
04812              34.80     7800.00
04813             -16.80     8200.00
04814             -14.00     8400.00
04815              26.00     8600.00
04816               5.20     8800.00
04817             -23.60     9000.00
04818               4.00     9200.00
04819              22.00     9600.00
04820             -14.40     9600.00
04821              -5.60    10000.00
04822              14.80    10200.00
04823               4.80    10400.00
04824             -10.80    10600.00
04825               1.20    10800.00
04826              14.00    11000.00
04827             -10.00    11200.00
04828              -2.40    11400.00
04829              14.40    11600.00
04830              -1.60    11800.00
04831              -7.60    12000.00
04832               8.40    12200.00
04833               5.60    12400.00
04834              -9.20    12400.00
04835               2.00    12800.00
04836              10.00    13000.00
04837              -2.80    13200.00
04838              -4.00    13200.00
04839               7.60    13400.00
04840               1.60    13400.00
04841              -5.60    13800.00
04842               4.00    14000.00
04843               5.60    14200.00
04844              -4.00    14200.00
04845               0.40    14400.00
04846               7.60    14600.00
04847              -2.00    14400.00
04848              -2.40    14800.00
04849               5.60    14800.00
04850               1.60    14800.00
04851              -2.40    15000.00
04852               3.60    15200.00
04853               4.00    15400.00
04854              -1.60    15600.00
04855               0.80    15600.00
04856               4.00    15800.00
04857               0.40    15600.00
04858               0.40    15800.00
04859               2.80    16000.00
04860               2.40    16000.00
04861               0.00    16000.00
04862               1.20    16000.00
04863               2.80    16200.00
04864               0.80    16200.00
04865               0.80    16400.00
04866               3.60    16400.00
04867               1.60    16400.00
04868               0.40    16400.00
04869               2.00    16400.00
04870               2.40    16600.00
04871               0.80    16400.00
04872               2.00    16600.00
04873               2.80    16600.00
04874               1.20    16800.00
04875               1.20    16600.00
04876               2.00    16600.00
04877               2.00    16400.00
04878               0.80    16600.00
04879               2.00    16400.00
04880               2.00    16600.00
04881               1.20    16600.00
04882               1.60    16400.00
04883               2.00    16400.00
04884               1.60    16400.00
04885               1.60    16400.00
04886               2.00    16400.00
04887               2.00    16400.00
04888               2.00    16400.00
04889               1.60    16200.00
04890               1.60    16200.00
04891               2.00    16000.00
04892               1.20    16000.00
04893               2.40    16000.00
04894               2.40    16000.00
04895               1.60    15800.00
04896               2.00    15800.00
04897               1.20    15600.00
04898               1.20    15600.00
04899               2.40    15400.00
04900               0.80    15400.00
04901               2.00    15200.00
04902               2.00    15200.00
04903               0.80    15000.00
04904               1.20    14800.00
04905               1.20    14800.00
04906               0.80    14600.00
04907               1.20    14400.00
04908               1.20    14600.00
04909               1.20    14400.00
04910               1.20    14200.00
04911               1.20    14000.00
04912               1.20    13600.00
04913               1.20    13600.00
04914               1.20    13400.00
04915               0.80    13400.00
04916               1.20    13200.00
04917               1.20    13000.00
04918               1.20    12800.00
04919               1.20    12600.00
04920               0.80    12400.00
04921               0.80    12200.00
04922               0.80    12200.00
04923               1.20    12000.00
04924               1.20    11800.00
04925               0.80    11600.00
04926               0.80    11200.00
04927               0.80    11000.00
04928               0.80    11000.00
04929               0.80    10800.00
04930               1.20    10400.00
04931               0.80    10200.00
04932               0.40    10200.00
04933               1.60    10000.00
04934               0.80     9600.00
04935               0.40     9400.00
04936               0.80     9000.00
04937               1.20     8800.00
04938               0.40     8800.00
04939               0.80     8600.00
04940               0.40     8200.00
04941               0.80     8000.00
04942               2.00     7800.00
04943              -0.40     7800.00
04944               0.80     7400.00
04945               2.00     7200.00
04946              -0.80     6800.00
04947               0.80     6800.00
04948               2.40     6400.00
04949              -0.80     6000.00
04950               0.40     5800.00
04951               0.80     5600.00
04952               0.00     5400.00
04953               0.40     5000.00
04954               0.80     4800.00
04955               0.40     4400.00
04956              -0.40     4400.00
04957               0.80     3800.00
04958               0.00     3800.00
04959              -0.40     3600.00
04960               1.60     3200.00
04961               0.40     3000.00
04962              -0.80     2800.00
04963               0.80     2400.00
04964               0.00     2200.00
04965              -1.20     1800.00
04966               0.40     1800.00
04967               0.80     1200.00
04968              -0.80     1000.00
04969              -1.20      800.00
04970               0.40      600.00
04971               0.40      200.00
04972              -1.20        0.00
04973               0.40        0.00
04974               0.80     -400.00
04975               1.20     -800.00
04976              -0.80     -800.00
04977              -0.80    -1200.00
04978               0.00    -1600.00
04979               0.80    -1800.00
04980              -0.80    -2000.00
04981               4.40    -2200.00
04982              32.40    -2800.00
04983             -16.40    -3200.00
04984             -50.00    -3400.00
04985              14.00    -3600.00
04986               4.80    -3600.00
04987              -4.00    -3600.00
04988              50.00    -4400.00
04989             -50.00    -4200.00
04990              16.40    -4600.00
04991              50.00    -5200.00
04992             -50.00    -5000.00
04993               4.40    -5600.00
04994              50.00    -6000.00
04995             -50.00    -5800.00
04996              17.20    -6400.00
04997               2.00    -6400.00
04998               6.00    -6800.00
04999               9.20    -7200.00
05000             -50.00    -7200.00
