Unit:(mV)
                     CH1         CH2
Frequency              ? 261.973 kHz
00001               0.40     2000.00
00002              -0.60     1600.00
00003              -0.80     1800.00
00004               0.20     1400.00
00005               0.20     1200.00
00006              -0.40      800.00
00007              -0.60     1000.00
00008               0.40      600.00
00009              -0.40      600.00
00010              -0.80      400.00
00011              -0.40      200.00
00012               0.20        0.00
00013              -0.40     -200.00
00014              -0.20     -200.00
00015               1.00     -400.00
00016               0.60     -400.00
00017              -1.20     -800.00
00018              -0.40     -800.00
00019               0.40    -1000.00
00020              -0.60    -1200.00
00021              -0.60    -1400.00
00022               7.40    -1600.00
00023              25.00    -2000.00
00024             -21.40    -2000.00
00025             -25.00    -2200.00
00026             -19.20    -2000.00
00027              25.00    -2000.00
00028              25.00    -2600.00
00029             -25.00    -2600.00
00030             -12.20    -2400.00
00031              25.00    -3200.00
00032              -1.00    -3400.00
00033             -25.00    -2800.00
00034              25.00    -3600.00
00035              25.00    -3600.00
00036             -25.00    -3400.00
00037              25.00    -4000.00
00038              25.00    -4000.00
00039             -25.00    -4000.00
00040               9.00    -4400.00
00041              25.00    -4600.00
00042             -25.00    -4400.00
00043             -13.40    -4800.00
00044              -8.60    -4800.00
00045              25.00    -5200.00
00046              -2.00    -5200.00
00047             -25.00    -5400.00
00048              25.00    -5600.00
00049              25.00    -5600.00
00050             -25.00    -5800.00
00051              25.00    -6000.00
00052              25.00    -6000.00
00053             -25.00    -6200.00
00054             -21.40    -6400.00
00055              25.00    -6600.00
00056               9.00    -6600.00
00057             -25.00    -6800.00
00058              25.00    -7000.00
00059              25.00    -7000.00
00060             -25.00    -7000.00
00061               8.20    -7400.00
00062              23.40    -7200.00
00063             -16.20    -7400.00
00064              -9.80    -7600.00
00065              13.00    -7600.00
00066               5.00    -8000.00
00067             -16.40    -8000.00
00068               7.40    -8000.00
00069               8.40    -8200.00
00070             -12.60    -8200.00
00071               2.00    -8200.00
00072               6.20    -8400.00
00073              -4.20    -8600.00
00074              -6.40    -8400.00
00075               8.60    -8400.00
00076               1.80    -8800.00
00077             -13.00    -8800.00
00078               7.80    -9000.00
00079               4.40    -9000.00
00080             -11.60    -9000.00
00081               2.20    -9200.00
00082               8.40    -9200.00
00083              -7.00    -9200.00
00084              -5.40    -9400.00
00085               9.60    -9400.00
00086              -1.40    -9600.00
00087             -10.00    -9600.00
00088               6.20    -9600.00
00089               4.40    -9600.00
00090              -8.20    -9600.00
00091              -0.20    -9800.00
00092               5.80    -9800.00
00093              -3.40    -9800.00
00094              -5.00    -9800.00
00095               3.60    -9800.00
00096               2.00   -10000.00
00097              -5.20    -9800.00
00098               0.00   -10000.00
00099               3.60   -10000.00
00100              -2.80   -10000.00
00101              -3.40   -10000.00
00102               3.40   -10000.00
00103               0.60   -10000.00
00104              -3.40   -10000.00
00105               0.80   -10000.00
00106               1.40   -10000.00
00107              -2.40   -10000.00
00108              -1.20   -10000.00
00109               1.20   -10000.00
00110              -0.40   -10000.00
00111              -1.00   -10000.00
00112               0.00   -10000.00
00113               0.20   -10000.00
00114              -0.40   -10000.00
00115              -1.00   -10000.00
00116              -0.20   -10000.00
00117               0.60   -10000.00
00118              -0.60   -10000.00
00119              -0.40   -10000.00
00120               0.40   -10000.00
00121              -1.00    -9800.00
00122              -0.60    -9800.00
00123               0.40    -9800.00
00124              -0.20    -9800.00
00125              -1.00    -9600.00
00126              -0.20    -9600.00
00127               0.00    -9800.00
00128              -0.40    -9600.00
00129              -0.60    -9600.00
00130               0.20    -9400.00
00131               0.40    -9600.00
00132              -0.40    -9200.00
00133              -0.60    -9200.00
00134               0.20    -9200.00
00135               0.40    -9200.00
00136              -0.60    -9000.00
00137              -0.60    -9000.00
00138               0.20    -9000.00
00139              -0.40    -8800.00
00140              -1.20    -8800.00
00141              -1.00    -8800.00
00142               0.40    -8800.00
00143              -0.60    -8400.00
00144              -1.20    -8200.00
00145               0.20    -8200.00
00146               0.00    -8200.00
00147              -1.20    -8200.00
00148              -0.60    -8000.00
00149               0.60    -8000.00
00150              -0.60    -7600.00
00151              -1.40    -7800.00
00152               0.20    -7600.00
00153               0.20    -7400.00
00154              -1.40    -7200.00
00155              -0.60    -7200.00
00156               0.40    -7200.00
00157              -0.60    -6800.00
00158              -1.20    -6800.00
00159              -0.20    -6800.00
00160              -0.60    -6600.00
00161              -0.60    -6600.00
00162              -0.60    -6400.00
00163              -0.40    -6400.00
00164               0.00    -6000.00
00165              -1.00    -6000.00
00166              -0.60    -6000.00
00167               0.20    -5800.00
00168              -0.60    -5600.00
00169              -0.60    -5600.00
00170               0.40    -5200.00
00171              -0.40    -5200.00
00172              -1.20    -5000.00
00173              -0.20    -4600.00
00174              -0.20    -4600.00
00175              -0.60    -4600.00
00176               0.00    -4400.00
00177               0.20    -4200.00
00178              -0.40    -4200.00
00179              -0.60    -4000.00
00180              -0.20    -3800.00
00181              -0.40    -3800.00
00182              -0.40    -3400.00
00183              -0.40    -3400.00
00184               0.20    -3200.00
00185              -0.40    -3000.00
00186              -0.40    -2800.00
00187              -0.20    -2600.00
00188              -0.40    -2600.00
00189              -0.60    -2400.00
00190              -0.40    -2200.00
00191               0.00    -2200.00
00192               0.00    -1800.00
00193              -1.20    -1800.00
00194              -0.20    -1600.00
00195               1.20    -1400.00
00196              -1.20    -1200.00
00197              -0.60    -1000.00
00198               1.20    -1000.00
00199              -1.40     -800.00
00200               0.20     -400.00
00201              -0.40     -400.00
00202              -0.60     -200.00
00203               0.20     -200.00
00204              -0.80        0.00
00205               0.60      200.00
00206               0.60      400.00
00207               0.60      400.00
00208              -1.40      600.00
00209               0.20      600.00
00210               1.40      800.00
00211              -2.40     1200.00
00212               0.60     1200.00
00213               5.20     1600.00
00214              14.60     1800.00
00215               1.40     2000.00
00216             -25.00     2000.00
00217             -22.00     2000.00
00218               7.40     2200.00
00219              25.00     2600.00
00220             -13.40     2400.00
00221             -25.00     2800.00
00222              25.00     3000.00
00223              25.00     3000.00
00224             -25.00     3000.00
00225             -16.00     3400.00
00226              25.00     3400.00
00227             -25.00     3600.00
00228             -25.00     4000.00
00229              25.00     3800.00
00230             -17.20     4000.00
00231             -25.00     4400.00
00232              25.00     4400.00
00233              25.00     4400.00
00234             -25.00     4800.00
00235             -14.00     5000.00
00236              25.00     5000.00
00237              17.80     5200.00
00238             -25.00     5400.00
00239               3.00     5400.00
00240              25.00     5600.00
00241             -25.00     5800.00
00242             -25.00     6000.00
00243              25.00     6000.00
00244              12.20     6200.00
00245             -25.00     6400.00
00246              12.00     6400.00
00247              25.00     6600.00
00248             -25.00     6600.00
00249             -11.00     6800.00
00250              25.00     6800.00
00251             -12.20     7000.00
00252             -23.60     7200.00
00253              22.80     7000.00
00254               7.60     7200.00
00255             -22.60     7600.00
00256               3.00     7600.00
00257              15.80     7800.00
00258              -9.40     7800.00
00259              -7.60     7800.00
00260              11.40     8200.00
00261               0.20     8200.00
00262             -10.80     8200.00
00263               4.60     8400.00
00264               8.20     8400.00
00265             -10.00     8400.00
00266              -2.20     8600.00
00267              11.60     8600.00
00268              -5.80     8800.00
00269              -8.20     9000.00
00270               9.40     8800.00
00271               0.40     9000.00
00272              -9.80     9000.00
00273               5.40     9200.00
00274               5.40     9200.00
00275              -8.40     9200.00
00276              -0.20     9400.00
00277               6.40     9400.00
00278              -5.00     9400.00
00279              -3.40     9400.00
00280               5.20     9600.00
00281              -0.60     9600.00
00282              -4.60     9600.00
00283               1.80     9600.00
00284               2.60     9800.00
00285              -3.60     9800.00
00286              -1.40     9800.00
00287               3.40     9800.00
00288              -0.40    10000.00
00289              -3.60    10000.00
00290               1.80    10000.00
00291               2.00    10000.00
00292              -3.80     9800.00
00293               0.00    10000.00
00294               3.00    10000.00
00295              -2.20    10000.00
00296              -1.80    10000.00
00297               2.40    10000.00
00298              -0.40    10000.00
00299              -2.20    10000.00
00300               0.60    10000.00
00301               1.00    10000.00
00302              -1.00    10000.00
00303              -1.20    10000.00
00304               0.40    10000.00
00305               0.20    10000.00
00306              -0.80    10000.00
00307              -0.60    10000.00
00308               0.60    10000.00
00309              -0.20    10000.00
00310              -0.60    10000.00
00311              -0.20     9800.00
00312               0.20     9800.00
00313              -0.40     9600.00
00314              -0.40    10000.00
00315               0.20     9600.00
00316              -0.60     9600.00
00317              -0.40     9600.00
00318               0.20     9600.00
00319              -0.60     9400.00
00320              -0.20     9400.00
00321              -0.40     9600.00
00322              -0.80     9200.00
00323              -0.20     9200.00
00324               1.40     9200.00
00325              -2.20     9200.00
00326              -0.20     8800.00
00327               1.20     9000.00
00328              -1.00     8800.00
00329              -1.20     8800.00
00330               1.00     8800.00
00331               0.20     8600.00
00332              -1.40     8600.00
00333              -0.20     8400.00
00334               0.60     8400.00
00335              -0.60     8400.00
00336              -1.20     8200.00
00337              -0.20     8000.00
00338              -0.20     8000.00
00339              -0.40     7800.00
00340              -0.60     7800.00
00341               0.40     7800.00
00342              -0.60     7600.00
00343              -0.60     7400.00
00344               0.00     7200.00
00345              -0.60     7200.00
00346              -0.60     7200.00
00347              -0.20     7000.00
00348               0.60     6800.00
00349              -1.20     6800.00
00350              -1.00     6800.00
00351               0.40     6400.00
00352               0.20     6400.00
00353              -1.80     6200.00
00354              -0.40     6200.00
00355               0.80     6000.00
00356              -1.20     5800.00
00357              -1.00     5600.00
00358               0.40     5600.00
00359              -0.20     5600.00
00360              -1.20     5200.00
00361              -0.20     5200.00
00362               0.60     5000.00
00363              -0.40     4800.00
00364              -0.40     4800.00
00365              -0.40     4600.00
00366              -0.40     4400.00
00367              -0.20     4200.00
00368              -0.40     4200.00
00369              -0.40     4000.00
00370              -0.20     3800.00
00371              -0.60     3600.00
00372              -0.40     3600.00
00373              -0.40     3400.00
00374              -0.20     3200.00
00375              -0.40     3000.00
00376              -0.20     3000.00
00377               0.40     2800.00
00378              -0.60     2600.00
00379              -0.60     2400.00
00380               0.40     2400.00
00381              -0.40     2000.00
00382              -0.60     2000.00
00383               0.40     1800.00
00384              -0.20     1600.00
00385              -1.20     1400.00
00386              -0.20     1400.00
00387               0.20     1000.00
00388              -0.60     1200.00
00389              -0.60      800.00
00390               0.40      600.00
00391              -0.60      600.00
00392              -1.00      400.00
00393               0.40      200.00
00394              -0.40        0.00
00395              -0.20        0.00
00396               0.40     -200.00
00397               0.60     -400.00
00398               0.40     -400.00
00399              -2.00     -800.00
00400               0.40     -800.00
00401               0.40    -1000.00
00402              -1.60    -1000.00
00403               0.20    -1600.00
00404              13.00    -1600.00
00405              21.80    -2000.00
00406             -25.00    -2000.00
00407             -25.00    -2400.00
00408              -2.20    -2000.00
00409              25.00    -2200.00
00410              13.80    -2800.00
00411             -25.00    -2400.00
00412              25.00    -2800.00
00413              25.00    -3200.00
00414             -25.00    -3400.00
00415             -25.00    -2800.00
00416              25.00    -3800.00
00417              25.00    -3600.00
00418             -25.00    -3400.00
00419              25.00    -4000.00
00420              25.00    -4200.00
00421             -25.00    -4200.00
00422              25.00    -4600.00
00423              25.00    -4400.00
00424             -25.00    -4800.00
00425             -11.60    -4600.00
00426               2.00    -5000.00
00427              25.00    -5200.00
00428             -25.00    -5200.00
00429             -25.00    -5400.00
00430              25.00    -5800.00
00431             -12.80    -5600.00
00432             -25.00    -6000.00
00433              25.00    -6000.00
00434              22.80    -6000.00
00435             -25.00    -6400.00
00436              -4.60    -6400.00
00437              25.00    -6600.00
00438             -13.00    -6600.00
00439             -25.00    -6800.00
00440              25.00    -6800.00
00441               6.40    -7000.00
00442             -25.00    -7200.00
00443              21.00    -7400.00
00444              14.80    -7400.00
00445             -20.60    -7400.00
00446              -4.40    -7600.00
00447              17.60    -7600.00
00448              -4.00    -8000.00
00449             -15.40    -8000.00
00450              15.00    -8000.00
00451               1.80    -8200.00
00452             -13.40    -8200.00
00453               6.80    -8400.00
00454               5.40    -8400.00
00455              -7.80    -8400.00
00456              -3.00    -8400.00
00457              11.60    -8600.00
00458              -4.40    -8800.00
00459             -10.00    -8800.00
00460              12.20    -9000.00
00461              -0.60    -9000.00
00462             -11.20    -9000.00
00463               6.80    -9200.00
00464               6.20    -9200.00
00465              -9.80    -9200.00
00466              -1.40    -9400.00
00467              10.20    -9400.00
00468              -7.00    -9600.00
00469              -6.60    -9600.00
00470               9.00    -9600.00
00471               0.40    -9600.00
00472              -7.40    -9600.00
00473               2.40    -9600.00
00474               4.20    -9800.00
00475              -5.60    -9800.00
00476              -2.80    -9800.00
00477               5.00    -9800.00
00478              -0.40    -9800.00
00479              -4.80   -10000.00
00480               2.20   -10000.00
00481               2.60   -10000.00
00482              -4.60   -10000.00
00483              -1.40   -10000.00
00484               3.60   -10000.00
00485              -1.20   -10000.00
00486              -3.20   -10000.00
00487               1.40   -10000.00
00488               0.60   -10000.00
00489              -2.60   -10000.00
00490              -0.40   -10000.00
00491               1.20   -10000.00
00492              -1.00   -10000.00
00493              -1.00   -10000.00
00494               0.60   -10000.00
00495              -0.60   -10000.00
00496              -1.40   -10000.00
00497               0.60   -10000.00
00498               0.00   -10000.00
00499              -1.00   -10000.00
00500              -0.20   -10000.00
00501              -0.20    -9800.00
00502              -1.00    -9800.00
00503              -0.40    -9800.00
00504               0.40    -9800.00
00505              -0.40    -9800.00
00506              -0.60    -9800.00
00507              -0.20    -9600.00
00508              -0.80    -9800.00
00509              -0.40    -9600.00
00510               0.20    -9600.00
00511              -0.60    -9400.00
00512              -0.80    -9600.00
00513               0.40    -9400.00
00514              -0.20    -9400.00
00515              -1.20    -9200.00
00516               0.20    -9200.00
00517               0.60    -9200.00
00518              -0.60    -9000.00
00519              -0.60    -8800.00
00520               0.60    -9000.00
00521              -0.60    -8800.00
00522              -1.00    -8600.00
00523               0.20    -8600.00
00524               0.20    -8600.00
00525              -1.00    -8400.00
00526              -0.60    -8400.00
00527               0.20    -8400.00
00528              -0.40    -8200.00
00529              -1.20    -8000.00
00530              -0.20    -8000.00
00531               0.60    -8000.00
00532              -1.00    -7600.00
00533              -1.20    -7600.00
00534               0.40    -7600.00
00535              -0.40    -7400.00
00536              -1.40    -7400.00
00537               0.20    -7200.00
00538               0.40    -7000.00
00539              -1.00    -6800.00
00540              -0.40    -6800.00
00541              -0.40    -6800.00
00542              -0.60    -6400.00
00543              -1.00    -6400.00
00544              -1.40    -6400.00
00545               0.00    -6400.00
00546              -0.60    -6200.00
00547              -0.20    -6000.00
00548               0.60    -5800.00
00549               0.80    -5800.00
00550              -0.40    -5600.00
00551              -0.20    -5400.00
00552              -1.20    -5200.00
00553              -1.20    -5000.00
00554              -2.00    -5000.00
00555              -1.40    -4800.00
00556               0.40    -4600.00
00557               0.40    -4400.00
00558               1.40    -4200.00
00559               1.40    -4200.00
00560              -0.60    -4200.00
00561              -2.20    -4000.00
00562              -1.20    -4000.00
00563              -1.40    -3600.00
00564              -0.60    -3400.00
00565              -0.40    -3400.00
00566               1.40    -3200.00
00567               1.80    -3000.00
00568              -0.40    -2800.00
00569              -0.40    -2600.00
00570              -0.20    -2600.00
00571              -2.00    -2400.00
00572              -2.00    -2200.00
00573               0.40    -2000.00
00574               0.40    -1800.00
00575              -1.40    -1800.00
00576               1.20    -1600.00
00577               2.60    -1200.00
00578              -2.00    -1400.00
00579              -2.80    -1000.00
00580               1.80    -1000.00
00581               0.60     -800.00
00582              -3.40     -400.00
00583              -0.20     -400.00
00584               2.20     -200.00
00585              -1.40     -200.00
00586              -1.20        0.00
00587               2.20        0.00
00588               2.00      400.00
00589              -1.40      600.00
00590              -1.20      600.00
00591               1.40      800.00
00592               0.20     1000.00
00593              -1.80     1000.00
00594               1.00     1200.00
00595               7.80     1600.00
00596              17.20     2000.00
00597             -10.20     2000.00
00598             -25.00     2200.00
00599             -17.00     2000.00
00600              25.00     2200.00
00601              25.00     2400.00
00602             -25.00     2400.00
00603             -25.00     2800.00
00604              25.00     3000.00
00605              25.00     3000.00
00606             -25.00     3000.00
00607              25.00     3600.00
00608              25.00     3600.00
00609             -25.00     3800.00
00610               1.40     4000.00
00611              25.00     4000.00
00612             -25.00     4000.00
00613             -25.00     4400.00
00614              25.00     4400.00
00615              -0.60     4600.00
00616             -25.00     4800.00
00617               4.00     4800.00
00618              25.00     5200.00
00619              -5.00     5200.00
00620             -25.00     5400.00
00621              24.60     5200.00
00622              25.00     5600.00
00623             -25.00     6000.00
00624             -14.00     6000.00
00625              25.00     6000.00
00626              -6.60     6400.00
00627             -25.00     6200.00
00628              25.00     6200.00
00629              18.00     6600.00
00630             -25.00     6800.00
00631               7.00     6800.00
00632              25.00     7000.00
00633             -24.60     7200.00
00634             -11.60     7200.00
00635              25.00     7200.00
00636              -4.20     7400.00
00637             -19.60     7600.00
00638              10.60     7600.00
00639              10.80     7800.00
00640             -13.20     8000.00
00641              -1.80     8000.00
00642              11.80     8200.00
00643              -4.60     8200.00
00644              -8.40     8200.00
00645               7.40     8400.00
00646               3.40     8400.00
00647             -10.40     8400.00
00648               3.00     8600.00
00649               8.20     8600.00
00650              -8.80     8800.00
00651              -2.80     8800.00
00652               9.00     9000.00
00653              -3.80     9200.00
00654              -6.20     9200.00
00655               7.40     9200.00
00656               0.80     9200.00
00657              -7.60     9200.00
00658               3.40     9200.00
00659               3.00     9400.00
00660              -6.40     9400.00
00661               0.20     9600.00
00662               4.60     9600.00
00663              -2.80     9400.00
00664              -2.80     9800.00
00665               2.60     9600.00
00666               0.20     9600.00
00667              -4.20     9800.00
00668               0.20     9600.00
00669               2.60     9800.00
00670              -1.40    10000.00
00671              -2.20     9800.00
00672               2.60    10000.00
00673              -0.20    10000.00
00674              -3.40    10000.00
00675               1.00    10000.00
00676               1.40     9800.00
00677              -2.60    10000.00
00678              -0.60    10000.00
00679               1.60    10000.00
00680              -1.20    10000.00
00681              -1.20    10000.00
00682               0.40    10000.00
00683               0.20    10200.00
00684              -0.40    10000.00
00685              -0.60    10000.00
00686              -0.20    10000.00
00687               0.40    10000.00
00688              -0.60    10000.00
00689              -0.60     9800.00
00690               0.60    10000.00
00691              -0.40     9800.00
00692              -1.20    10000.00
00693               0.40    10000.00
00694               0.20     9800.00
00695              -1.20     9600.00
00696               0.00     9600.00
00697               0.60     9600.00
00698              -0.40     9600.00
00699              -0.60     9600.00
00700               0.40     9600.00
00701               0.40     9400.00
00702              -0.20     9400.00
00703              -0.40     9200.00
00704              -0.60     9400.00
00705              -0.20     9200.00
00706               0.40     9200.00
00707              -0.60     9200.00
00708               0.60     9200.00
00709               0.20     8800.00
00710              -0.60     9000.00
00711               0.20     8800.00
00712               0.20     8800.00
00713              -0.80     8600.00
00714              -0.40     8600.00
00715               0.40     8400.00
00716               0.20     8400.00
00717              -0.40     8200.00
00718              -0.60     8200.00
00719               0.40     8200.00
00720              -0.40     8000.00
00721              -0.80     8000.00
00722               0.40     7800.00
00723               0.20     7600.00
00724              -1.00     7400.00
00725              -1.00     7400.00
00726               0.40     7200.00
00727              -0.60     7200.00
00728              -0.40     7000.00
00729              -0.20     7000.00
00730              -0.20     6800.00
00731              -0.60     6800.00
00732              -0.40     6400.00
00733              -0.20     6400.00
00734              -0.60     6200.00
00735              -0.60     6200.00
00736              -0.40     6200.00
00737              -0.20     6000.00
00738              -0.40     6000.00
00739              -0.60     5800.00
00740              -0.40     5600.00
00741              -0.40     5400.00
00742              -0.60     5400.00
00743              -0.20     5200.00
00744              -0.40     4800.00
00745              -0.60     4800.00
00746              -0.60     4800.00
00747               0.00     4600.00
00748              -0.80     4400.00
00749              -0.60     4400.00
00750               0.40     4000.00
00751              -0.40     4000.00
00752              -0.60     3800.00
00753               0.20     3600.00
00754              -0.20     3600.00
00755              -0.60     3200.00
00756               0.00     3200.00
00757              -0.20     3000.00
00758              -0.60     2800.00
00759              -0.20     2800.00
00760              -0.60     2600.00
00761              -0.40     2400.00
00762              -0.20     2200.00
00763              -0.40     2000.00
00764              -0.20     2000.00
00765              -0.20     2000.00
00766              -0.20     1600.00
00767              -0.40     1600.00
00768              -0.20     1200.00
00769              -0.40     1200.00
00770              -0.40     1200.00
00771              -0.20      800.00
00772              -0.60      600.00
00773              -0.60      600.00
00774              -0.40      400.00
00775              -0.40      200.00
00776              -0.20        0.00
00777               0.20        0.00
00778               0.40     -400.00
00779               1.00     -400.00
00780               0.20     -600.00
00781              -0.60     -800.00
00782              -0.40    -1000.00
00783               0.40    -1000.00
00784              -0.40    -1200.00
00785               1.20    -1600.00
00786              19.60    -1600.00
00787               9.00    -2000.00
00788             -25.00    -2200.00
00789             -25.00    -2400.00
00790              24.40    -2000.00
00791              25.00    -2400.00
00792             -25.00    -3000.00
00793             -25.00    -2400.00
00794              25.00    -2800.00
00795              25.00    -3400.00
00796             -25.00    -3200.00
00797             -25.00    -3200.00
00798              25.00    -4000.00
00799             -15.20    -3600.00
00800             -25.00    -3600.00
00801              25.00    -4400.00
00802              24.60    -4000.00
00803             -25.00    -4200.00
00804              25.00    -4400.00
00805              -9.60    -4400.00
00806             -25.00    -4800.00
00807             -11.60    -4800.00
00808              19.60    -5000.00
00809              25.00    -5200.00
00810             -25.00    -5200.00
00811              -7.00    -5600.00
00812              25.00    -5600.00
00813             -25.00    -5800.00
00814             -25.00    -6000.00
00815              25.00    -6000.00
00816              -4.40    -6000.00
00817             -25.00    -6400.00
00818              13.40    -6400.00
00819              25.00    -6800.00
00820             -25.00    -6800.00
00821             -19.60    -6800.00
00822              25.00    -7000.00
00823             -17.40    -7000.00
00824             -25.00    -7400.00
00825              25.00    -7200.00
00826               1.00    -7200.00
00827             -19.40    -7600.00
00828               3.40    -7600.00
00829              16.20    -7800.00
00830             -11.40    -7800.00
00831              -8.20    -8000.00
00832              16.20    -8200.00
00833              -6.00    -8000.00
00834              -8.60    -8400.00
00835               8.40    -8400.00
00836               1.80    -8200.00
00837              -9.20    -8600.00
00838               1.80    -8600.00
00839              10.60    -8800.00
00840             -10.40    -8800.00
00841              -3.80    -9000.00
00842              12.60    -9000.00
00843              -7.00    -9000.00
00844              -7.40    -9000.00
00845               9.80    -9200.00
00846               1.40    -9200.00
00847             -10.00    -9200.00
00848               3.40    -9200.00
00849               7.40    -9600.00
00850              -9.80    -9600.00
00851              -1.80    -9400.00
00852               9.00    -9600.00
00853              -3.40    -9600.00
00854              -6.00    -9800.00
00855               5.00    -9800.00
00856               1.80   -10000.00
00857              -6.80    -9800.00
00858               0.40    -9800.00
00859               5.00    -9800.00
00860              -3.00   -10000.00
00861              -3.60   -10000.00
00862               3.60   -10000.00
00863               0.20   -10000.00
00864              -4.40   -10000.00
00865               0.60   -10000.00
00866               2.60   -10000.00
00867              -2.60   -10000.00
00868              -1.80   -10200.00
00869               1.80   -10000.00
00870              -1.00   -10000.00
00871              -2.00   -10000.00
00872               0.40   -10200.00
00873               0.40   -10000.00
00874              -0.60   -10000.00
00875              -0.60   -10000.00
00876               0.00   -10000.00
00877              -1.00   -10000.00
00878              -1.00   -10000.00
00879               0.20   -10000.00
00880              -0.40   -10000.00
00881              -0.60   -10000.00
00882               0.40   -10000.00
00883              -1.20   -10000.00
00884              -0.60    -9800.00
00885               0.60   -10000.00
00886              -0.20    -9800.00
00887              -1.00    -9800.00
00888               0.20    -9600.00
00889               0.20    -9800.00
00890              -1.80    -9600.00
00891               0.40    -9600.00
00892               0.80    -9600.00
00893              -1.80    -9400.00
00894              -0.40    -9400.00
00895               1.00    -9200.00
00896              -0.60    -9400.00
00897              -1.80    -9200.00
00898               0.60    -9200.00
00899               1.00    -9000.00
00900              -1.40    -9000.00
00901              -0.40    -9000.00
00902               1.20    -8800.00
00903              -0.80    -8800.00
00904              -1.80    -8800.00
00905               1.20    -8400.00
00906               0.40    -8400.00
00907              -1.80    -8400.00
00908               0.00    -8400.00
00909               1.60    -8200.00
00910              -1.20    -8200.00
00911              -1.60    -8000.00
00912               1.40    -8000.00
00913               0.20    -7600.00
00914              -1.80    -7600.00
00915               0.40    -7600.00
00916               1.00    -7600.00
00917              -2.20    -7400.00
00918              -0.40    -7200.00
00919               1.80    -7200.00
00920              -1.20    -7200.00
00921              -1.40    -6800.00
00922               0.40    -6800.00
00923              -0.20    -6800.00
00924              -1.20    -6600.00
00925              -0.40    -6400.00
00926               0.00    -6200.00
00927               0.20    -6000.00
00928              -2.00    -6000.00
00929              -0.20    -5800.00
00930               0.80    -5800.00
00931              -1.80    -5600.00
00932              -1.00    -5600.00
00933               2.20    -5200.00
00934              -1.20    -5200.00
00935              -2.60    -5000.00
00936               2.00    -4600.00
00937              -0.20    -4600.00
00938              -3.00    -4600.00
00939               0.40    -4400.00
00940               1.40    -4400.00
00941              -2.20    -4200.00
00942              -0.60    -4000.00
00943               2.00    -4000.00
00944              -1.40    -3800.00
00945              -1.60    -3600.00
00946               1.00    -3400.00
00947               0.20    -3200.00
00948              -1.80    -3200.00
00949              -0.60    -2800.00
00950               1.00    -2800.00
00951              -0.60    -2600.00
00952              -1.20    -2400.00
00953               0.20    -2400.00
00954              -0.20    -2200.00
00955              -1.00    -2000.00
00956              -0.60    -1800.00
00957              -0.20    -1800.00
00958              -0.60    -1600.00
00959              -0.20    -1200.00
00960               0.60    -1200.00
00961              -0.60    -1000.00
00962              -0.40     -800.00
00963              -0.20     -600.00
00964              -1.00     -600.00
00965              -0.40     -400.00
00966               0.20     -200.00
00967              -0.20        0.00
00968               0.40      200.00
00969               1.00      400.00
00970               0.40      400.00
00971              -0.60      400.00
00972              -0.40      600.00
00973              -0.40      800.00
00974               0.20     1000.00
00975               0.20     1200.00
00976               1.80     1400.00
00977               9.60     1800.00
00978              16.20     2000.00
00979             -20.40     2000.00
00980             -25.00     2000.00
00981             -10.80     2000.00
00982              25.00     2400.00
00983              25.00     2600.00
00984             -25.00     2400.00
00985             -20.40     3000.00
00986              25.00     3000.00
00987             -18.00     3000.00
00988             -25.00     3400.00
00989              25.00     3400.00
00990              25.00     3600.00
00991             -25.00     3800.00
00992              25.00     4000.00
00993              25.00     3800.00
00994             -25.00     4000.00
00995               4.60     4400.00
00996              25.00     4400.00
00997             -23.00     4600.00
00998             -25.00     4600.00
00999              17.40     4800.00
01000              25.00     5200.00
01001             -25.00     5400.00
01002             -25.00     5400.00
01003              25.00     5400.00
01004              18.00     5600.00
01005             -25.00     5800.00
01006               7.80     6000.00
01007              25.00     6200.00
01008             -25.00     6400.00
01009             -24.40     6200.00
01010              25.00     6400.00
01011               0.40     6800.00
01012             -25.00     6800.00
01013              23.80     6800.00
01014              19.80     7000.00
01015             -25.00     7200.00
01016               2.60     7200.00
01017              25.00     7200.00
01018             -14.60     7600.00
01019             -14.60     7600.00
01020              15.80     7600.00
01021               4.20     7800.00
01022             -14.20     7800.00
01023               3.80     8200.00
01024              10.20     8000.00
01025              -8.80     8200.00
01026              -4.60     8400.00
01027              10.00     8400.00
01028              -2.00     8400.00
01029              -9.80     8600.00
01030               8.40     8600.00
01031               4.40     8600.00
01032             -11.00     8800.00
01033               2.40     9000.00
01034               7.80     8800.00
01035              -8.20     9000.00
01036              -2.60     9200.00
01037               8.60     9200.00
01038              -3.40     9200.00
01039              -5.40     9400.00
01040               6.00     9200.00
01041               0.40     9400.00
01042              -6.00     9600.00
01043               2.60     9600.00
01044               3.60     9600.00
01045              -4.00     9600.00
01046              -1.00     9800.00
01047               3.00     9800.00
01048              -1.20     9600.00
01049              -3.20     9800.00
01050               1.00     9800.00
01051               2.20    10000.00
01052              -2.60    10000.00
01053              -1.00    10000.00
01054               2.60     9800.00
01055              -1.20    10000.00
01056              -2.60     9800.00
01057               2.00     9800.00
01058               0.40    10000.00
01059              -2.40    10000.00
01060               0.20    10200.00
01061               1.20    10000.00
01062              -1.80    10000.00
01063              -1.00    10000.00
01064               1.00    10000.00
01065              -0.20    10000.00
01066              -1.20    10000.00
01067               0.20    10000.00
01068               0.20    10000.00
01069              -1.00    10000.00
01070              -0.40    10000.00
01071               0.40    10000.00
01072              -0.20     9600.00
01073              -0.60    10000.00
01074              -0.40     9800.00
01075               0.20     9800.00
01076              -0.40     9800.00
01077              -0.60     9600.00
01078               0.00     9600.00
01079               0.20     9600.00
01080              -0.20     9600.00
01081              -0.40     9800.00
01082              -0.80     9400.00
01083               0.20     9400.00
01084               0.20     9400.00
01085               0.00     9400.00
01086              -0.20     9200.00
01087               0.20     9200.00
01088              -0.60     9200.00
01089              -0.40     9000.00
01090               0.40     9000.00
01091               0.20     8800.00
01092              -0.80     8800.00
01093               0.40     8800.00
01094              -0.40     8800.00
01095              -0.80     8600.00
01096              -0.20     8400.00
01097               0.40     8400.00
01098              -0.40     8400.00
01099              -0.40     8200.00
01100              -0.40     8200.00
01101               0.00     8200.00
01102              -0.20     8000.00
01103              -0.40     7800.00
01104               0.20     7600.00
01105               0.20     7600.00
01106              -0.60     7600.00
01107              -0.20     7400.00
01108               0.20     7400.00
01109              -0.60     7200.00
01110              -0.40     7000.00
01111               0.20     7000.00
01112              -0.60     6800.00
01113               0.60     6800.00
01114              -1.40     6800.00
01115              -0.60     6400.00
01116               1.40     6200.00
01117              -1.40     6200.00
01118              -0.80     6200.00
01119               1.20     6000.00
01120              -1.00     5800.00
01121              -1.20     5600.00
01122               0.60     5600.00
01123              -0.20     5400.00
01124              -1.20     5400.00
01125              -0.20     5200.00
01126               0.60     5200.00
01127              -1.20     4800.00
01128              -0.20     4600.00
01129               0.00     4400.00
01130              -1.00     4400.00
01131              -0.20     4200.00
01132              -0.20     4000.00
01133              -0.80     4000.00
01134              -0.40     3800.00
01135              -0.20     3600.00
01136              -0.60     3400.00
01137               0.20     3200.00
01138              -0.20     3200.00
01139              -0.60     3000.00
01140              -0.40     2800.00
01141              -0.40     2800.00
01142              -0.60     2400.00
01143              -0.20     2400.00
01144              -0.20     2200.00
01145              -0.60     2000.00
01146              -0.40     2000.00
01147              -0.20     1800.00
01148              -0.60     1400.00
01149              -0.40     1400.00
01150               0.20     1400.00
01151              -0.40     1200.00
01152              -0.40      800.00
01153              -0.20      800.00
01154              -0.40      600.00
01155              -0.40      400.00
01156               0.20      400.00
01157              -0.40        0.00
01158              -0.60        0.00
01159               0.60     -200.00
01160               0.60     -200.00
01161               0.60     -400.00
01162              -0.20     -600.00
01163              -0.40     -800.00
01164               0.20     -800.00
01165               0.20    -1000.00
01166              -0.20    -1200.00
01167               3.60    -1400.00
01168              25.00    -1800.00
01169              -7.00    -2000.00
01170             -25.00    -2400.00
01171             -24.60    -2200.00
01172              25.00    -2000.00
01173              25.00    -2600.00
01174             -25.00    -2800.00
01175             -25.00    -2200.00
01176              25.00    -2800.00
01177              25.00    -3400.00
01178             -25.00    -3000.00
01179              25.00    -3400.00
01180              25.00    -3600.00
01181             -25.00    -3400.00
01182             -25.00    -3600.00
01183              25.00    -4200.00
01184             -25.00    -4000.00
01185             -25.00    -4400.00
01186              25.00    -4400.00
01187             -25.00    -4400.00
01188             -19.40    -4800.00
01189             -11.40    -4600.00
01190              25.00    -5000.00
01191              25.00    -5200.00
01192             -25.00    -5200.00
01193              25.00    -5600.00
01194              25.00    -5600.00
01195             -25.00    -5800.00
01196               3.60    -6000.00
01197              25.00    -6000.00
01198             -25.00    -6200.00
01199             -25.00    -6400.00
01200              25.00    -6400.00
01201              23.80    -6600.00
01202             -25.00    -6800.00
01203               4.40    -6800.00
01204              25.00    -7000.00
01205             -25.00    -6800.00
01206              -8.20    -7200.00
01207              25.00    -7200.00
01208              -9.60    -7400.00
01209             -15.60    -7400.00
01210               9.40    -7600.00
01211              11.40    -7800.00
01212             -16.20    -7800.00
01213               0.40    -8000.00
01214              14.60    -8200.00
01215             -12.00    -8000.00
01216              -3.20    -8400.00
01217               9.20    -8400.00
01218              -2.00    -8400.00
01219              -9.20    -8400.00
01220               6.80    -8800.00
01221               7.40    -8800.00
01222             -13.80    -8800.00
01223               2.80    -8800.00
01224              10.40    -9000.00
01225             -11.40    -8800.00
01226              -2.20    -9000.00
01227              10.80    -9200.00
01228              -3.40    -9200.00
01229              -8.60    -9200.00
01230               8.40    -9400.00
01231               2.80    -9400.00
01232             -11.00    -9600.00
01233               3.20    -9600.00
01234               7.60    -9600.00
01235              -6.80    -9600.00
01236              -2.80    -9800.00
01237               6.60    -9800.00
01238              -1.20    -9800.00
01239              -6.00    -9800.00
01240               2.80   -10000.00
01241               3.60    -9800.00
01242              -4.20   -10000.00
01243              -1.80   -10000.00
01244               3.80   -10000.00
01245              -1.40   -10000.00
01246              -4.20   -10000.00
01247               2.20   -10000.00
01248               1.60   -10000.00
01249              -3.40   -10000.00
01250              -0.40   -10000.00
01251               2.20   -10000.00
01252              -2.00   -10200.00
01253              -2.00   -10000.00
01254               1.80   -10000.00
01255               0.20   -10000.00
01256              -1.80   -10000.00
01257              -0.20   -10000.00
01258               0.20   -10000.00
01259              -1.20   -10000.00
01260              -0.40   -10000.00
01261              -0.20   -10000.00
01262              -0.60   -10000.00
01263               0.00   -10000.00
01264              -0.40   -10000.00
01265              -1.20    -9800.00
01266              -0.20    -9800.00
01267               0.00    -9800.00
01268              -0.60    -9800.00
01269              -0.60    -9600.00
01270               0.20    -9800.00
01271              -0.60    -9800.00
01272              -0.60    -9600.00
01273               0.40    -9600.00
01274              -0.20    -9600.00
01275              -0.40    -9400.00
01276               0.00    -9400.00
01277               0.20    -9400.00
01278              -0.60    -9200.00
01279              -1.00    -9000.00
01280               0.20    -9200.00
01281              -0.20    -9000.00
01282              -0.60    -9000.00
01283              -0.40    -8800.00
01284               0.20    -9000.00
01285              -0.60    -8800.00
01286              -0.80    -8800.00
01287               0.40    -8600.00
01288               0.20    -8600.00
01289              -1.00    -8200.00
01290              -0.40    -8400.00
01291               0.60    -8200.00
01292              -1.00    -8200.00
01293              -1.00    -8000.00
01294               0.80    -8000.00
01295              -0.20    -7800.00
01296              -1.20    -7600.00
01297               0.40    -7600.00
01298               0.40    -7400.00
01299              -1.20    -7200.00
01300              -0.40    -7200.00
01301               0.80    -7200.00
01302              -0.40    -6800.00
01303              -0.60    -6800.00
01304               0.20    -6800.00
01305              -0.40    -6600.00
01306              -0.20    -6400.00
01307              -0.20    -6400.00
01308              -0.60    -6400.00
01309               0.40    -6000.00
01310              -1.00    -6000.00
01311              -0.60    -6000.00
01312               0.00    -5600.00
01313              -0.40    -5600.00
01314              -1.00    -5600.00
01315               0.40    -5200.00
01316               0.20    -5200.00
01317              -1.00    -5200.00
01318              -0.60    -4600.00
01319              -0.40    -4600.00
01320              -0.60    -4600.00
01321              -0.60    -4400.00
01322               0.20    -4200.00
01323              -0.40    -4200.00
01324              -1.20    -4000.00
01325              -0.40    -4000.00
01326              -0.20    -3600.00
01327              -0.40    -3600.00
01328              -0.60    -3400.00
01329              -0.60    -3200.00
01330              -0.40    -3000.00
01331              -0.20    -3000.00
01332              -0.60    -2800.00
01333              -0.60    -2600.00
01334               0.40    -2600.00
01335              -0.60    -2400.00
01336              -0.60    -2000.00
01337              -0.20    -2000.00
01338              -0.40    -1800.00
01339              -1.00    -1600.00
01340               0.20    -1600.00
01341               0.20    -1200.00
01342              -0.60    -1200.00
01343              -0.60     -800.00
01344              -0.40     -800.00
01345              -0.40     -600.00
01346              -0.20     -400.00
01347              -0.20     -400.00
01348               0.20        0.00
01349              -0.60        0.00
01350               0.20        0.00
01351               1.00      200.00
01352               0.60      400.00
01353              -1.00      600.00
01354               0.20      800.00
01355               0.40      800.00
01356              -0.40     1200.00
01357              -0.60     1200.00
01358               3.40     1400.00
01359              13.20     1800.00
01360              10.00     2000.00
01361             -25.00     2200.00
01362             -25.00     2000.00
01363              -2.40     2000.00
01364              25.00     2400.00
01365              14.20     2600.00
01366             -25.00     2400.00
01367              25.00     3000.00
01368              25.00     3000.00
01369             -25.00     3000.00
01370             -25.00     3600.00
01371              25.00     3400.00
01372              -0.60     3400.00
01373             -25.00     4000.00
01374              25.00     4000.00
01375              25.00     4000.00
01376             -25.00     4200.00
01377              25.00     4400.00
01378              25.00     4400.00
01379             -25.00     4800.00
01380             -25.00     4800.00
01381              25.00     4800.00
01382              25.00     5400.00
01383             -25.00     5400.00
01384             -18.80     5400.00
01385              25.00     5600.00
01386              -7.60     5800.00
01387             -25.00     6000.00
01388              25.00     6000.00
01389              25.00     6200.00
01390             -25.00     6200.00
01391              -5.40     6400.00
01392              25.00     6400.00
01393             -18.80     6800.00
01394             -25.00     6800.00
01395              25.00     7000.00
01396               2.00     7000.00
01397             -25.00     7200.00
01398              15.00     7200.00
01399              17.00     7200.00
01400             -20.40     7600.00
01401              -5.40     7600.00
01402              17.00     7800.00
01403              -3.80     7800.00
01404             -11.80     8000.00
01405               8.40     8200.00
01406               5.80     8200.00
01407             -10.40     8200.00
01408               0.20     8400.00
01409               9.20     8400.00
01410              -6.80     8400.00
01411              -5.60     8600.00
01412              10.40     8600.00
01413              -0.40     8800.00
01414              -9.80     8800.00
01415               6.60     9000.00
01416               3.80     8800.00
01417              -9.00     9200.00
01418               2.00     9200.00
01419               7.00     9200.00
01420              -6.20     9200.00
01421              -2.20     9200.00
01422               6.60     9400.00
01423              -3.00     9400.00
01424              -4.40     9400.00
01425               4.60     9400.00
01426               1.80     9600.00
01427              -4.40     9600.00
01428               0.60     9600.00
01429               2.80     9800.00
01430              -2.60     9800.00
01431              -2.20     9800.00
01432               2.60     9600.00
01433               1.20    10000.00
01434              -2.80    10000.00
01435               0.40    10000.00
01436               2.60    10000.00
01437              -2.60    10000.00
01438              -1.40    10000.00
01439               2.80    10000.00
01440              -0.60    10000.00
01441              -2.40    10000.00
01442               1.60    10000.00
01443               0.40    10000.00
01444              -2.20    10000.00
01445              -0.20    10000.00
01446               1.80    10000.00
01447              -1.00    10000.00
01448              -1.20    10000.00
01449               0.40    10000.00
01450              -0.20    10000.00
01451              -1.00    10000.00
01452              -0.40    10000.00
01453               0.40    10000.00
01454              -0.20    10000.00
01455              -0.60     9800.00
01456              -0.20     9800.00
01457               0.20     9600.00
01458              -0.60     9600.00
01459              -0.40     9600.00
01460               0.20     9600.00
01461              -0.40     9800.00
01462              -0.60     9600.00
01463              -0.20     9600.00
01464              -1.00     9400.00
01465              -0.40     9400.00
01466              -0.20     9400.00
01467              -0.20     9400.00
01468              -0.40     9200.00
01469               0.60     9200.00
01470              -1.00     9200.00
01471              -0.40     9200.00
01472               0.20     9200.00
01473              -0.60     8800.00
01474              -1.00     8800.00
01475               0.20     8800.00
01476              -0.40     8800.00
01477              -0.60     8400.00
01478              -0.60     8600.00
01479               0.20     8400.00
01480              -0.40     8400.00
01481              -0.60     8200.00
01482              -0.20     8200.00
01483               0.20     8200.00
01484              -0.80     7800.00
01485              -0.20     7800.00
01486               0.40     7800.00
01487              -0.40     7800.00
01488              -0.60     7400.00
01489               0.20     7200.00
01490              -0.20     7600.00
01491              -0.60     7000.00
01492               0.00     7200.00
01493               0.20     7000.00
01494              -0.60     6800.00
01495              -0.40     6800.00
01496              -0.20     6600.00
01497              -0.40     6400.00
01498              -0.40     6400.00
01499              -0.20     6200.00
01500              -0.20     6200.00
01501              -0.20     6000.00
01502              -0.40     5800.00
01503              -0.60     5600.00
01504               0.00     5400.00
01505              -0.40     5400.00
01506              -0.60     5200.00
01507              -0.20     5200.00
01508              -0.40     5000.00
01509              -0.60     4600.00
01510              -0.40     4800.00
01511              -0.40     4400.00
01512              -1.00     4400.00
01513               0.60     4200.00
01514              -1.00     4000.00
01515              -0.60     4000.00
01516               0.40     3800.00
01517              -0.60     3600.00
01518              -1.00     3400.00
01519               0.20     3200.00
01520              -0.60     3000.00
01521              -0.20     3200.00
01522              -0.40     2800.00
01523              -1.00     2600.00
01524              -0.40     2400.00
01525               0.20     2400.00
01526              -1.00     2200.00
01527               0.00     2000.00
01528              -0.40     2000.00
01529              -1.00     1600.00
01530               0.20     1600.00
01531              -0.40     1400.00
01532              -0.60     1200.00
01533               0.20     1200.00
01534               0.00      800.00
01535              -0.80      800.00
01536              -0.20      600.00
01537               0.40      400.00
01538              -1.40      200.00
01539              -0.20        0.00
01540               0.20        0.00
01541              -0.40     -200.00
01542               1.00     -400.00
01543               1.00     -400.00
01544              -0.60     -800.00
01545              -0.60     -800.00
01546               0.40    -1000.00
01547              -0.40    -1400.00
01548              -0.40    -1200.00
01549               7.80    -1400.00
01550              25.00    -2000.00
01551             -22.60    -2000.00
01552             -25.00    -2400.00
01553             -17.40    -2000.00
01554              25.00    -2000.00
01555              25.00    -2800.00
01556             -25.00    -2600.00
01557              -2.80    -2400.00
01558              25.00    -3200.00
01559             -10.60    -3400.00
01560             -25.00    -3000.00
01561              25.00    -3600.00
01562              25.00    -3600.00
01563             -25.00    -3400.00
01564              25.00    -4000.00
01565              25.00    -4000.00
01566             -25.00    -4200.00
01567              18.20    -4400.00
01568              25.00    -4400.00
01569             -25.00    -4600.00
01570             -12.60    -4800.00
01571              -6.80    -4600.00
01572              25.00    -5200.00
01573              -7.00    -5200.00
01574             -25.00    -5200.00
01575              25.00    -5600.00
01576              25.00    -5600.00
01577             -25.00    -5800.00
01578              25.00    -6000.00
01579              25.00    -6000.00
01580             -25.00    -6400.00
01581             -19.60    -6400.00
01582              25.00    -6600.00
01583               6.00    -6400.00
01584             -25.00    -6800.00
01585              25.00    -6800.00
01586              25.00    -7200.00
01587             -25.00    -7200.00
01588               9.00    -7400.00
01589              22.80    -7200.00
01590             -17.20    -7400.00
01591              -9.80    -7600.00
01592              14.00    -7600.00
01593               4.20    -8000.00
01594             -17.40    -7800.00
01595               8.60    -8000.00
01596               9.00    -8200.00
01597             -13.60    -8000.00
01598               1.60    -8400.00
01599               7.60    -8400.00
01600              -4.60    -8400.00
01601              -7.00    -8400.00
01602              10.00    -8600.00
01603               1.00    -8800.00
01604             -14.00    -8800.00
01605              10.00    -9000.00
01606               5.60    -9000.00
01607             -14.20    -9200.00
01608               2.20    -9200.00
01609              11.80    -9000.00
01610              -8.00    -9200.00
01611              -7.40    -9200.00
01612              11.60    -9400.00
01613              -0.60    -9400.00
01614             -11.00    -9600.00
01615               6.20    -9600.00
01616               5.20    -9600.00
01617              -7.40    -9600.00
01618              -1.00    -9800.00
01619               5.80    -9800.00
01620              -2.80    -9600.00
01621              -5.00    -9800.00
01622               4.20    -9800.00
01623               2.20   -10000.00
01624              -5.20   -10000.00
01625               0.20   -10000.00
01626               4.20    -9800.00
01627              -3.40   -10000.00
01628              -3.00   -10000.00
01629               3.40   -10000.00
01630               0.60   -10000.00
01631              -3.40   -10000.00
01632               0.40   -10000.00
01633               1.40   -10000.00
01634              -1.80   -10000.00
01635              -1.20   -10000.00
01636               1.00   -10200.00
01637              -0.20   -10000.00
01638              -1.00   -10000.00
01639              -0.60   -10000.00
01640               0.20   -10000.00
01641              -0.60   -10000.00
01642              -0.60   -10000.00
01643              -0.60   -10000.00
01644               0.40   -10000.00
01645              -0.20   -10000.00
01646              -1.60   -10000.00
01647               0.20    -9800.00
01648               0.00   -10000.00
01649              -1.00    -9800.00
01650              -0.20    -9800.00
01651              -0.20    -9600.00
01652              -0.60    -9800.00
01653              -1.00    -9800.00
01654              -0.60    -9600.00
01655               0.20    -9600.00
01656              -0.60    -9600.00
01657              -1.00    -9400.00
01658               0.20    -9400.00
01659               0.20    -9400.00
01660              -1.80    -9200.00
01661              -0.60    -9200.00
01662               0.60    -9000.00
01663              -0.60    -9000.00
01664              -1.00    -8800.00
01665               0.20    -9000.00
01666              -0.20    -8800.00
01667              -1.00    -8800.00
01668              -0.60    -8800.00
01669               0.60    -8400.00
01670              -0.40    -8400.00
01671              -1.00    -8400.00
01672               0.20    -8400.00
01673               0.40    -8200.00
01674              -1.20    -8000.00
01675              -0.60    -7800.00
01676               1.00    -7600.00
01677              -0.40    -7800.00
01678              -1.00    -7600.00
01679               0.00    -7600.00
01680              -0.60    -7400.00
01681              -1.40    -7400.00
01682               0.40    -7200.00
01683               1.00    -7000.00
01684              -0.40    -6800.00
01685              -1.00    -6800.00
01686               0.40    -6800.00
01687              -0.60    -6600.00
01688              -1.00    -6400.00
01689               0.00    -6400.00
01690               0.40    -6200.00
01691              -0.40    -6000.00
01692              -0.60    -6000.00
01693              -0.40    -5800.00
01694              -0.60    -5800.00
01695              -1.20    -5600.00
01696               0.20    -5200.00
01697               1.00    -5200.00
01698              -0.60    -5000.00
01699              -1.40    -5000.00
01700              -0.40    -4800.00
01701              -0.60    -4800.00
01702              -0.60    -4400.00
01703              -0.40    -4200.00
01704               0.40    -4200.00
01705               0.20    -4000.00
01706              -1.20    -4000.00
01707              -0.40    -3800.00
01708              -0.20    -3600.00
01709              -1.20    -3600.00
01710              -0.60    -3400.00
01711               0.40    -3200.00
01712              -0.80    -3200.00
01713              -0.60    -3000.00
01714               0.20    -2800.00
01715              -0.60    -2600.00
01716              -0.60    -2400.00
01717               0.00    -2200.00
01718              -0.60    -2000.00
01719              -0.60    -2000.00
01720              -0.20    -1800.00
01721              -0.60    -1600.00
01722              -0.60    -1600.00
01723               0.00    -1200.00
01724              -0.60    -1000.00
01725              -0.60    -1000.00
01726              -0.20     -800.00
01727              -0.40     -600.00
01728              -0.60     -400.00
01729               0.20     -200.00
01730              -0.40     -200.00
01731              -0.20        0.00
01732               0.20      200.00
01733               1.00      400.00
01734               0.60      400.00
01735              -1.00      800.00
01736               0.20      800.00
01737               0.80     1000.00
01738              -0.60     1200.00
01739              -0.20     1400.00
01740               5.20     1400.00
01741              16.20     2000.00
01742               0.20     1800.00
01743             -25.00     2200.00
01744             -22.00     2000.00
01745              11.40     2200.00
01746              25.00     2600.00
01747             -18.60     2400.00
01748             -25.00     2800.00
01749              25.00     3200.00
01750              25.00     3000.00
01751             -25.00     3000.00
01752              -4.20     3600.00
01753              25.00     3600.00
01754             -25.00     3600.00
01755             -25.00     4000.00
01756              25.00     4000.00
01757             -24.60     4000.00
01758             -25.00     4600.00
01759              25.00     4400.00
01760              21.80     4600.00
01761             -25.00     4800.00
01762             -10.20     5000.00
01763              25.00     4800.00
01764              15.60     5400.00
01765             -25.00     5400.00
01766               3.60     5400.00
01767              25.00     5800.00
01768             -25.00     5600.00
01769             -25.00     6000.00
01770              25.00     6000.00
01771              11.40     6200.00
01772             -25.00     6400.00
01773              12.60     6200.00
01774              25.00     6400.00
01775             -25.00     6800.00
01776              -9.80     7000.00
01777              25.00     7000.00
01778             -13.40     7200.00
01779             -23.20     7200.00
01780              23.40     7200.00
01781               6.60     7400.00
01782             -22.40     7600.00
01783               3.60     7600.00
01784              15.60     7800.00
01785             -10.40     8000.00
01786              -7.00     8200.00
01787              11.60     8200.00
01788              -0.20     8200.00
01789             -10.20     8200.00
01790               4.40     8400.00
01791               6.60     8400.00
01792              -9.40     8400.00
01793              -1.20     8600.00
01794              10.20     8800.00
01795              -5.40     8800.00
01796              -6.60     8800.00
01797               8.80     9000.00
01798              -0.60     9000.00
01799              -8.60     9000.00
01800               5.80     9200.00
01801               3.80     9200.00
01802              -7.80     9200.00
01803               1.40     9400.00
01804               5.20     9400.00
01805              -5.40     9600.00
01806              -1.80     9400.00
01807               5.20     9600.00
01808              -1.00     9600.00
01809              -3.60     9600.00
01810               2.00     9600.00
01811               2.00    10000.00
01812              -3.40     9600.00
01813              -0.60     9800.00
01814               3.40     9800.00
01815              -1.00    10000.00
01816              -2.80    10000.00
01817               1.80    10000.00
01818               1.20    10000.00
01819              -2.60    10000.00
01820              -0.40    10000.00
01821               3.40    10000.00
01822              -2.00    10000.00
01823              -1.80    10000.00
01824               2.60    10000.00
01825              -0.40    10000.00
01826              -2.20    10000.00
01827               0.60    10000.00
01828               1.80    10000.00
01829              -1.80    10000.00
01830              -0.80    10000.00
01831               1.20    10000.00
01832              -1.20    10000.00
01833              -0.60    10000.00
01834               0.40    10000.00
01835              -0.40    10000.00
01836              -0.60     9600.00
01837              -0.20     9800.00
01838              -0.20     9800.00
01839              -0.60     9800.00
01840              -0.60     9800.00
01841              -0.40     9600.00
01842              -0.20     9600.00
01843              -0.60     9600.00
01844              -0.40     9600.00
01845               0.20     9400.00
01846              -0.60     9400.00
01847              -0.40     9400.00
01848              -1.00     9400.00
01849              -1.00     9400.00
01850              -0.20     9200.00
01851               0.60     9200.00
01852              -1.20     9200.00
01853              -0.20     9000.00
01854               0.40     9000.00
01855              -0.60     8800.00
01856              -0.60     8800.00
01857               0.20     8800.00
01858              -0.40     8800.00
01859              -0.60     8400.00
01860              -0.40     8400.00
01861               0.40     8400.00
01862              -0.80     8200.00
01863              -1.00     8400.00
01864               0.40     8200.00
01865              -0.20     8000.00
01866              -0.60     7800.00
01867               0.20     7800.00
01868               0.40     7800.00
01869              -1.00     7600.00
01870              -0.60     7600.00
01871               0.40     7400.00
01872              -0.60     7200.00
01873              -0.60     7200.00
01874               0.20     7000.00
01875               0.20     6800.00
01876              -0.20     6800.00
01877              -0.80     6800.00
01878              -1.20     6400.00
01879               0.00     6400.00
01880               0.80     6200.00
01881              -0.40     6200.00
01882               0.00     6000.00
01883               0.20     6000.00
01884              -1.00     5800.00
01885              -1.00     5800.00
01886               0.40     5600.00
01887               0.20     5400.00
01888              -0.20     5200.00
01889               0.40     5000.00
01890              -0.40     4800.00
01891              -1.00     4600.00
01892              -0.60     4600.00
01893              -0.40     4400.00
01894               0.20     4400.00
01895               1.00     4200.00
01896              -1.20     4000.00
01897              -1.40     4000.00
01898               0.20     3600.00
01899              -1.00     3600.00
01900              -0.60     3600.00
01901               0.60     3200.00
01902              -0.20     3000.00
01903              -0.60     3000.00
01904              -0.40     3000.00
01905              -0.60     2600.00
01906              -1.20     2400.00
01907               0.20     2400.00
01908               0.20     2200.00
01909              -0.60     2000.00
01910              -0.60     2000.00
01911               0.20     1600.00
01912              -0.60     1400.00
01913              -1.00     1400.00
01914               0.20     1200.00
01915              -0.20      800.00
01916              -0.60      800.00
01917               0.00      800.00
01918              -0.40      600.00
01919              -0.60      400.00
01920              -0.20      400.00
01921              -0.20        0.00
01922              -0.60     -200.00
01923               0.60     -200.00
01924               1.00     -400.00
01925               0.40     -400.00
01926              -0.60     -800.00
01927              -0.20     -800.00
01928               0.20    -1000.00
01929              -0.60    -1200.00
01930               0.40    -1200.00
01931              13.20    -1600.00
01932              20.60    -2000.00
01933             -25.00    -2000.00
01934             -25.00    -2200.00
01935               0.20    -1800.00
01936              25.00    -2200.00
01937               9.40    -2800.00
01938             -25.00    -2400.00
01939              25.00    -2600.00
01940              25.00    -3200.00
01941             -25.00    -3200.00
01942             -25.00    -2800.00
01943              25.00    -3600.00
01944              25.00    -3600.00
01945             -25.00    -3600.00
01946              25.00    -4200.00
01947              25.00    -4000.00
01948             -25.00    -4000.00
01949              25.00    -4400.00
01950              25.00    -4400.00
01951             -25.00    -4800.00
01952             -11.40    -4600.00
01953               4.40    -4800.00
01954              25.00    -5200.00
01955             -25.00    -5200.00
01956             -25.00    -5400.00
01957              25.00    -5600.00
01958             -18.80    -5600.00
01959             -25.00    -5800.00
01960              25.00    -6000.00
01961              19.40    -6000.00
01962             -25.00    -6400.00
01963              -2.20    -6400.00
01964              25.00    -6600.00
01965             -16.00    -6600.00
01966             -25.00    -6800.00
01967              25.00    -6800.00
01968               2.80    -7000.00
01969             -25.00    -7200.00
01970              22.80    -7400.00
01971              12.20    -7200.00
01972             -20.60    -7600.00
01973              -3.00    -7800.00
01974              16.40    -7600.00
01975              -5.00    -7800.00
01976             -13.80    -8000.00
01977              14.60    -8000.00
01978               0.40    -8200.00
01979             -12.40    -8200.00
01980               6.60    -8400.00
01981               4.60    -8400.00
01982              -8.60    -8400.00
01983              -2.40    -8400.00
01984              11.80    -8600.00
01985              -6.00    -8800.00
01986              -9.20    -8800.00
01987              12.60    -9000.00
01988              -2.20    -8800.00
01989             -11.00    -9000.00
01990               7.40    -9000.00
01991               5.40    -9200.00
01992             -10.20    -9200.00
01993              -0.40    -9200.00
01994               9.40    -9400.00
01995              -7.00    -9400.00
01996              -5.40    -9600.00
01997               9.20    -9600.00
01998               0.20    -9600.00
01999              -7.40    -9600.00
02000               3.00    -9600.00
02001               4.20    -9800.00
02002              -5.60    -9800.00
02003              -2.60    -9800.00
02004               5.40    -9800.00
02005              -0.60   -10000.00
02006              -4.60    -9800.00
02007               2.60   -10000.00
02008               2.80   -10000.00
02009              -4.40   -10000.00
02010              -1.20   -10000.00
02011               4.00   -10000.00
02012              -0.60   -10000.00
02013              -2.80   -10000.00
02014               1.40   -10000.00
02015               0.40   -10000.00
02016              -2.20   -10000.00
02017              -0.60   -10000.00
02018               1.20   -10000.00
02019              -0.60   -10000.00
02020              -1.20   -10000.00
02021               0.40   -10000.00
02022               0.20   -10000.00
02023              -0.40   -10000.00
02024              -0.60   -10000.00
02025               0.00    -9800.00
02026               0.40   -10000.00
02027              -0.60   -10000.00
02028              -0.60   -10000.00
02029              -0.20   -10000.00
02030              -0.60    -9800.00
02031              -0.20   -10000.00
02032              -0.60    -9800.00
02033              -0.20    -9800.00
02034              -0.20    -9600.00
02035              -1.20    -9600.00
02036              -0.20    -9600.00
02037               0.20    -9600.00
02038              -1.00    -9600.00
02039              -0.60    -9600.00
02040               0.20    -9400.00
02041              -0.40    -9400.00
02042              -1.20    -9200.00
02043               0.00    -9000.00
02044               0.20    -9200.00
02045              -1.00    -9000.00
02046              -0.40    -9000.00
02047              -0.20    -8800.00
02048              -0.60    -8800.00
02049              -1.20    -8800.00
02050              -0.40    -8600.00
02051               0.20    -8600.00
02052              -0.60    -8400.00
02053              -1.20    -8400.00
02054               0.40    -8200.00
02055               0.20    -8000.00
02056              -1.20    -8000.00
02057              -0.20    -8000.00
02058               1.00    -8000.00
02059              -1.00    -7600.00
02060              -0.80    -7600.00
02061               0.40    -7400.00
02062              -0.60    -7400.00
02063              -1.20    -7400.00
02064               0.60    -7200.00
02065              -0.20    -7200.00
02066              -0.80    -7000.00
02067              -0.20    -6800.00
02068               0.20    -6600.00
02069              -0.60    -6600.00
02070               0.20    -6400.00
02071              -1.00    -6400.00
02072               0.20    -6200.00
02073              -0.20    -6000.00
02074              -1.00    -6000.00
02075              -0.40    -5800.00
02076               0.40    -5600.00
02077              -1.20    -5600.00
02078               0.20    -5400.00
02079               0.40    -5200.00
02080              -1.00    -5200.00
02081              -0.80    -4800.00
02082               0.20    -4800.00
02083              -0.60    -4400.00
02084              -0.40    -4400.00
02085               0.40    -4200.00
02086               0.20    -4200.00
02087              -0.60    -4000.00
02088              -0.40    -3800.00
02089              -0.40    -3600.00
02090              -0.20    -3600.00
02091              -0.40    -3400.00
02092              -0.60    -3400.00
02093              -0.20    -3200.00
02094              -0.60    -2800.00
02095              -0.80    -2800.00
02096              -0.40    -2600.00
02097              -0.20    -2400.00
02098              -0.40    -2400.00
02099              -0.60    -2200.00
02100              -0.20    -2000.00
02101              -0.40    -1800.00
02102              -1.00    -1800.00
02103              -0.60    -1600.00
02104               0.00    -1200.00
02105              -0.60    -1000.00
02106              -0.40    -1200.00
02107              -0.60     -800.00
02108              -0.60     -800.00
02109              -0.60     -600.00
02110              -0.20     -400.00
02111               0.20     -200.00
02112              -1.40        0.00
02113               0.80        0.00
02114               1.00      200.00
02115              -1.00      400.00
02116               0.60      600.00
02117               0.20      800.00
02118              -1.00      800.00
02119               1.80      800.00
02120              -1.20     1200.00
02121               0.40     1400.00
02122               7.60     1400.00
02123              17.60     2000.00
02124             -11.80     2000.00
02125             -25.00     2000.00
02126             -14.80     2200.00
02127              25.00     2400.00
02128              25.00     2400.00
02129             -25.00     2600.00
02130             -25.00     2800.00
02131              25.00     3200.00
02132              25.00     3000.00
02133             -25.00     3200.00
02134              25.00     3400.00
02135              25.00     3600.00
02136             -25.00     3600.00
02137               7.60     4000.00
02138              25.00     3800.00
02139             -25.00     4000.00
02140             -25.00     4400.00
02141              25.00     4400.00
02142              -2.20     4400.00
02143             -25.00     4800.00
02144               6.00     4800.00
02145              25.00     5200.00
02146              -9.20     5200.00
02147             -25.00     5600.00
02148              25.00     5400.00
02149              25.00     5600.00
02150             -25.00     5800.00
02151              -9.40     6000.00
02152              25.00     6200.00
02153             -11.80     6400.00
02154             -25.00     6400.00
02155              25.00     6400.00
02156              14.00     6800.00
02157             -25.00     6800.00
02158              11.00     7000.00
02159              25.00     7000.00
02160             -25.00     7200.00
02161              -9.20     7200.00
02162              25.00     7200.00
02163              -5.40     7400.00
02164             -18.40     7600.00
02165              10.60     7600.00
02166               9.80     8000.00
02167             -13.20     8000.00
02168              -1.40     8200.00
02169              11.40     8200.00
02170              -5.20     8200.00
02171              -7.80     8200.00
02172               7.60     8400.00
02173               2.20     8400.00
02174             -10.80     8600.00
02175               4.20     8600.00
02176               8.20     8600.00
02177              -9.40     8800.00
02178              -2.20     8800.00
02179               9.40     9000.00
02180              -5.20     9000.00
02181              -6.80     9200.00
02182               8.40     9200.00
02183               0.40     9200.00
02184              -8.00     9400.00
02185               4.40     9400.00
02186               3.80     9400.00
02187              -7.20     9400.00
02188               0.20     9400.00
02189               5.80     9400.00
02190              -3.20     9600.00
02191              -3.00     9800.00
02192               3.80     9600.00
02193               0.40     9800.00
02194              -4.40    10000.00
02195               0.60     9800.00
02196               3.40    10000.00
02197              -2.20    10000.00
02198              -2.40    10000.00
02199               3.00    10000.00
02200              -0.20    10000.00
02201              -3.80    10000.00
02202               1.80    10000.00
02203               1.80    10000.00
02204              -2.40    10200.00
02205              -0.40    10000.00
02206               2.00    10000.00
02207              -1.20    10000.00
02208              -1.80    10000.00
02209               1.00    10000.00
02210               1.00    10000.00
02211              -1.80    10000.00
02212              -0.40    10000.00
02213               1.20    10000.00
02214              -0.20    10000.00
02215              -1.40    10000.00
02216               0.80    10000.00
02217               1.00    10000.00
02218              -1.40    10000.00
02219              -0.60     9800.00
02220               0.60    10000.00
02221              -0.60     9600.00
02222              -1.00     9600.00
02223               0.20     9600.00
02224               0.20     9600.00
02225              -0.40     9600.00
02226              -1.00     9600.00
02227               0.40     9600.00
02228              -0.40     9400.00
02229               0.20     9400.00
02230              -0.40     9400.00
02231              -1.20     9400.00
02232              -0.60     9200.00
02233               0.20     9200.00
02234              -0.60     9200.00
02235              -0.40     9200.00
02236              -0.20     9000.00
02237              -0.20     8800.00
02238              -0.20     8800.00
02239              -0.60     8800.00
02240              -0.80     8600.00
02241               0.20     8600.00
02242              -0.40     8400.00
02243              -0.20     8400.00
02244               0.20     8400.00
02245              -0.60     8200.00
02246              -1.00     8000.00
02247               0.40     8000.00
02248              -0.40     8000.00
02249              -0.40     7800.00
02250               0.40     7600.00
02251              -0.80     7600.00
02252              -1.00     7600.00
02253               0.80     7400.00
02254              -0.40     7200.00
02255              -1.20     7000.00
02256               0.60     7000.00
02257               0.20     7000.00
02258              -1.00     6800.00
02259              -0.40     6800.00
02260               0.40     6400.00
02261              -0.60     6400.00
02262              -0.60     6200.00
02263               0.60     6200.00
02264              -0.20     6000.00
02265              -1.00     6000.00
02266              -0.20     6000.00
02267               0.20     5600.00
02268              -0.40     5600.00
02269              -0.20     5400.00
02270               0.20     5200.00
02271               0.00     5000.00
02272              -0.60     4800.00
02273              -0.40     4800.00
02274               0.40     4600.00
02275              -1.00     4400.00
02276              -0.40     4400.00
02277               0.60     4000.00
02278              -0.60     3800.00
02279              -0.60     3800.00
02280               0.40     3600.00
02281              -0.40     3400.00
02282              -1.00     3200.00
02283               0.40     3400.00
02284               0.20     3000.00
02285              -1.20     3000.00
02286               0.20     2800.00
02287               0.20     2600.00
02288              -1.00     2400.00
02289              -0.40     2400.00
02290               0.20     2000.00
02291              -0.60     2000.00
02292              -0.60     1800.00
02293              -0.20     1600.00
02294              -0.20     1600.00
02295              -0.60     1200.00
02296               0.20     1200.00
02297              -0.20      800.00
02298              -0.80      800.00
02299              -0.60      600.00
02300              -0.20      600.00
02301              -0.60      200.00
02302              -0.20        0.00
02303               0.00        0.00
02304              -0.20     -200.00
02305               0.20     -200.00
02306               1.00     -400.00
02307              -0.20     -600.00
02308              -1.40     -800.00
02309              -0.40     -800.00
02310               0.20    -1000.00
02311              -0.60    -1200.00
02312               1.00    -1400.00
02313              20.40    -1800.00
02314               8.00    -2000.00
02315             -25.00    -2200.00
02316             -25.00    -2400.00
02317              25.00    -2000.00
02318              25.00    -2400.00
02319             -25.00    -2800.00
02320             -25.00    -2200.00
02321              25.00    -2800.00
02322              25.00    -3200.00
02323             -25.00    -3200.00
02324             -20.60    -3200.00
02325              25.00    -3600.00
02326             -22.80    -3400.00
02327             -25.00    -3600.00
02328              25.00    -4200.00
02329              17.20    -4000.00
02330             -25.00    -4200.00
02331              25.00    -4600.00
02332             -12.40    -4400.00
02333             -25.00    -4600.00
02334             -11.60    -4800.00
02335              21.80    -5000.00
02336              25.00    -5200.00
02337             -25.00    -5200.00
02338              -2.80    -5600.00
02339              25.00    -5600.00
02340             -25.00    -5600.00
02341             -25.00    -6000.00
02342              25.00    -6000.00
02343              -6.00    -6200.00
02344             -25.00    -6400.00
02345              15.40    -6600.00
02346              25.00    -6600.00
02347             -25.00    -6600.00
02348             -17.00    -6800.00
02349              25.00    -7200.00
02350             -20.40    -6800.00
02351             -24.40    -7200.00
02352              25.00    -7200.00
02353              -0.60    -7400.00
02354             -20.20    -7600.00
02355               4.60    -7600.00
02356              15.60    -7600.00
02357             -13.00    -8000.00
02358              -6.80    -8000.00
02359              16.80    -8000.00
02360              -7.80    -8000.00
02361              -7.80    -8200.00
02362               9.40    -8400.00
02363               0.40    -8400.00
02364              -9.20    -8400.00
02365               2.20    -8600.00
02366              10.00    -8800.00
02367             -11.40    -8800.00
02368              -3.00    -8800.00
02369              12.60    -9200.00
02370              -8.00    -9000.00
02371              -6.80    -9200.00
02372              10.20    -9200.00
02373               0.60    -9200.00
02374             -10.80    -9200.00
02375               4.60    -9200.00
02376               7.00    -9600.00
02377             -10.20    -9400.00
02378              -0.60    -9600.00
02379               9.00    -9600.00
02380              -4.20    -9600.00
02381              -5.20    -9600.00
02382               5.00    -9600.00
02383               1.40    -9800.00
02384              -6.20    -9800.00
02385               0.20    -9800.00
02386               4.60    -9800.00
02387              -2.60    -9800.00
02388              -3.40    -9800.00
02389               3.40   -10000.00
02390               0.40   -10000.00
02391              -4.20   -10000.00
02392               0.80   -10000.00
02393               2.60   -10000.00
02394              -2.00   -10000.00
02395              -1.80   -10000.00
02396               1.40   -10000.00
02397               0.20   -10000.00
02398              -1.80   -10000.00
02399              -0.40   -10000.00
02400               1.00   -10000.00
02401              -0.40   -10000.00
02402              -1.20   -10000.00
02403               0.20   -10000.00
02404               0.20   -10000.00
02405              -0.60   -10000.00
02406              -0.60   -10000.00
02407               0.40   -10000.00
02408               0.20   -10000.00
02409              -1.00    -9800.00
02410              -0.40    -9800.00
02411               0.40    -9800.00
02412              -0.40    -9800.00
02413              -0.40    -9800.00
02414               0.20    -9800.00
02415              -0.40    -9800.00
02416              -0.60    -9600.00
02417              -0.60    -9600.00
02418              -0.60    -9600.00
02419              -0.20    -9600.00
02420              -0.40    -9400.00
02421              -1.00    -9400.00
02422               0.40    -9200.00
02423              -0.60    -9200.00
02424              -1.20    -9200.00
02425               0.40    -9000.00
02426               0.40    -9200.00
02427              -1.20    -9000.00
02428              -0.60    -8800.00
02429               0.20    -8800.00
02430              -0.60    -8800.00
02431              -1.20    -8800.00
02432               0.20    -8600.00
02433               0.60    -8600.00
02434              -1.40    -8400.00
02435              -0.60    -8400.00
02436               0.60    -8200.00
02437              -1.20    -8200.00
02438              -1.40    -8200.00
02439               1.20    -8000.00
02440               0.20    -7600.00
02441              -1.80    -7800.00
02442              -0.20    -7600.00
02443               0.40    -7600.00
02444              -1.20    -7200.00
02445              -0.60    -7200.00
02446               0.60    -7200.00
02447               0.20    -7000.00
02448              -1.00    -6800.00
02449              -0.60    -6600.00
02450              -0.20    -6600.00
02451              -0.20    -6400.00
02452              -0.60    -6400.00
02453              -0.60    -6200.00
02454               0.40    -6000.00
02455              -1.00    -6000.00
02456              -1.00    -6000.00
02457               0.60    -5600.00
02458              -0.20    -5600.00
02459              -1.00    -5600.00
02460               0.40    -5200.00
02461               0.40    -5200.00
02462              -1.00    -5000.00
02463              -0.60    -4800.00
02464               0.20    -4800.00
02465              -0.20    -4600.00
02466              -1.20    -4400.00
02467               0.40    -4200.00
02468               0.60    -4200.00
02469              -1.20    -4000.00
02470              -1.00    -4000.00
02471               0.40    -3600.00
02472               0.00    -3600.00
02473              -1.00    -3400.00
02474               0.20    -3200.00
02475               0.40    -3000.00
02476              -0.80    -2800.00
02477              -0.40    -2800.00
02478               0.20    -2600.00
02479              -0.40    -2400.00
02480              -0.60    -2400.00
02481              -0.40    -2000.00
02482              -0.40    -2000.00
02483              -0.60    -1800.00
02484              -0.20    -1600.00
02485              -0.60    -1600.00
02486              -0.20    -1200.00
02487               1.00    -1400.00
02488              -2.00    -1000.00
02489              -0.60    -1000.00
02490               1.20     -800.00
02491              -1.80     -600.00
02492              -1.00     -400.00
02493               1.00     -200.00
02494              -1.20        0.00
02495              -0.60      200.00
02496               1.40      200.00
02497               0.60      400.00
02498              -1.20      600.00
02499              -0.60      600.00
02500               1.00      800.00
02501              -0.60      800.00
02502              -0.40     1200.00
02503               1.80     1400.00
02504              10.00     1600.00
02505              15.80     2000.00
02506             -21.40     2000.00
02507             -25.00     2000.00
02508              -9.40     2200.00
02509              25.00     2400.00
02510              25.00     2600.00
02511             -25.00     2400.00
02512             -13.40     3000.00
02513              25.00     3000.00
02514             -25.00     3000.00
02515             -25.00     3400.00
02516              25.00     3600.00
02517              25.00     3600.00
02518             -25.00     3800.00
02519              25.00     4000.00
02520              25.00     4000.00
02521             -25.00     4400.00
02522              11.60     4400.00
02523              25.00     4400.00
02524             -25.00     4800.00
02525             -25.00     4800.00
02526              21.80     4800.00
02527              25.00     5200.00
02528             -25.00     5400.00
02529             -25.00     5400.00
02530              25.00     5600.00
02531              13.80     5600.00
02532             -25.00     6000.00
02533              11.80     6000.00
02534              25.00     6200.00
02535             -25.00     6400.00
02536             -20.60     6200.00
02537              25.00     6400.00
02538              -3.40     6600.00
02539             -25.00     6800.00
02540              25.00     6800.00
02541              16.60     7000.00
02542             -25.00     7000.00
02543               5.20     7200.00
02544              23.40     7200.00
02545             -15.80     7600.00
02546             -12.20     7600.00
02547              15.40     7800.00
02548               2.60     7800.00
02549             -12.60     8000.00
02550               4.20     8000.00
02551               8.20     8200.00
02552              -8.20     8400.00
02553              -3.40     8400.00
02554               8.20     8400.00
02555              -2.80     8400.00
02556              -7.80     8600.00
02557               7.60     8600.00
02558               3.40     8800.00
02559             -10.00     8800.00
02560               2.40     9000.00
02561               6.60     9000.00
02562              -7.40     9000.00
02563              -2.20     9200.00
02564               7.80     9200.00
02565              -3.60     9200.00
02566              -5.20     9200.00
02567               6.20     9400.00
02568              -0.40     9400.00
02569              -6.00     9400.00
02570               2.80     9400.00
02571               3.00     9600.00
02572              -4.40     9600.00
02573              -0.80     9600.00
02574               3.00     9800.00
02575              -1.20     9600.00
02576              -3.00     9800.00
02577               1.80    10000.00
02578               1.80     9800.00
02579              -2.80    10000.00
02580              -0.60    10000.00
02581               2.60     9800.00
02582              -1.40    10000.00
02583              -2.20    10000.00
02584               2.20    10000.00
02585               0.40    10000.00
02586              -2.20    10200.00
02587               0.80    10000.00
02588               1.20    10000.00
02589              -1.80    10000.00
02590              -0.80    10000.00
02591               1.40    10000.00
02592               0.20    10000.00
02593              -0.60    10000.00
02594               0.00    10000.00
02595               0.40    10000.00
02596              -0.20    10000.00
02597              -0.40    10000.00
02598              -0.20    10000.00
02599               0.40    10000.00
02600              -0.20     9800.00
02601              -0.60     9600.00
02602               0.20     9800.00
02603              -0.20     9800.00
02604              -0.60     9600.00
02605               0.40     9600.00
02606               0.40     9600.00
02607              -0.40     9600.00
02608              -0.20     9600.00
02609              -0.60     9600.00
02610              -0.40     9400.00
02611               0.20     9400.00
02612              -0.20     9400.00
02613              -0.20     9200.00
02614               0.60     9200.00
02615              -1.20     9200.00
02616              -0.40     9200.00
02617               0.00     9200.00
02618              -0.40     8800.00
02619              -0.80     8800.00
02620               0.20     8800.00
02621              -0.40     8800.00
02622              -0.60     8600.00
02623              -0.40     8600.00
02624               0.20     8400.00
02625              -0.40     8400.00
02626              -0.60     8400.00
02627              -0.20     8200.00
02628              -0.20     8200.00
02629              -0.60     8000.00
02630              -0.60     8000.00
02631               0.20     7800.00
02632              -0.40     7600.00
02633              -1.00     7600.00
02634               0.20     7600.00
02635              -0.20     7400.00
02636              -1.00     7200.00
02637              -0.40     7000.00
02638               0.40     7000.00
02639              -0.40     6800.00
02640              -0.40     6800.00
02641               0.20     6400.00
02642               0.20     6400.00
02643              -0.60     6400.00
02644               0.00     6200.00
02645              -0.20     6000.00
02646              -0.60     6000.00
02647              -0.60     6000.00
02648              -0.20     5800.00
02649              -0.20     5400.00
02650              -0.40     5400.00
02651              -0.20     5400.00
02652               0.20     5200.00
02653               0.20     4800.00
02654              -0.60     4800.00
02655              -0.20     4600.00
02656               0.20     4600.00
02657              -0.20     4400.00
02658              -0.40     4400.00
02659               0.20     4000.00
02660              -0.40     4000.00
02661              -0.40     3800.00
02662              -0.20     3600.00
02663              -0.40     3400.00
02664              -0.40     3200.00
02665              -0.40     3200.00
02666              -0.20     3200.00
02667               0.00     3000.00
02668              -0.40     2800.00
02669              -0.40     2400.00
02670               0.20     2400.00
02671               0.00     2200.00
02672              -0.40     2000.00
02673              -0.20     2000.00
02674              -0.20     1800.00
02675              -0.40     1600.00
02676              -0.40     1400.00
02677              -0.40     1200.00
02678              -0.20     1000.00
02679              -0.60      800.00
02680              -0.40      600.00
02681              -0.40      600.00
02682              -0.40      400.00
02683              -0.40      400.00
02684              -0.60        0.00
02685              -0.60        0.00
02686               0.40     -200.00
02687               0.40     -400.00
02688               0.60     -600.00
02689              -0.40     -600.00
02690              -0.60     -800.00
02691               0.20     -800.00
02692              -0.40    -1200.00
02693              -1.00    -1200.00
02694               4.20    -1600.00
02695              25.00    -1800.00
02696              -9.20    -2000.00
02697             -25.00    -2400.00
02698             -23.60    -2200.00
02699              25.00    -2000.00
02700              25.00    -2400.00
02701             -25.00    -2800.00
02702             -25.00    -2400.00
02703              25.00    -3000.00
02704              25.00    -3400.00
02705             -25.00    -3000.00
02706              25.00    -3400.00
02707              25.00    -3600.00
02708             -25.00    -3400.00
02709             -25.00    -3600.00
02710              25.00    -4200.00
02711             -25.00    -4000.00
02712             -25.00    -4400.00
02713              25.00    -4400.00
02714             -25.00    -4600.00
02715             -18.60    -4800.00
02716             -10.20    -4600.00
02717              25.00    -5000.00
02718              24.40    -5200.00
02719             -25.00    -5400.00
02720              25.00    -5600.00
02721              25.00    -5600.00
02722             -25.00    -5600.00
02723               6.00    -6000.00
02724              25.00    -6000.00
02725             -25.00    -6200.00
02726             -25.00    -6400.00
02727              25.00    -6400.00
02728              22.40    -6600.00
02729             -25.00    -6800.00
02730               7.00    -6800.00
02731              25.00    -7000.00
02732             -25.00    -7000.00
02733              -5.60    -7400.00
02734              25.00    -7200.00
02735             -11.00    -7400.00
02736             -14.20    -7600.00
02737               9.60    -7600.00
02738              10.60    -7800.00
02739             -15.80    -8000.00
02740               1.00    -8000.00
02741              13.20    -8200.00
02742             -12.20    -8200.00
02743              -2.60    -8400.00
02744               8.80    -8400.00
02745              -2.40    -8400.00
02746              -9.00    -8400.00
02747               7.40    -8400.00
02748               6.60    -8800.00
02749             -14.20    -8800.00
02750               4.20    -8800.00
02751               9.60    -9000.00
02752             -12.20    -9000.00
02753              -1.20    -9200.00
02754              10.80    -9200.00
02755              -4.60    -9200.00
02756              -8.60    -9200.00
02757               8.80    -9400.00
02758               2.20    -9600.00
02759             -11.60    -9400.00
02760               3.60    -9600.00
02761               7.60    -9600.00
02762              -7.00    -9600.00
02763              -2.60    -9600.00
02764               6.60    -9600.00
02765              -1.60    -9800.00
02766              -6.00    -9800.00
02767               2.80    -9800.00
02768               3.00   -10000.00
02769              -4.40    -9800.00
02770              -1.20    -9800.00
02771               4.20   -10000.00
02772              -1.20   -10000.00
02773              -4.40   -10000.00
02774               2.40   -10000.00
02775               2.00   -10000.00
02776              -3.60   -10000.00
02777               0.20   -10000.00
02778               2.60   -10000.00
02779              -2.00   -10000.00
02780              -1.40   -10000.00
02781               1.80   -10000.00
02782              -0.20   -10000.00
02783              -1.20   -10000.00
02784               0.20   -10000.00
02785              -0.20   -10000.00
02786              -0.80   -10000.00
02787               0.20   -10000.00
02788              -0.20   -10000.00
02789              -0.40    -9800.00
02790               0.40   -10000.00
02791              -0.60   -10000.00
02792              -0.40    -9800.00
02793              -0.40    -9800.00
02794              -0.20    -9800.00
02795               0.00    -9800.00
02796              -0.40    -9600.00
02797               0.20    -9800.00
02798              -0.20    -9600.00
02799              -1.00    -9800.00
02800               0.00    -9400.00
02801               0.20    -9600.00
02802              -0.40    -9600.00
02803              -0.60    -9400.00
02804               0.40    -9200.00
02805              -0.60    -9200.00
02806              -1.20    -9200.00
02807               0.40    -9000.00
02808               0.20    -9000.00
02809              -1.20    -9000.00
02810              -0.20    -8800.00
02811               0.20    -8800.00
02812              -0.80    -8600.00
02813              -1.00    -8800.00
02814               0.60    -8400.00
02815               0.00    -8400.00
02816              -1.40    -8400.00
02817              -0.40    -8200.00
02818               0.40    -8200.00
02819              -0.60    -8200.00
02820              -1.40    -8200.00
02821               0.60    -8000.00
02822               0.20    -8000.00
02823              -1.80    -7600.00
02824              -0.40    -7600.00
02825               0.60    -7400.00
02826              -1.20    -7200.00
02827              -1.00    -7400.00
02828               1.00    -7200.00
02829              -0.20    -7000.00
02830              -1.20    -6800.00
02831              -0.20    -6800.00
02832              -0.60    -6600.00
02833              -0.40    -6400.00
02834              -0.20    -6400.00
02835              -0.40    -6400.00
02836              -0.20    -6200.00
02837              -0.60    -6000.00
02838              -1.00    -6000.00
02839               0.40    -5800.00
02840              -0.20    -5600.00
02841              -1.00    -5600.00
02842               0.40    -5200.00
02843               0.20    -5200.00
02844              -1.00    -5000.00
02845              -0.60    -4800.00
02846               1.00    -4600.00
02847              -1.00    -4600.00
02848              -1.20    -4400.00
02849               1.00    -4200.00
02850              -0.20    -4200.00
02851              -2.00    -4000.00
02852               0.40    -3800.00
02853               1.00    -3800.00
02854              -1.20    -3400.00
02855              -0.40    -3400.00
02856               1.00    -3400.00
02857              -0.60    -3200.00
02858              -1.40    -2800.00
02859               0.40    -2600.00
02860               0.00    -2600.00
02861              -0.60    -2400.00
02862              -0.20    -2200.00
02863              -0.20    -2000.00
02864              -0.40    -2000.00
02865              -0.40    -1800.00
02866              -0.40    -1600.00
02867              -0.40    -1600.00
02868              -0.20    -1200.00
02869              -0.20    -1200.00
02870              -0.60    -1000.00
02871              -0.40     -800.00
02872              -0.20     -800.00
02873              -0.60     -400.00
02874              -0.60     -200.00
02875              -0.20     -200.00
02876              -0.40        0.00
02877               0.20        0.00
02878               0.80      400.00
02879               1.20      400.00
02880              -1.20      600.00
02881              -0.60      600.00
02882               0.40      800.00
02883              -0.40     1000.00
02884              -0.60     1200.00
02885               3.40     1400.00
02886              14.20     1800.00
02887               8.60     2000.00
02888             -25.00     2000.00
02889             -25.00     2000.00
02890              -1.20     2000.00
02891              25.00     2400.00
02892              11.60     2600.00
02893             -25.00     2400.00
02894              25.00     3000.00
02895              25.00     3000.00
02896             -25.00     3000.00
02897             -25.00     3400.00
02898              25.00     3400.00
02899              -7.00     3600.00
02900             -25.00     4000.00
02901              25.00     3800.00
02902              24.40     4000.00
02903             -25.00     4400.00
02904              25.00     4400.00
02905              25.00     4400.00
02906             -25.00     4800.00
02907             -25.00     5000.00
02908              25.00     4800.00
02909              25.00     5200.00
02910             -25.00     5400.00
02911             -15.00     5400.00
02912              25.00     5600.00
02913             -11.00     5800.00
02914             -25.00     6000.00
02915              25.00     6000.00
02916              25.00     6200.00
02917             -25.00     6400.00
02918              -3.60     6400.00
02919              25.00     6400.00
02920             -19.20     6800.00
02921             -25.00     6800.00
02922              25.00     6800.00
02923               1.20     7200.00
02924             -25.00     7000.00
02925              15.80     7200.00
02926              16.40     7200.00
02927             -20.40     7600.00
02928              -4.60     7600.00
02929              16.80     7800.00
02930              -4.00     7800.00
02931             -10.80     8000.00
02932               8.40     7800.00
02933               5.40     8200.00
02934             -10.20     8400.00
02935               0.20     8400.00
02936               8.60     8400.00
02937              -6.60     8600.00
02938              -5.20     8600.00
02939              10.00     8600.00
02940              -1.20     8800.00
02941              -9.20     8800.00
02942               6.60     8800.00
02943               3.00     9000.00
02944              -9.00     9000.00
02945               2.20     9200.00
02946               6.80     9200.00
02947              -6.60     9200.00
02948              -2.20     9400.00
02949               6.60     9400.00
02950              -3.00     9200.00
02951              -4.40     9400.00
02952               4.60     9600.00
02953               1.60     9400.00
02954              -4.40     9600.00
02955               0.20     9600.00
02956               2.60     9600.00
02957              -2.20     9800.00
02958              -2.60     9800.00
02959               2.60    10000.00
02960               1.20    10000.00
02961              -3.60    10000.00
02962               0.40    10000.00
02963               2.60    10000.00
02964              -3.00    10000.00
02965              -0.80    10000.00
02966               2.80    10000.00
02967              -1.00    10000.00
02968              -2.00    10200.00
02969               1.80    10000.00
02970               0.00    10000.00
02971              -2.00    10000.00
02972               0.20    10000.00
02973               1.00    10000.00
02974              -0.60    10000.00
02975              -0.60    10000.00
02976               0.20    10000.00
02977               0.20    10000.00
02978               0.20    10000.00
02979              -0.60    10000.00
02980               0.20    10000.00
02981               0.60     9600.00
02982              -0.60    10000.00
02983              -0.60     9800.00
02984               0.40     9800.00
02985              -0.40     9600.00
02986              -0.20     9600.00
02987               0.40     9600.00
02988               0.20     9600.00
02989              -0.20     9600.00
02990              -0.20     9600.00
02991              -0.60     9600.00
02992              -0.20     9400.00
02993               0.20     9400.00
02994              -0.40     9200.00
02995              -0.20     9200.00
02996               1.20     9200.00
02997              -1.00     9200.00
02998              -0.40     9200.00
02999               0.40     9000.00
03000              -0.40     8800.00
03001              -1.20     8800.00
03002               0.20     8800.00
03003              -0.20     8800.00
03004              -1.00     8600.00
03005              -0.40     8400.00
03006               0.40     8400.00
03007              -0.40     8400.00
03008              -0.40     8200.00
03009              -0.20     8200.00
03010              -0.20     8200.00
03011              -0.60     8000.00
03012              -0.40     7800.00
03013               0.20     7600.00
03014              -0.20     7600.00
03015              -1.00     7600.00
03016              -0.20     7200.00
03017              -0.40     7200.00
03018              -1.00     7200.00
03019              -0.20     7000.00
03020               0.20     6800.00
03021              -0.60     6800.00
03022              -0.60     6600.00
03023              -0.20     6600.00
03024              -0.20     6400.00
03025              -1.00     6400.00
03026              -0.20     6200.00
03027               0.20     6000.00
03028              -0.40     6000.00
03029              -0.40     6000.00
03030               0.00     5600.00
03031              -0.20     5600.00
03032              -1.00     5200.00
03033              -0.20     5200.00
03034               0.20     5000.00
03035              -0.60     4800.00
03036              -0.60     4800.00
03037              -0.20     4600.00
03038              -0.20     4400.00
03039              -0.40     4400.00
03040              -0.20     4200.00
03041              -0.20     4000.00
03042              -0.40     3800.00
03043              -0.20     3600.00
03044              -0.20     3600.00
03045              -0.40     3400.00
03046              -0.40     3200.00
03047              -0.20     3200.00
03048              -0.40     3000.00
03049              -0.40     2800.00
03050              -0.20     2800.00
03051              -0.40     2400.00
03052              -0.40     2400.00
03053              -0.20     2200.00
03054              -0.20     2000.00
03055              -0.20     2000.00
03056               0.00     1800.00
03057              -0.40     1600.00
03058              -0.20     1400.00
03059               0.00     1200.00
03060               0.20      800.00
03061              -0.60      800.00
03062              -0.20      600.00
03063               0.00      600.00
03064              -0.40      400.00
03065              -0.60      200.00
03066               0.40        0.00
03067              -0.40     -200.00
03068              -0.20     -400.00
03069               1.00     -400.00
03070               0.40     -400.00
03071              -1.20     -800.00
03072              -0.40     -800.00
03073               0.20    -1000.00
03074              -0.40    -1200.00
03075              -0.40    -1400.00
03076               7.60    -1600.00
03077              25.00    -2000.00
03078             -23.80    -2000.00
03079             -25.00    -2400.00
03080             -16.80    -2000.00
03081              25.00    -2000.00
03082              25.00    -2800.00
03083             -25.00    -2800.00
03084               2.60    -2600.00
03085              25.00    -3200.00
03086             -15.80    -3400.00
03087             -25.00    -2800.00
03088              25.00    -3600.00
03089              25.00    -3600.00
03090             -25.00    -3400.00
03091              25.00    -4200.00
03092              25.00    -4000.00
03093             -25.00    -4200.00
03094              23.80    -4400.00
03095              25.00    -4400.00
03096             -25.00    -4400.00
03097             -12.40    -4800.00
03098              -6.60    -4800.00
03099              25.00    -5000.00
03100             -10.00    -5200.00
03101             -25.00    -5200.00
03102              25.00    -5600.00
03103              25.00    -5600.00
03104             -25.00    -5800.00
03105              25.00    -6000.00
03106              25.00    -6000.00
03107             -25.00    -6400.00
03108             -18.00    -6400.00
03109              25.00    -6400.00
03110               4.20    -6600.00
03111             -25.00    -6800.00
03112              25.00    -7000.00
03113              24.00    -7000.00
03114             -25.00    -7000.00
03115              10.60    -7200.00
03116              22.20    -7200.00
03117             -17.40    -7400.00
03118              -9.20    -7600.00
03119              14.80    -7600.00
03120               3.40    -8000.00
03121             -17.20    -8000.00
03122               9.40    -8000.00
03123               8.00    -8000.00
03124             -14.00    -8200.00
03125               2.60    -8400.00
03126               7.60    -8400.00
03127              -5.80    -8400.00
03128              -6.60    -8800.00
03129              10.60    -8400.00
03130               0.40    -8800.00
03131             -13.00    -8800.00
03132               9.40    -9000.00
03133               4.00    -9000.00
03134             -12.40    -9000.00
03135               3.40    -9200.00
03136               9.00    -9200.00
03137              -8.00    -9400.00
03138              -4.80    -9400.00
03139              10.20    -9600.00
03140              -3.00    -9400.00
03141              -9.20    -9600.00
03142               6.80    -9600.00
03143               3.00    -9600.00
03144              -7.60    -9600.00
03145               0.80    -9600.00
03146               5.20    -9800.00
03147              -3.80    -9800.00
03148              -4.20    -9800.00
03149               4.20   -10000.00
03150               1.40   -10000.00
03151              -5.00    -9800.00
03152               0.40   -10000.00
03153               3.40   -10000.00
03154              -3.40   -10000.00
03155              -2.80   -10000.00
03156               3.40   -10000.00
03157               0.40   -10000.00
03158              -3.60   -10000.00
03159               0.80   -10000.00
03160               1.80   -10000.00
03161              -2.20   -10000.00
03162              -1.20   -10000.00
03163               1.60   -10000.00
03164              -0.40   -10000.00
03165              -1.40   -10000.00
03166               0.20   -10000.00
03167              -0.20   -10000.00
03168              -1.20   -10000.00
03169              -0.40   -10000.00
03170               0.60   -10000.00
03171              -0.60   -10000.00
03172              -0.60   -10000.00
03173               0.20   -10000.00
03174              -0.40   -10000.00
03175              -1.00    -9800.00
03176               0.20    -9800.00
03177               0.20    -9800.00
03178              -0.60    -9800.00
03179              -0.40    -9800.00
03180              -0.20    -9800.00
03181              -0.20    -9600.00
03182              -0.40    -9600.00
03183              -0.40    -9400.00
03184               0.00    -9400.00
03185              -0.60    -9400.00
03186               0.20    -9200.00
03187              -1.00    -9200.00
03188              -0.60    -9200.00
03189               0.40    -9200.00
03190              -0.60    -9200.00
03191              -0.60    -9000.00
03192               0.40    -8800.00
03193              -0.20    -8800.00
03194              -1.00    -8800.00
03195              -0.40    -8800.00
03196               0.40    -8600.00
03197              -0.40    -8400.00
03198              -1.00    -8400.00
03199              -0.20    -8400.00
03200              -0.20    -8200.00
03201              -1.20    -8000.00
03202              -0.60    -8000.00
03203               0.40    -8000.00
03204              -0.60    -7800.00
03205              -1.40    -7600.00
03206               0.20    -7600.00
03207              -0.40    -7400.00
03208              -1.40    -7200.00
03209              -0.20    -7200.00
03210               0.00    -7200.00
03211              -1.00    -7000.00
03212              -0.20    -6800.00
03213               0.20    -6800.00
03214              -2.00    -6600.00
03215               0.20    -6400.00
03216              -0.40    -6400.00
03217              -0.60    -6200.00
03218              -0.20    -6000.00
03219              -0.60    -6000.00
03220              -1.20    -5800.00
03221               0.40    -5800.00
03222              -0.60    -5600.00
03223              -1.00    -5600.00
03224               0.40    -5200.00
03225              -0.40    -5200.00
03226              -1.20    -5000.00
03227               0.40    -4600.00
03228              -0.40    -4800.00
03229              -1.00    -4600.00
03230               0.20    -4400.00
03231               0.20    -4200.00
03232              -1.00    -4400.00
03233              -0.40    -4000.00
03234               0.20    -3800.00
03235              -1.20    -3600.00
03236               0.20    -3400.00
03237              -0.20    -3200.00
03238              -1.00    -3200.00
03239               0.40    -3000.00
03240              -0.20    -2800.00
03241              -0.60    -2800.00
03242               0.00    -2600.00
03243               0.20    -2400.00
03244              -0.60    -2400.00
03245              -0.60    -2200.00
03246               0.00    -2000.00
03247              -0.60    -1800.00
03248              -0.60    -1600.00
03249              -0.20    -1200.00
03250               0.40    -1200.00
03251              -0.40    -1200.00
03252              -0.60    -1000.00
03253               0.20     -800.00
03254              -0.20     -600.00
03255              -1.00     -400.00
03256               0.20     -200.00
03257              -0.20        0.00
03258              -0.40        0.00
03259               0.40      200.00
03260               1.00      400.00
03261               0.20      400.00
03262              -1.20      600.00
03263              -0.20      800.00
03264               0.60      800.00
03265              -1.00     1200.00
03266               0.00     1200.00
03267               5.20     1400.00
03268              16.20     1800.00
03269              -0.80     2000.00
03270             -25.00     2000.00
03271             -21.40     2000.00
03272              12.40     2200.00
03273              25.00     2400.00
03274             -21.40     2600.00
03275             -25.00     2600.00
03276              25.00     3000.00
03277              25.00     3000.00
03278             -25.00     3000.00
03279               2.60     3600.00
03280              25.00     3400.00
03281             -25.00     3600.00
03282             -25.00     4000.00
03283              25.00     3800.00
03284             -25.00     4000.00
03285             -25.00     4400.00
03286              25.00     4400.00
03287              19.60     4400.00
03288             -25.00     4800.00
03289              -8.60     4800.00
03290              25.00     5000.00
03291              13.20     5200.00
03292             -25.00     5400.00
03293               6.20     5400.00
03294              25.00     5600.00
03295             -25.00     6000.00
03296             -25.00     6000.00
03297              25.00     6200.00
03298               9.00     6400.00
03299             -25.00     6200.00
03300              14.40     6400.00
03301              25.00     6600.00
03302             -25.00     6800.00
03303              -8.20     6800.00
03304              25.00     7000.00
03305             -14.20     7200.00
03306             -21.80     7200.00
03307              23.40     7200.00
03308               5.80     7600.00
03309             -22.00     7600.00
03310               3.80     7600.00
03311              15.40     7800.00
03312             -10.00     8000.00
03313              -6.80     7800.00
03314              11.40     8200.00
03315              -0.60     8200.00
03316              -9.80     8400.00
03317               4.60     8400.00
03318               6.20     8400.00
03319              -9.40     8400.00
03320              -0.60     8600.00
03321              10.00     8600.00
03322              -5.40     8800.00
03323              -6.20     8800.00
03324               9.00     8800.00
03325              -0.60     9200.00
03326              -8.40     9200.00
03327               5.80     9200.00
03328               3.60     9200.00
03329              -7.80     9200.00
03330               1.20     9400.00
03331               5.20     9400.00
03332              -5.80     9400.00
03333              -2.00     9600.00
03334               5.40     9600.00
03335              -1.20     9600.00
03336              -3.80     9600.00
03337               2.20     9600.00
03338               1.40     9800.00
03339              -3.60     9800.00
03340              -1.00     9800.00
03341               3.00    10000.00
03342              -0.60    10000.00
03343              -3.60    10000.00
03344               2.00    10000.00
03345               1.80    10000.00
03346              -4.20    10000.00
03347               0.20    10000.00
03348               3.00    10000.00
03349              -2.20    10000.00
03350              -1.80    10000.00
03351               2.20    10200.00
03352              -0.40    10000.00
03353              -2.40    10000.00
03354               0.60    10000.00
03355               1.20    10000.00
03356              -1.40    10000.00
03357              -0.60    10000.00
03358               1.00    10000.00
03359              -0.40    10000.00
03360              -1.00    10000.00
03361               0.40    10000.00
03362               0.40     9800.00
03363              -0.60    10000.00
03364              -0.20    10000.00
03365               0.20     9600.00
03366              -0.40    10000.00
03367              -0.60     9800.00
03368               0.20     9800.00
03369               0.20     9600.00
03370              -0.40     9600.00
03371              -0.40     9600.00
03372               0.20     9600.00
03373              -0.40     9400.00
03374              -0.20     9400.00
03375              -0.60     9400.00
03376              -0.40     9200.00
03377               0.20     9200.00
03378               0.40     9200.00
03379              -1.00     9000.00
03380               0.40     8800.00
03381               0.20     9000.00
03382              -0.60     8800.00
03383               0.00     8800.00
03384               0.40     8800.00
03385              -0.80     8600.00
03386              -0.20     8600.00
03387               0.00     8400.00
03388              -0.20     8400.00
03389              -0.20     8200.00
03390              -0.60     8200.00
03391              -0.40     8200.00
03392               0.20     7800.00
03393              -0.60     8000.00
03394              -0.60     7800.00
03395               0.20     7800.00
03396              -0.60     7600.00
03397              -0.80     7400.00
03398               0.40     7200.00
03399              -0.60     7200.00
03400              -1.00     7000.00
03401              -0.20     7000.00
03402              -0.20     6800.00
03403              -1.00     6800.00
03404              -0.60     6800.00
03405               0.20     6600.00
03406              -0.60     6400.00
03407              -0.80     6200.00
03408               0.20     6000.00
03409              -0.40     6000.00
03410              -0.60     6000.00
03411              -0.40     5800.00
03412               0.00     5600.00
03413              -0.80     5400.00
03414              -0.40     5400.00
03415              -0.40     5000.00
03416              -0.20     5200.00
03417              -0.60     4800.00
03418              -0.60     4800.00
03419               0.00     4600.00
03420              -0.20     4400.00
03421              -0.60     4200.00
03422              -0.20     4000.00
03423               0.20     4000.00
03424              -0.80     3800.00
03425              -0.60     3800.00
03426               0.20     3600.00
03427              -0.60     3400.00
03428              -0.60     3200.00
03429               0.20     3200.00
03430              -0.20     2800.00
03431              -0.60     2800.00
03432              -0.60     2600.00
03433               0.00     2400.00
03434              -0.40     2000.00
03435              -0.60     2200.00
03436               0.20     2000.00
03437              -0.20     2000.00
03438              -0.60     1600.00
03439               0.00     1600.00
03440              -0.40     1400.00
03441               0.20     1000.00
03442              -0.20     1200.00
03443              -0.40      800.00
03444               0.20      600.00
03445              -0.20      600.00
03446              -0.60      200.00
03447               0.20      400.00
03448              -0.20        0.00
03449              -0.60        0.00
03450               0.60     -200.00
03451               1.00     -400.00
03452               0.00     -600.00
03453              -0.40     -800.00
03454              -0.20     -800.00
03455               0.20    -1000.00
03456              -0.40    -1200.00
03457               0.20    -1200.00
03458              13.40    -1400.00
03459              20.00    -2000.00
03460             -25.00    -2200.00
03461             -25.00    -2400.00
03462               1.40    -1800.00
03463              25.00    -2200.00
03464               6.40    -2800.00
03465             -25.00    -2600.00
03466              25.00    -2600.00
03467              25.00    -3200.00
03468             -25.00    -3400.00
03469             -25.00    -3000.00
03470              25.00    -3800.00
03471              25.00    -3600.00
03472             -25.00    -3400.00
03473              25.00    -4200.00
03474              25.00    -4000.00
03475             -25.00    -4200.00
03476              25.00    -4600.00
03477              21.40    -4400.00
03478             -25.00    -4800.00
03479             -12.20    -4800.00
03480               4.80    -5000.00
03481              25.00    -5200.00
03482             -25.00    -5200.00
03483             -25.00    -5200.00
03484              25.00    -5800.00
03485             -22.00    -5600.00
03486             -25.00    -6000.00
03487              25.00    -6000.00
03488              18.00    -6000.00
03489             -25.00    -6400.00
03490              -1.40    -6400.00
03491              25.00    -6600.00
03492             -17.40    -6600.00
03493             -25.00    -6800.00
03494              25.00    -7000.00
03495               1.20    -6800.00
03496             -25.00    -7200.00
03497              23.80    -7400.00
03498              11.00    -7400.00
03499             -20.40    -7400.00
03500              -2.40    -7600.00
03501              16.80    -7600.00
03502              -5.00    -7800.00
03503             -13.40    -8000.00
03504              15.20    -8200.00
03505               0.20    -8200.00
03506             -12.20    -8200.00
03507               6.80    -8400.00
03508               4.60    -8400.00
03509              -8.40    -8400.00
03510              -2.60    -8400.00
03511              12.20    -8600.00
03512              -6.00    -8800.00
03513              -9.00    -8800.00
03514              13.20    -9000.00
03515              -2.40    -9000.00
03516             -10.60    -9000.00
03517               7.80    -9200.00
03518               5.40    -9000.00
03519             -10.20    -9200.00
03520               0.20    -9400.00
03521               9.40    -9600.00
03522              -7.60    -9600.00
03523              -5.40    -9600.00
03524               9.00    -9600.00
03525              -0.60    -9600.00
03526              -7.40    -9800.00
03527               3.00    -9800.00
03528               3.80    -9800.00
03529              -5.80    -9800.00
03530              -2.20    -9800.00
03531               5.20   -10000.00
03532              -0.60    -9800.00
03533              -5.00   -10000.00
03534               2.20   -10000.00
03535               2.20   -10000.00
03536              -4.40   -10000.00
03537              -1.40   -10000.00
03538               3.60   -10000.00
03539              -1.20   -10000.00
03540              -3.40   -10000.00
03541               1.80   -10000.00
03542               0.40   -10000.00
03543              -2.80   -10000.00
03544               0.00   -10000.00
03545               1.20   -10000.00
03546              -1.20   -10000.00
03547              -1.40   -10000.00
03548               1.20   -10000.00
03549              -0.60   -10000.00
03550              -1.40   -10000.00
03551               0.40   -10000.00
03552               0.60   -10000.00
03553              -1.00    -9800.00
03554              -1.00   -10000.00
03555               0.20    -9800.00
03556              -0.40   -10000.00
03557              -1.20    -9800.00
03558               0.20    -9800.00
03559               0.40    -9800.00
03560              -0.60    -9600.00
03561              -0.60    -9800.00
03562              -0.20    -9600.00
03563              -0.20    -9600.00
03564              -0.40    -9600.00
03565              -0.60    -9600.00
03566              -0.20    -9600.00
03567               0.20    -9400.00
03568              -0.60    -9200.00
03569              -1.00    -9200.00
03570               0.40    -9200.00
03571              -0.20    -9200.00
03572              -1.00    -9000.00
03573              -0.20    -9000.00
03574               0.20    -8800.00
03575              -0.60    -8800.00
03576              -0.60    -8600.00
03577               0.20    -8800.00
03578               0.20    -8400.00
03579              -0.60    -8400.00
03580              -0.60    -8400.00
03581               0.40    -8400.00
03582              -0.40    -8200.00
03583              -1.20    -8000.00
03584               0.40    -8000.00
03585               0.40    -8000.00
03586              -1.20    -7800.00
03587              -0.60    -7600.00
03588               0.00    -7600.00
03589              -0.40    -7400.00
03590              -1.20    -7400.00
03591               0.20    -7200.00
03592              -0.20    -7200.00
03593              -1.00    -7000.00
03594              -0.40    -6800.00
03595               0.20    -6800.00
03596              -0.60    -6600.00
03597              -0.40    -6400.00
03598              -1.20    -6200.00
03599               0.20    -6400.00
03600              -0.40    -6000.00
03601              -1.20    -6000.00
03602              -0.60    -6000.00
03603               0.20    -5600.00
03604              -1.20    -5600.00
03605              -0.20    -5600.00
03606               0.40    -5200.00
03607              -0.80    -5000.00
03608              -1.00    -4800.00
03609               0.20    -4600.00
03610              -0.60    -4600.00
03611              -1.00    -4600.00
03612               0.00    -4400.00
03613               0.00    -4200.00
03614              -0.60    -4000.00
03615              -0.60    -4000.00
03616              -0.40    -3800.00
03617              -0.40    -3600.00
03618              -0.60    -3400.00
03619              -0.40    -3400.00
03620              -0.20    -3200.00
03621              -0.40    -2800.00
03622              -0.60    -2800.00
03623              -0.20    -2600.00
03624              -0.20    -2400.00
03625              -0.20    -2400.00
03626              -0.60    -2200.00
03627              -0.20    -2000.00
03628               0.00    -2000.00
03629              -1.00    -1800.00
03630              -0.40    -1600.00
03631               0.20    -1400.00
03632              -0.40    -1200.00
03633              -0.40    -1000.00
03634              -0.40    -1000.00
03635              -0.40     -800.00
03636              -0.40     -600.00
03637              -0.40     -200.00
03638               0.20     -200.00
03639              -0.20     -200.00
03640              -0.40        0.00
03641               1.00      400.00
03642               1.20      400.00
03643              -0.60      600.00
03644              -0.40      600.00
03645               0.60      800.00
03646               0.20     1200.00
03647              -0.60     1200.00
03648               1.20     1400.00
03649               7.60     1400.00
03650              17.00     1800.00
03651             -12.20     2000.00
03652             -25.00     2200.00
03653             -16.00     2000.00
03654              25.00     2400.00
03655              25.00     2600.00
03656             -25.00     2600.00
03657             -25.00     2800.00
03658              25.00     3000.00
03659              25.00     3000.00
03660             -25.00     3200.00
03661              25.00     3400.00
03662              25.00     3400.00
03663             -25.00     3600.00
03664              14.20     4000.00
03665              25.00     3800.00
03666             -25.00     4200.00
03667             -25.00     4400.00
03668              25.00     4200.00
03669              -5.20     4600.00
03670             -25.00     4800.00
03671               6.20     5000.00
03672              25.00     5200.00
03673              -8.80     5200.00
03674             -25.00     5400.00
03675              25.00     5400.00
03676              25.00     5600.00
03677             -25.00     5800.00
03678             -10.00     6000.00
03679              25.00     6200.00
03680             -11.00     6200.00
03681             -25.00     6200.00
03682              25.00     6400.00
03683              15.00     6600.00
03684             -25.00     6600.00
03685              11.00     7000.00
03686              25.00     6800.00
03687             -25.00     7000.00
03688              -8.80     7200.00
03689              25.00     7200.00
03690              -6.00     7600.00
03691             -18.60     7600.00
03692              11.60     7800.00
03693               9.80     7800.00
03694             -13.40     8000.00
03695              -0.60     8000.00
03696              11.40     8000.00
03697              -5.20     8400.00
03698              -7.40     8400.00
03699               7.80     8400.00
03700               2.60     8400.00
03701             -10.20     8400.00
03702               4.60     8600.00
03703               7.60     8600.00
03704              -9.20     8800.00
03705              -1.40     8800.00
03706               8.40     8800.00
03707              -4.40     9200.00
03708              -5.80     9200.00
03709               7.80     9000.00
03710               0.20     9200.00
03711              -7.00     9200.00
03712               4.60     9400.00
03713               2.60     9400.00
03714              -6.20     9600.00
03715               1.00     9600.00
03716               4.60     9600.00
03717              -2.80     9400.00
03718              -2.80     9600.00
03719               3.40     9600.00
03720               0.40     9800.00
03721              -3.80     9600.00
03722               0.60     9800.00
03723               2.80     9800.00
03724              -2.00    10000.00
03725              -2.20     9800.00
03726               2.60    10000.00
03727               0.00    10000.00
03728              -3.80    10000.00
03729               1.20    10000.00
03730               2.20    10000.00
03731              -2.80    10000.00
03732              -1.00    10000.00
03733               2.20    10000.00
03734              -1.00    10000.00
03735              -2.20    10000.00
03736               1.20    10000.00
03737               0.60    10000.00
03738              -1.80    10000.00
03739              -0.60    10000.00
03740               0.60    10000.00
03741              -0.60     9800.00
03742              -1.00    10000.00
03743               0.20    10000.00
03744               0.60     9800.00
03745              -1.00    10000.00
03746              -0.60    10000.00
03747               0.40     9800.00
03748              -0.40     9600.00
03749              -0.40     9800.00
03750               0.00     9600.00
03751              -0.20     9800.00
03752              -0.40     9600.00
03753              -0.40     9600.00
03754              -0.20     9600.00
03755               0.20     9600.00
03756               0.40     9400.00
03757              -0.60     9200.00
03758              -1.00     9400.00
03759               0.00     9200.00
03760               0.20     9200.00
03761              -0.60     9200.00
03762               0.40     9200.00
03763               0.20     8800.00
03764              -0.60     8800.00
03765              -0.20     8800.00
03766               0.20     8800.00
03767              -0.40     8600.00
03768              -0.40     8400.00
03769               0.20     8400.00
03770               0.20     8400.00
03771              -0.60     8200.00
03772              -0.60     8200.00
03773               0.40     8200.00
03774              -0.20     8000.00
03775              -1.00     8000.00
03776               0.40     7800.00
03777               0.40     7600.00
03778              -1.20     7600.00
03779               0.20     7400.00
03780               0.40     7200.00
03781              -1.20     7200.00
03782              -0.60     7000.00
03783               0.40     7000.00
03784              -0.40     6800.00
03785              -1.20     6800.00
03786              -0.20     6600.00
03787              -0.20     6400.00
03788              -1.20     6400.00
03789              -0.40     6200.00
03790               0.40     6000.00
03791              -0.40     6000.00
03792              -1.20     6000.00
03793              -0.20     5800.00
03794               0.20     5600.00
03795              -1.20     5400.00
03796              -0.60     5200.00
03797               0.40     5000.00
03798              -0.20     5200.00
03799              -1.20     4800.00
03800              -0.20     4600.00
03801               0.20     4600.00
03802              -1.00     4400.00
03803              -0.60     4200.00
03804               0.20     4000.00
03805              -0.40     4000.00
03806              -0.60     3800.00
03807              -0.40     3600.00
03808               0.00     3600.00
03809              -0.40     3200.00
03810              -0.20     3200.00
03811              -0.20     3000.00
03812              -0.40     3000.00
03813              -0.20     2800.00
03814              -0.40     2800.00
03815              -0.60     2400.00
03816              -0.40     2400.00
03817              -0.20     2000.00
03818              -0.60     2000.00
03819              -0.20     1800.00
03820               0.00     1800.00
03821              -0.40     1400.00
03822              -0.20     1200.00
03823               0.20     1000.00
03824              -0.40     1000.00
03825              -0.60      800.00
03826              -0.20      600.00
03827              -0.20      400.00
03828              -0.20      400.00
03829              -0.40      200.00
03830              -0.20     -200.00
03831               0.20     -200.00
03832               0.60     -400.00
03833               0.60     -400.00
03834               0.20     -600.00
03835              -0.40     -800.00
03836              -0.20     -800.00
03837               0.40    -1000.00
03838              -0.80    -1200.00
03839               1.40    -1200.00
03840              20.80    -1600.00
03841               6.80    -2000.00
03842             -25.00    -2200.00
03843             -25.00    -2400.00
03844              25.00    -2000.00
03845              25.00    -2400.00
03846             -25.00    -2800.00
03847             -25.00    -2200.00
03848              25.00    -3000.00
03849              25.00    -3200.00
03850             -25.00    -3200.00
03851             -15.80    -3400.00
03852              25.00    -3600.00
03853             -25.00    -3400.00
03854             -25.00    -3600.00
03855              25.00    -4200.00
03856              13.80    -4000.00
03857             -25.00    -4200.00
03858              25.00    -4800.00
03859             -14.60    -4400.00
03860             -25.00    -4800.00
03861             -11.00    -4800.00
03862              23.40    -5000.00
03863              25.00    -5200.00
03864             -25.00    -5200.00
03865               0.60    -5600.00
03866              25.00    -5800.00
03867             -25.00    -5600.00
03868             -25.00    -6000.00
03869              25.00    -6000.00
03870              -7.60    -6200.00
03871             -25.00    -6400.00
03872              15.60    -6400.00
03873              25.00    -6600.00
03874             -25.00    -6600.00
03875             -16.40    -6800.00
03876              25.00    -7000.00
03877             -20.60    -7000.00
03878             -23.00    -7200.00
03879              25.00    -7200.00
03880              -0.60    -7400.00
03881             -19.40    -7600.00
03882               4.20    -7600.00
03883              15.60    -7800.00
03884             -12.40    -7800.00
03885              -7.00    -8000.00
03886              17.00    -8200.00
03887              -7.40    -8200.00
03888              -7.60    -8200.00
03889               8.80    -8400.00
03890               1.00    -8400.00
03891              -9.20    -8400.00
03892               2.60    -8600.00
03893              10.60    -8800.00
03894             -11.40    -8800.00
03895              -2.60    -8800.00
03896              12.80    -9000.00
03897              -8.20    -9000.00
03898              -6.60    -9200.00
03899              10.20    -9200.00
03900               0.40    -9200.00
03901             -10.20    -9200.00
03902               5.00    -9200.00
03903               6.80    -9400.00
03904             -10.60    -9600.00
03905              -0.40    -9600.00
03906               9.00    -9600.00
03907              -4.40    -9600.00
03908              -4.80    -9600.00
03909               5.20    -9800.00
03910               1.00    -9800.00
03911              -6.20    -9800.00
03912               0.40    -9800.00
03913               4.40    -9800.00
03914              -3.20    -9800.00
03915              -3.00    -9800.00
03916               3.60   -10000.00
03917              -0.20   -10000.00
03918              -4.20   -10000.00
03919               0.80   -10000.00
03920               2.80   -10000.00
03921              -2.60   -10000.00
03922              -1.80   -10000.00
03923               2.00   -10000.00
03924              -0.60   -10000.00
03925              -2.20   -10000.00
03926               0.40   -10000.00
03927               0.40   -10000.00
03928              -1.20   -10200.00
03929              -1.00   -10000.00
03930               0.40   -10000.00
03931              -0.60   -10000.00
03932              -1.40   -10000.00
03933              -0.20   -10000.00
03934               0.80   -10000.00
03935              -1.00    -9800.00
03936              -1.20   -10000.00
03937               0.00   -10000.00
03938              -0.40   -10000.00
03939              -1.20    -9800.00
03940               0.00    -9800.00
03941               0.20    -9800.00
03942              -0.60    -9800.00
03943              -0.60    -9800.00
03944              -0.20    -9600.00
03945               0.00    -9600.00
03946              -0.40    -9600.00
03947              -0.60    -9400.00
03948              -0.20    -9600.00
03949               0.20    -9200.00
03950              -0.80    -9200.00
03951              -0.80    -9200.00
03952               0.40    -9200.00
03953              -0.20    -9000.00
03954              -1.20    -9000.00
03955              -0.20    -9000.00
03956               0.00    -8800.00
03957              -0.60    -8800.00
03958              -0.80    -8600.00
03959               0.20    -8800.00
03960               0.20    -8600.00
03961              -1.00    -8400.00
03962              -0.60    -8200.00
03963               0.40    -8400.00
03964              -1.00    -8200.00
03965              -0.80    -8000.00
03966               0.80    -8000.00
03967              -0.20    -8000.00
03968              -1.00    -7600.00
03969              -0.20    -7600.00
03970              -0.20    -7600.00
03971              -0.20    -7200.00
03972              -1.00    -7200.00
03973               0.20    -7200.00
03974               0.20    -6800.00
03975              -1.00    -6800.00
03976              -0.60    -6800.00
03977               0.40    -6800.00
03978              -0.20    -6600.00
03979               0.20    -6600.00
03980              -0.60    -6200.00
03981               2.00    -6200.00
03982              -2.00    -6000.00
03983              -3.00    -6000.00
03984               4.40    -5800.00
03985              -9.20    -5600.00
03986               3.40    -5600.00
03987              -1.80    -5200.00
03988               2.60    -5200.00
03989               4.40    -5000.00
03990              -4.20    -4800.00
03991               1.80    -4600.00
03992              -3.40    -4600.00
03993              -0.20    -4400.00
03994              -4.60    -4200.00
03995              -0.60    -4200.00
03996               3.40    -4000.00
03997              -0.40    -4000.00
03998               0.80    -3600.00
03999               2.20    -3600.00
04000              -1.00    -3400.00
04001              -3.40    -3200.00
04002              -2.20    -3200.00
04003              -2.40    -2800.00
04004               1.20    -2800.00
04005              -0.40    -2600.00
04006               1.00    -2400.00
04007               2.60    -2200.00
04008               0.60    -2400.00
04009              -1.80    -2000.00
04010              -2.80    -2000.00
04011              -0.40    -1800.00
04012              -1.00    -1600.00
04013              -0.40    -1200.00
04014               0.20    -1200.00
04015               1.80    -1000.00
04016               0.60     -800.00
04017              -1.40     -800.00
04018               0.40     -800.00
04019              -1.20     -400.00
04020              -1.80     -200.00
04021               1.40        0.00
04022              -1.20      200.00
04023               0.40      400.00
04024               2.20      400.00
04025               1.20      600.00
04026              -2.20      600.00
04027               1.00      800.00
04028               2.00     1200.00
04029              -3.40     1200.00
04030               1.20     1400.00
04031              12.60     1600.00
04032              14.80     2000.00
04033             -24.40     2000.00
04034             -25.00     2000.00
04035              -8.60     2000.00
04036              25.00     2400.00
04037              25.00     2800.00
04038             -25.00     2600.00
04039             -10.60     3000.00
04040              25.00     3000.00
04041             -25.00     3000.00
04042             -25.00     3400.00
04043              25.00     3600.00
04044              25.00     3600.00
04045             -25.00     3800.00
04046              25.00     3800.00
04047              25.00     4000.00
04048             -25.00     4200.00
04049              10.20     4400.00
04050              25.00     4400.00
04051             -25.00     4600.00
04052             -25.00     4800.00
04053              20.40     4800.00
04054              25.00     5200.00
04055             -25.00     5400.00
04056             -25.00     5400.00
04057              25.00     5400.00
04058              13.80     5800.00
04059             -25.00     6000.00
04060              11.60     6000.00
04061              25.00     6200.00
04062             -25.00     6400.00
04063             -22.00     6200.00
04064              25.00     6400.00
04065              -2.80     6800.00
04066             -25.00     6800.00
04067              25.00     6800.00
04068              16.20     7200.00
04069             -25.00     7000.00
04070               4.60     7200.00
04071              23.00     7200.00
04072             -14.60     7600.00
04073             -12.20     7600.00
04074              15.40     7800.00
04075               2.80     7800.00
04076             -13.20     8000.00
04077               3.40     8000.00
04078               9.00     8200.00
04079              -8.20     8400.00
04080              -4.20     8400.00
04081               9.20     8400.00
04082              -1.80     8400.00
04083              -8.80     8400.00
04084               7.80     8600.00
04085               3.80     8800.00
04086             -10.20     8800.00
04087               2.60     9000.00
04088               6.80     8800.00
04089              -7.40     9200.00
04090              -2.00     9200.00
04091               8.20     9200.00
04092              -3.40     9400.00
04093              -5.20     9200.00
04094               6.20     9400.00
04095              -0.40     9400.00
04096              -6.20     9400.00
04097               3.00     9600.00
04098               4.00     9600.00
04099              -4.60     9600.00
04100              -1.00     9600.00
04101               4.20     9800.00
04102              -0.80     9800.00
04103              -3.80     9800.00
04104               1.80    10000.00
04105               3.40    10000.00
04106              -3.80    10000.00
04107              -1.40    10000.00
04108               3.60    10000.00
04109              -1.40    10000.00
04110              -3.40    10000.00
04111               2.40    10000.00
04112               1.20    10000.00
04113              -2.80    10000.00
04114              -0.20    10000.00
04115               1.80    10000.00
04116              -2.00    10200.00
04117              -0.60    10000.00
04118               1.80    10000.00
04119              -1.00    10000.00
04120              -1.00    10000.00
04121               0.20    10000.00
04122               0.20    10000.00
04123              -1.20    10000.00
04124              -0.80    10000.00
04125               0.20    10000.00
04126               0.40    10000.00
04127              -0.60    10000.00
04128              -1.20    10000.00
04129               0.40    10000.00
04130              -0.40     9800.00
04131              -1.20     9600.00
04132               0.40     9600.00
04133               0.40     9600.00
04134              -1.20     9600.00
04135              -0.60     9600.00
04136               0.20     9400.00
04137              -0.20     9600.00
04138               0.20     9400.00
04139              -0.20     9400.00
04140              -0.60     9400.00
04141              -0.20     9400.00
04142              -0.60     9200.00
04143              -1.00     9200.00
04144               1.00     8800.00
04145               0.20     8800.00
04146              -1.20     8800.00
04147               0.40     8800.00
04148               0.60     8800.00
04149              -1.20     8600.00
04150              -0.60     8600.00
04151               1.20     8400.00
04152              -0.40     8400.00
04153              -1.20     8400.00
04154               0.40     8200.00
04155               0.40     8000.00
04156              -1.20     8000.00
04157              -0.20     8000.00
04158               0.80     7600.00
04159              -0.60     7600.00
04160              -0.60     7600.00
04161               0.40     7400.00
04162               0.20     7400.00
04163              -0.80     7200.00
04164               0.20     7000.00
04165               1.00     7000.00
04166              -0.20     6800.00
04167              -0.60     6800.00
04168               0.00     6600.00
04169               0.20     6400.00
04170              -1.00     6400.00
04171              -0.40     6200.00
04172               0.40     6200.00
04173              -0.80     6000.00
04174              -0.80     6000.00
04175               0.40     5800.00
04176              -0.40     5600.00
04177              -0.60     5400.00
04178              -0.20     5400.00
04179               0.00     5200.00
04180              -0.40     5000.00
04181              -0.60     4800.00
04182              -0.20     4600.00
04183              -0.20     4600.00
04184              -0.60     4400.00
04185              -0.60     4200.00
04186              -0.20     4000.00
04187              -0.60     3800.00
04188              -0.60     3800.00
04189              -0.20     3600.00
04190              -0.20     3400.00
04191              -0.40     3400.00
04192              -0.20     3000.00
04193              -0.40     3000.00
04194              -0.20     3000.00
04195              -0.40     2800.00
04196              -0.60     2600.00
04197              -0.40     2400.00
04198              -0.20     2200.00
04199              -0.40     2000.00
04200              -0.40     2000.00
04201              -0.20     1800.00
04202              -0.40     1600.00
04203              -0.60     1400.00
04204               0.20     1200.00
04205              -0.20     1000.00
04206              -0.60      800.00
04207              -0.20      600.00
04208               0.20      600.00
04209              -0.80      400.00
04210              -0.20      400.00
04211               0.60      200.00
04212              -0.80        0.00
04213              -0.20     -200.00
04214               1.80     -400.00
04215               0.80     -400.00
04216              -1.20     -600.00
04217               0.40     -800.00
04218              -0.40    -1000.00
04219              -0.40    -1200.00
04220               0.20    -1200.00
04221               4.20    -1400.00
04222              25.00    -1800.00
04223             -10.00    -2000.00
04224             -25.00    -2400.00
04225             -24.00    -2000.00
04226              25.00    -2000.00
04227              25.00    -2600.00
04228             -25.00    -2600.00
04229             -25.00    -2400.00
04230              25.00    -3200.00
04231              25.00    -3400.00
04232             -25.00    -2800.00
04233              25.00    -3600.00
04234              25.00    -3600.00
04235             -25.00    -3400.00
04236             -25.00    -3800.00
04237              25.00    -4200.00
04238             -25.00    -4200.00
04239             -25.00    -4400.00
04240              25.00    -4400.00
04241             -25.00    -4400.00
04242             -17.20    -4800.00
04243             -12.20    -4800.00
04244              25.00    -5000.00
04245              23.80    -5200.00
04246             -25.00    -5200.00
04247              25.00    -5600.00
04248              25.00    -5600.00
04249             -25.00    -5600.00
04250               7.80    -6000.00
04251              25.00    -6000.00
04252             -25.00    -6200.00
04253             -25.00    -6400.00
04254              25.00    -6400.00
04255              22.60    -6400.00
04256             -25.00    -6800.00
04257               9.00    -6800.00
04258              25.00    -7000.00
04259             -25.00    -6800.00
04260              -5.40    -7200.00
04261              25.00    -7200.00
04262             -11.80    -7400.00
04263             -15.00    -7600.00
04264              10.80    -7600.00
04265              10.20    -7800.00
04266             -17.00    -8000.00
04267               2.00    -8000.00
04268              13.40    -8000.00
04269             -12.40    -8000.00
04270              -2.20    -8400.00
04271               9.00    -8400.00
04272              -3.00    -8400.00
04273              -9.00    -8600.00
04274               7.80    -8800.00
04275               6.00    -8800.00
04276             -14.00    -8800.00
04277               4.80    -9000.00
04278               9.20    -9000.00
04279             -11.80    -9000.00
04280              -1.20    -9000.00
04281              10.60    -9200.00
04282              -4.40    -9200.00
04283              -8.20    -9200.00
04284               9.00    -9400.00
04285               2.00    -9400.00
04286             -10.80    -9600.00
04287               4.20    -9600.00
04288               6.60    -9600.00
04289              -6.60    -9600.00
04290              -2.20    -9800.00
04291               5.80    -9800.00
04292              -1.40    -9800.00
04293              -5.60    -9800.00
04294               2.80    -9800.00
04295               3.40    -9800.00
04296              -4.40   -10000.00
04297              -1.00   -10000.00
04298               3.60   -10000.00
04299              -1.40   -10000.00
04300              -3.80   -10000.00
04301               2.20   -10000.00
04302               1.80   -10000.00
04303              -3.00   -10000.00
04304              -0.60   -10000.00
04305               1.80   -10000.00
04306              -1.40   -10000.00
04307              -2.00   -10000.00
04308               0.60   -10000.00
04309               0.40   -10000.00
04310              -1.60   -10000.00
04311              -0.60   -10000.00
04312               0.40   -10000.00
04313              -1.00   -10000.00
04314              -1.20   -10000.00
04315               0.20   -10000.00
04316               0.40   -10000.00
04317              -0.60    -9800.00
04318              -0.80    -9800.00
04319               0.40    -9800.00
04320              -0.60    -9800.00
04321              -0.80    -9800.00
04322              -0.40    -9800.00
04323              -0.20    -9800.00
04324              -0.20    -9800.00
04325              -1.00    -9600.00
04326              -1.20    -9600.00
04327               0.80    -9400.00
04328              -0.60    -9400.00
04329              -1.20    -9600.00
04330               0.20    -9200.00
04331               0.40    -9200.00
04332              -1.20    -9400.00
04333              -0.60    -9200.00
04334               1.00    -9200.00
04335              -0.60    -9000.00
04336              -1.00    -9200.00
04337               0.20    -8800.00
04338               0.20    -8800.00
04339              -1.00    -8800.00
04340              -0.60    -8800.00
04341               0.60    -8600.00
04342               0.00    -8400.00
04343              -1.20    -8200.00
04344               0.20    -8400.00
04345               0.20    -8200.00
04346              -1.20    -8000.00
04347              -0.20    -8000.00
04348               0.60    -8000.00
04349              -0.60    -7800.00
04350              -1.00    -7600.00
04351               0.40    -7400.00
04352               0.20    -7400.00
04353              -1.20    -7200.00
04354              -0.40    -7200.00
04355               0.60    -7200.00
04356              -0.40    -7000.00
04357              -1.00    -6800.00
04358               0.20    -6800.00
04359              -0.40    -6600.00
04360              -0.40    -6600.00
04361              -0.20    -6400.00
04362              -0.20    -6200.00
04363               0.20    -6200.00
04364              -1.00    -6000.00
04365              -0.40    -5800.00
04366               0.40    -5800.00
04367              -0.60    -5600.00
04368              -0.60    -5600.00
04369               0.40    -5600.00
04370              -0.20    -5200.00
04371              -1.20    -5000.00
04372              -0.20    -4600.00
04373              -0.40    -4600.00
04374              -0.60    -4600.00
04375              -0.20    -4400.00
04376               0.20    -4200.00
04377              -0.20    -4000.00
04378              -0.60    -4000.00
04379              -0.60    -3800.00
04380               0.00    -3600.00
04381              -0.60    -3400.00
04382              -0.60    -3400.00
04383              -0.20    -3200.00
04384              -0.20    -3000.00
04385              -1.00    -3000.00
04386              -0.40    -2600.00
04387              -0.20    -2600.00
04388              -0.40    -2600.00
04389              -0.60    -2400.00
04390              -0.20    -2000.00
04391              -0.40    -2000.00
04392              -0.40    -1800.00
04393              -0.80    -1600.00
04394              -0.20    -1600.00
04395               0.00    -1200.00
04396              -0.60    -1200.00
04397              -0.20    -1000.00
04398              -0.20     -800.00
04399              -0.40     -600.00
04400              -0.60     -400.00
04401               0.20     -400.00
04402              -0.20     -200.00
04403              -0.60        0.00
04404               0.40      200.00
04405               1.00      400.00
04406               0.60      400.00
04407              -0.60      600.00
04408              -0.20      800.00
04409               0.80      800.00
04410              -1.00     1200.00
04411              -0.20     1200.00
04412               3.60     1400.00
04413              14.00     1800.00
04414               8.40     2000.00
04415             -25.00     2200.00
04416             -25.00     2000.00
04417              -0.20     2000.00
04418              25.00     2400.00
04419               9.40     2600.00
04420             -25.00     2600.00
04421              25.00     3000.00
04422              25.00     3200.00
04423             -25.00     2800.00
04424             -25.00     3600.00
04425              25.00     3200.00
04426             -13.00     3400.00
04427             -25.00     4000.00
04428              25.00     3800.00
04429              20.60     4000.00
04430             -25.00     4400.00
04431              25.00     4400.00
04432              25.00     4400.00
04433             -25.00     4800.00
04434             -23.00     4800.00
04435              25.00     5000.00
04436              25.00     5400.00
04437             -25.00     5400.00
04438             -16.20     5400.00
04439              25.00     5600.00
04440             -10.60     5800.00
04441             -25.00     6000.00
04442              25.00     6000.00
04443              25.00     6200.00
04444             -25.00     6200.00
04445              -3.00     6400.00
04446              25.00     6400.00
04447             -20.40     6800.00
04448             -23.60     6800.00
04449              25.00     7000.00
04450              -0.60     7000.00
04451             -25.00     7200.00
04452              16.80     7200.00
04453              15.80     7400.00
04454             -20.60     7600.00
04455              -4.00     7600.00
04456              16.40     7800.00
04457              -5.00     7800.00
04458             -11.00     8000.00
04459               8.40     8000.00
04460               4.80     8200.00
04461              -9.40     8400.00
04462               0.20     8400.00
04463               8.40     8400.00
04464              -5.80     8600.00
04465              -5.40     8600.00
04466               9.00     8600.00
04467              -1.00     8800.00
04468              -9.00     8800.00
04469               6.40     8800.00
04470               3.40     9000.00
04471              -8.60     9000.00
04472               2.60     9200.00
04473               6.40     9200.00
04474              -6.20     9200.00
04475              -2.00     9200.00
04476               6.40     9400.00
04477              -3.60     9400.00
04478              -4.00     9400.00
04479               4.60     9400.00
04480               0.80     9600.00
04481              -4.40     9600.00
04482               1.20     9600.00
04483               2.60     9800.00
04484              -2.80     9800.00
04485              -2.00     9600.00
04486               3.40     9800.00
04487               0.40     9800.00
04488              -3.00    10000.00
04489               1.00    10000.00
04490               2.00    10000.00
04491              -2.60    10000.00
04492              -1.00    10200.00
04493               2.40    10000.00
04494              -0.60    10000.00
04495              -2.20    10000.00
04496               1.40    10000.00
04497               0.80    10000.00
04498              -2.00    10000.00
04499              -0.40    10000.00
04500               1.20    10000.00
04501              -1.00    10000.00
04502              -1.20    10000.00
04503               0.40    10000.00
04504               0.20    10000.00
04505              -1.00    10000.00
04506              -0.40    10000.00
04507               0.40    10000.00
04508              -0.20    10000.00
04509              -1.20     9800.00
04510              -0.20    10000.00
04511               0.20     9800.00
04512              -1.00     9800.00
04513              -0.40     9800.00
04514               0.40     9600.00
04515              -0.20     9600.00
04516              -0.60     9600.00
04517               0.20     9600.00
04518              -0.60     9400.00
04519              -0.40     9400.00
04520              -0.40     9400.00
04521              -0.80     9200.00
04522               0.20     9200.00
04523               0.60     9200.00
04524              -1.20     9200.00
04525               0.20     9000.00
04526              -0.40     8800.00
04527              -0.40     8800.00
04528              -0.20     8800.00
04529              -0.20     8800.00
04530              -0.60     8600.00
04531               0.20     8600.00
04532              -0.20     8400.00
04533              -0.40     8400.00
04534               0.20     8400.00
04535              -0.60     8400.00
04536              -0.40     8200.00
04537              -0.20     8000.00
04538              -0.20     8000.00
04539              -0.20     7800.00
04540               0.20     7800.00
04541              -0.40     7600.00
04542              -0.40     7600.00
04543               0.20     7600.00
04544              -0.40     7200.00
04545              -0.20     7000.00
04546               0.20     7000.00
04547              -0.20     7000.00
04548              -0.20     6800.00
04549              -0.40     6800.00
04550              -0.40     6600.00
04551              -0.20     6200.00
04552              -0.40     6200.00
04553              -0.20     6200.00
04554              -0.20     6000.00
04555               0.00     6000.00
04556              -0.40     6000.00
04557              -0.20     5600.00
04558               0.00     5400.00
04559              -0.20     5400.00
04560              -0.40     5200.00
04561               0.20     5000.00
04562              -0.40     4800.00
04563              -0.60     4600.00
04564               0.00     4600.00
04565              -0.60     4400.00
04566              -0.60     4400.00
04567              -0.20     4200.00
04568              -0.20     4000.00
04569              -0.60     3800.00
04570              -0.40     3800.00
04571              -0.40     3600.00
04572              -0.60     3400.00
04573              -0.60     3200.00
04574              -0.40     3200.00
04575              -0.40     3000.00
04576              -0.20     2800.00
04577              -0.40     2800.00
04578              -0.60     2400.00
04579              -0.40     2200.00
04580               0.00     2200.00
04581              -0.60     2000.00
04582              -0.20     2000.00
04583              -0.20     1600.00
04584              -0.60     1600.00
04585              -0.60     1400.00
04586              -0.20     1200.00
04587              -0.40     1000.00
04588              -0.60      800.00
04589              -0.40      800.00
04590              -0.20      600.00
04591              -0.40      400.00
04592              -0.60      400.00
04593               0.00      200.00
04594               0.20     -200.00
04595              -0.60     -200.00
04596               1.00     -400.00
04597               1.20     -600.00
04598              -1.40     -800.00
04599              -0.20     -800.00
04600               0.40    -1200.00
04601              -0.40    -1200.00
04602              -0.20    -1200.00
04603               8.20    -1600.00
04604              25.00    -1800.00
04605             -24.40    -2200.00
04606             -25.00    -2400.00
04607             -15.80    -2000.00
04608              25.00    -2200.00
04609              25.00    -2800.00
04610             -25.00    -2600.00
04611               8.60    -2400.00
04612              25.00    -3200.00
04613             -22.00    -3200.00
04614             -25.00    -2800.00
04615              25.00    -3800.00
04616              25.00    -3600.00
04617             -25.00    -3400.00
04618              25.00    -4000.00
04619              25.00    -4000.00
04620             -25.00    -4000.00
04621              25.00    -4400.00
04622              25.00    -4400.00
04623             -25.00    -4600.00
04624             -11.60    -5000.00
04625              -5.20    -4800.00
04626              25.00    -5200.00
04627             -13.40    -5200.00
04628             -25.00    -5400.00
04629              25.00    -5600.00
04630              21.00    -5600.00
04631             -25.00    -5800.00
04632              25.00    -6000.00
04633              25.00    -6000.00
04634             -25.00    -6400.00
04635             -17.40    -6400.00
04636              25.00    -6400.00
04637               2.80    -6600.00
04638             -25.00    -6800.00
04639              25.00    -6800.00
04640              22.20    -7000.00
04641             -25.00    -7200.00
04642              11.80    -7200.00
04643              21.00    -7200.00
04644             -18.00    -7400.00
04645              -9.20    -7600.00
04646              15.00    -7600.00
04647               2.60    -8000.00
04648             -17.20    -8000.00
04649               9.80    -8000.00
04650               7.00    -8200.00
04651             -14.00    -8200.00
04652               2.80    -8400.00
04653               7.40    -8400.00
04654              -6.00    -8400.00
04655              -6.20    -8400.00
04656              10.80    -8600.00
04657              -0.20    -8800.00
04658             -13.20    -8800.00
04659              10.00    -9000.00
04660               3.60    -9000.00
04661             -12.40    -9000.00
04662               3.80    -9200.00
04663               8.60    -9200.00
04664              -8.40    -9200.00
04665              -4.60    -9200.00
04666              10.60    -9400.00
04667              -3.00    -9600.00
04668              -9.00    -9600.00
04669               7.60    -9600.00
04670               3.40    -9600.00
04671              -7.80    -9600.00
04672               1.20    -9800.00
04673               5.40    -9800.00
04674              -4.40    -9800.00
04675              -3.60    -9800.00
04676               5.00    -9800.00
04677               0.60    -9800.00
04678              -4.60   -10000.00
04679               1.20   -10000.00
04680               2.80   -10000.00
04681              -3.00   -10000.00
04682              -2.20   -10000.00
04683               3.40   -10000.00
04684               0.20   -10000.00
04685              -2.80   -10000.00
04686               1.00   -10000.00
04687               0.60   -10000.00
04688              -1.80   -10000.00
04689              -0.40   -10000.00
04690               0.80   -10000.00
04691              -0.20   -10000.00
04692              -1.00   -10000.00
04693              -0.40   -10000.00
04694               0.20   -10000.00
04695              -1.00   -10000.00
04696              -1.00   -10000.00
04697               0.40   -10000.00
04698               0.20   -10000.00
04699              -1.20   -10000.00
04700              -0.40    -9800.00
04701               0.20   -10000.00
04702              -0.60    -9800.00
04703              -1.00    -9800.00
04704               0.40    -9800.00
04705              -0.20    -9800.00
04706              -1.00    -9800.00
04707              -0.60    -9600.00
04708               0.00    -9600.00
04709              -0.20    -9600.00
04710              -0.60    -9600.00
04711              -0.60    -9600.00
04712               0.40    -9400.00
04713              -0.60    -9200.00
04714              -1.20    -9200.00
04715               0.20    -9200.00
04716               0.40    -9000.00
04717              -1.00    -9000.00
04718              -0.40    -9000.00
04719               0.40    -8800.00
04720              -0.40    -8800.00
04721              -1.20    -8800.00
04722              -0.20    -8600.00
04723               1.00    -8600.00
04724              -1.00    -8400.00
04725              -1.20    -8400.00
04726               0.60    -8200.00
04727               0.20    -8200.00
04728              -1.80    -8200.00
04729              -0.20    -8000.00
04730               1.80    -8000.00
04731              -1.20    -7800.00
04732              -1.20    -7600.00
04733               1.00    -7600.00
04734              -0.20    -7400.00
04735              -1.40    -7200.00
04736               0.40    -7200.00
04737               0.20    -7200.00
04738              -0.60    -6800.00
04739              -0.60    -6800.00
04740               0.20    -6600.00
04741              -0.20    -6600.00
04742              -0.20    -6600.00
04743              -1.00    -6400.00
04744               1.00    -6200.00
04745              -0.40    -6000.00
04746              -1.00    -5800.00
04747               0.20    -5800.00
04748               0.40    -5600.00
04749              -2.00    -5600.00
04750               0.20    -5400.00
04751               1.40    -5200.00
04752              -0.80    -5200.00
04753              -1.20    -5000.00
04754               0.80    -4800.00
04755              -0.60    -4600.00
04756              -1.80    -4400.00
04757               0.60    -4200.00
04758               0.40    -4200.00
04759              -0.80    -4200.00
04760              -0.60    -4000.00
04761               0.20    -4000.00
04762              -0.20    -3600.00
04763              -1.40    -3400.00
04764              -0.40    -3200.00
04765               1.00    -3200.00
04766              -0.60    -3200.00
04767              -1.20    -2800.00
04768               0.60    -2600.00
04769              -0.20    -2600.00
04770              -1.80    -2400.00
04771              -0.40    -2400.00
04772               1.00    -2000.00
04773              -1.40    -2000.00
04774              -1.20    -1800.00
04775               1.20    -1600.00
04776               0.00    -1400.00
04777              -2.00    -1200.00
04778               0.20    -1000.00
04779               0.40    -1000.00
04780              -1.80     -800.00
04781              -0.60     -800.00
04782               1.20     -400.00
04783              -0.40     -400.00
04784              -1.40     -200.00
04785              -0.20        0.00
04786               0.80      200.00
04787               0.20      400.00
04788               0.20      600.00
04789               0.40      600.00
04790               0.40      800.00
04791              -0.20      800.00
04792              -0.60     1000.00
04793               0.40     1400.00
04794               5.20     1400.00
04795              15.80     1800.00
04796              -0.80     2200.00
04797             -25.00     2000.00
04798             -21.40     2000.00
04799              13.40     2200.00
04800              25.00     2400.00
04801             -24.20     2600.00
04802             -25.00     2600.00
04803              25.00     3000.00
04804              25.00     3000.00
04805             -25.00     3000.00
04806               8.20     3600.00
04807              25.00     3200.00
04808             -25.00     3600.00
04809             -25.00     4000.00
04810              25.00     3800.00
04811             -25.00     4200.00
04812             -25.00     4400.00
04813              25.00     4200.00
04814              18.00     4400.00
04815             -25.00     5000.00
04816              -8.40     4800.00
04817              25.00     5000.00
04818              11.80     5400.00
04819             -25.00     5400.00
04820               9.00     5400.00
04821              25.00     5600.00
04822             -25.00     5800.00
04823             -25.00     6000.00
04824              25.00     6000.00
04825               7.20     6400.00
04826             -25.00     6200.00
04827              15.80     6200.00
04828              25.00     6600.00
04829             -25.00     6800.00
04830              -6.80     6800.00
04831              25.00     6800.00
04832             -15.80     7200.00
04833             -20.80     7200.00
04834              23.80     7200.00
04835               4.40     7600.00
04836             -22.00     7600.00
04837               4.20     7800.00
04838              14.60     7800.00
04839             -10.20     7800.00
04840              -6.20     8000.00
04841              10.80     8200.00
04842              -0.80     8200.00
04843              -9.80     8400.00
04844               4.20     8400.00
04845               6.20     8400.00
04846              -9.40     8400.00
04847              -0.60     8600.00
04848               9.60     8600.00
04849              -6.00     8800.00
04850              -6.00     8800.00
04851               8.60     8800.00
04852              -1.00     9200.00
04853              -7.80     9000.00
04854               5.80     9200.00
04855               3.60     9200.00
04856              -7.40     9200.00
04857               1.80     9400.00
04858               4.80     9400.00
04859              -5.60     9400.00
04860              -1.80     9600.00
04861               5.40     9600.00
04862              -1.40     9600.00
04863              -3.40     9600.00
04864               2.80     9600.00
04865               1.00     9800.00
04866              -3.40     9800.00
04867              -0.40     9800.00
04868               2.80    10000.00
04869              -0.60     9800.00
04870              -2.20    10000.00
04871               2.00    10000.00
04872               0.60    10000.00
04873              -3.00    10000.00
04874               0.60    10000.00
04875               2.20    10000.00
04876              -2.00    10000.00
04877              -0.60    10000.00
04878               1.80    10000.00
04879              -0.60    10000.00
04880              -1.40    10000.00
04881               0.60    10000.00
04882               0.40    10000.00
04883              -0.40    10000.00
04884              -0.20    10000.00
04885               0.20    10000.00
04886               0.20    10000.00
04887              -0.40    10000.00
04888              -0.40    10000.00
04889               0.20     9800.00
04890              -0.20     9800.00
04891              -0.60    10000.00
04892              -0.40     9800.00
04893               0.20     9600.00
04894              -0.40     9600.00
04895              -0.40     9600.00
04896              -0.20     9600.00
04897               0.20     9800.00
04898              -0.40     9400.00
04899              -0.40     9600.00
04900              -0.20     9400.00
04901               0.00     9400.00
04902              -0.80     9400.00
04903              -1.00     9400.00
04904               0.20     9200.00
04905               0.60     9400.00
04906              -1.80     9200.00
04907               0.20     9000.00
04908               0.60     8800.00
04909              -1.00     8800.00
04910              -1.00     8800.00
04911               0.60     8800.00
04912              -0.60     8600.00
04913              -1.00     8600.00
04914               0.20     8400.00
04915               0.20     8400.00
04916              -0.60     8400.00
04917              -0.60     8400.00
04918               0.40     8200.00
04919              -0.40     8000.00
04920              -0.60     8000.00
04921               0.20     7800.00
04922              -0.20     7600.00
04923              -0.60     7600.00
04924              -0.40     7600.00
04925               0.20     7200.00
04926              -0.40     7200.00
04927              -0.40     7200.00
04928              -0.40     7000.00
04929              -0.20     6800.00
04930               0.20     6800.00
04931              -0.60     6800.00
04932               0.20     6600.00
04933              -0.20     6400.00
04934              -0.40     6400.00
04935              -0.60     6200.00
04936               0.40     6200.00
04937              -0.60     6000.00
04938              -0.20     5800.00
04939               0.20     5600.00
04940              -1.40     5600.00
04941               0.20     5200.00
04942               0.20     5200.00
04943              -0.60     4800.00
04944               0.40     4800.00
04945              -0.60     4800.00
04946              -0.60     4600.00
04947               0.40     4400.00
04948              -1.00     4400.00
04949              -0.80     4000.00
04950               1.20     4000.00
04951              -0.60     4000.00
04952              -1.20     3600.00
04953               1.00     3400.00
04954              -1.00     3400.00
04955              -1.20     3200.00
04956               0.40     3200.00
04957              -0.60     3000.00
04958              -1.00     2800.00
04959               0.20     2400.00
04960              -0.20     2400.00
04961              -1.20     2200.00
04962               0.20     2200.00
04963              -0.40     2000.00
04964              -0.60     2000.00
04965               0.40     1800.00
04966              -1.00     1600.00
04967              -0.60     1400.00
04968               0.20     1200.00
04969              -0.60     1000.00
04970              -0.60      800.00
04971              -0.40      800.00
04972              -0.60      400.00
04973              -1.20      400.00
04974               0.20      200.00
04975              -0.40        0.00
04976              -0.40     -200.00
04977               1.00     -200.00
04978               0.60     -400.00
04979              -0.40     -600.00
04980              -0.60     -800.00
04981               0.20     -800.00
04982              -0.40    -1000.00
04983              -0.60    -1200.00
04984               0.60    -1400.00
04985              14.00    -1600.00
04986              18.80    -2000.00
04987             -25.00    -2000.00
04988             -25.00    -2400.00
04989               4.00    -1800.00
04990              25.00    -2400.00
04991               2.60    -2800.00
04992             -25.00    -2400.00
04993              25.00    -2800.00
04994              25.00    -3200.00
04995             -25.00    -3000.00
04996             -25.00    -3200.00
04997              25.00    -3600.00
04998              25.00    -3600.00
04999             -25.00    -3600.00
05000              25.00    -4200.00
