Unit:(mV)
                     CH1         CH2
Frequency              ? 262.469 kHz
00001               2.00     4600.00
00002               1.60     4600.00
00003               1.60     4200.00
00004               1.20     4000.00
00005               1.20     3800.00
00006               2.00     3600.00
00007               1.20     3200.00
00008               0.40     3000.00
00009               1.20     2600.00
00010               0.80     2400.00
00011               0.80     2200.00
00012               0.80     2000.00
00013               0.40     1800.00
00014               0.40     1400.00
00015               0.40     1000.00
00016              -0.40      800.00
00017               0.40      600.00
00018               0.40      400.00
00019               0.00        0.00
00020              -0.40     -400.00
00021               0.80     -400.00
00022               2.00     -800.00
00023              -2.00    -1000.00
00024              -2.00    -1200.00
00025               0.80    -1600.00
00026              -0.80    -1800.00
00027              -2.00    -2000.00
00028              10.00    -2200.00
00029              31.20    -2800.00
00030             -30.00    -3200.00
00031             -42.00    -3400.00
00032              22.00    -3600.00
00033             -10.00    -3600.00
00034              10.00    -3600.00
00035              42.40    -4400.00
00036             -50.00    -4200.00
00037              50.00    -4800.00
00038              50.00    -5200.00
00039             -50.00    -5200.00
00040              39.20    -5600.00
00041              50.00    -5600.00
00042             -50.00    -5800.00
00043              28.00    -6400.00
00044              -1.60    -6400.00
00045               7.60    -6800.00
00046             -10.80    -7200.00
00047             -34.80    -7200.00
00048              50.00    -7800.00
00049             -34.40    -7600.00
00050             -21.20    -8000.00
00051              32.40    -8200.00
00052              -9.20    -8400.00
00053             -14.40    -8800.00
00054             -18.00    -8800.00
00055              29.20    -9200.00
00056             -23.20    -9200.00
00057             -20.40    -9600.00
00058              22.00   -10000.00
00059             -13.20   -10000.00
00060              -6.00   -10400.00
00061             -13.60   -10400.00
00062              10.80   -10800.00
00063             -15.20   -10800.00
00064             -18.00   -11200.00
00065              16.40   -11400.00
00066             -14.80   -11400.00
00067             -11.60   -12000.00
00068              -0.40   -12000.00
00069              -3.60   -12200.00
00070             -16.40   -12200.00
00071              -6.40   -12400.00
00072              -0.40   -12600.00
00073             -12.00   -13000.00
00074             -10.40   -13000.00
00075              -4.00   -13200.00
00076              -8.40   -13200.00
00077             -15.20   -13400.00
00078              -4.40   -13600.00
00079              -8.80   -13600.00
00080             -13.60   -14000.00
00081              -8.80   -14000.00
00082              -6.00   -14200.00
00083             -14.40   -14400.00
00084             -14.00   -14600.00
00085              -7.20   -14800.00
00086             -14.80   -14800.00
00087             -15.20   -14800.00
00088             -10.80   -15000.00
00089             -12.00   -15000.00
00090             -18.40   -15200.00
00091             -14.80   -15400.00
00092             -12.40   -15400.00
00093             -19.60   -15600.00
00094             -18.00   -15400.00
00095             -14.80   -15600.00
00096             -18.00   -15600.00
00097             -21.60   -15800.00
00098             -18.80   -16000.00
00099             -18.80   -16000.00
00100             -23.60   -16000.00
00101             -22.80   -16200.00
00102             -20.80   -16200.00
00103             -24.40   -16200.00
00104             -26.40   -16200.00
00105             -25.20   -16400.00
00106             -26.80   -16200.00
00107             -29.60   -16400.00
00108             -29.60   -16400.00
00109             -27.60   -16400.00
00110             -31.20   -16400.00
00111             -32.80   -16600.00
00112             -31.60   -16600.00
00113             -33.20   -16800.00
00114             -34.40   -16400.00
00115             -34.00   -16400.00
00116             -32.80   -16600.00
00117             -33.60   -16400.00
00118             -33.20   -16400.00
00119             -31.20   -16400.00
00120             -30.40   -16400.00
00121             -29.20   -16400.00
00122             -27.20   -16200.00
00123             -26.00   -16200.00
00124             -24.40   -16200.00
00125             -24.80   -16200.00
00126             -23.20   -16200.00
00127             -21.60   -16200.00
00128             -21.20   -16000.00
00129             -20.40   -16000.00
00130             -18.80   -16000.00
00131             -18.80   -15800.00
00132             -18.40   -15600.00
00133             -17.20   -15600.00
00134             -16.80   -15600.00
00135             -16.80   -15400.00
00136             -16.00   -15400.00
00137             -15.20   -15400.00
00138             -15.20   -15200.00
00139             -14.00   -15200.00
00140             -14.00   -15000.00
00141             -13.60   -14800.00
00142             -13.20   -14800.00
00143             -12.40   -14600.00
00144             -12.00   -14600.00
00145             -12.00   -14400.00
00146             -11.60   -14400.00
00147             -10.80   -14000.00
00148             -10.40   -13800.00
00149             -10.40   -13800.00
00150             -10.40   -13600.00
00151              -9.20   -13400.00
00152              -9.20   -13600.00
00153              -9.20   -13200.00
00154              -9.20   -13000.00
00155              -8.80   -12800.00
00156              -7.60   -12800.00
00157              -8.00   -12400.00
00158              -8.40   -12400.00
00159              -7.20   -12200.00
00160              -7.60   -12000.00
00161              -7.20   -11800.00
00162              -6.00   -11600.00
00163              -6.80   -11400.00
00164              -6.40   -11200.00
00165              -6.00   -10800.00
00166              -6.80   -10800.00
00167              -6.00   -10400.00
00168              -5.20   -10400.00
00169              -5.20   -10000.00
00170              -5.20    -9800.00
00171              -4.40    -9800.00
00172              -6.00    -9600.00
00173              -5.20    -9200.00
00174              -4.00    -9000.00
00175              -4.40    -8800.00
00176              -4.40    -8800.00
00177              -2.80    -8200.00
00178              -4.40    -8200.00
00179              -4.00    -8000.00
00180              -3.60    -7600.00
00181              -3.60    -7400.00
00182              -4.00    -7000.00
00183              -2.80    -6800.00
00184              -2.80    -6800.00
00185              -3.60    -6400.00
00186              -2.80    -6000.00
00187              -2.80    -6000.00
00188              -2.40    -5800.00
00189              -2.40    -5400.00
00190              -2.40    -5200.00
00191              -2.40    -4800.00
00192              -2.40    -4600.00
00193              -2.00    -4400.00
00194              -2.40    -4000.00
00195              -1.20    -4000.00
00196              -1.20    -3600.00
00197              -1.60    -3400.00
00198              -0.80    -3000.00
00199              -1.20    -2800.00
00200              -2.00    -2600.00
00201              -1.20    -2400.00
00202              -1.20    -2000.00
00203              -1.20    -1800.00
00204              -1.20    -1400.00
00205              -0.40    -1200.00
00206              -0.80     -800.00
00207              -1.20     -800.00
00208              -0.40     -400.00
00209               0.40        0.00
00210              -0.80      200.00
00211               0.40      400.00
00212               3.60      600.00
00213               0.00     1000.00
00214              -2.00     1200.00
00215               2.00     1400.00
00216               2.00     1800.00
00217              -1.20     2000.00
00218               0.80     2200.00
00219              10.40     2600.00
00220              22.80     3000.00
00221             -12.80     3000.00
00222             -37.20     3400.00
00223              11.60     3600.00
00224              14.00     3800.00
00225             -31.20     3800.00
00226              39.20     4400.00
00227              14.80     4400.00
00228             -50.00     4800.00
00229              50.00     5200.00
00230              20.00     5200.00
00231             -50.00     5600.00
00232              32.40     5800.00
00233              19.60     6000.00
00234             -14.00     6400.00
00235              -3.60     6600.00
00236               7.60     7000.00
00237              24.40     7200.00
00238             -29.20     7400.00
00239               3.60     7600.00
00240              32.40     7800.00
00241             -22.40     8200.00
00242              -1.20     8400.00
00243              27.60     8800.00
00244               1.20     8800.00
00245             -18.00     9000.00
00246              12.40     9200.00
00247              19.60     9600.00
00248             -12.40     9800.00
00249               1.20    10000.00
00250              18.40    10200.00
00251               6.00    10400.00
00252              -9.20    10600.00
00253              10.40    10800.00
00254              16.80    11000.00
00255              -9.20    11200.00
00256               7.60    11600.00
00257              18.40    11600.00
00258              -1.20    11800.00
00259               0.80    12000.00
00260              16.40    12000.00
00261               7.20    12400.00
00262              -2.80    12600.00
00263              12.00    12800.00
00264              14.00    12800.00
00265               2.40    13000.00
00266               6.00    13200.00
00267              14.80    13400.00
00268               6.80    13400.00
00269               4.00    13600.00
00270              14.00    14000.00
00271              12.40    14000.00
00272               4.80    14000.00
00273              12.40    14200.00
00274              16.40    14600.00
00275               6.80    14600.00
00276              10.40    14800.00
00277              16.80    14800.00
00278              12.00    15000.00
00279              10.40    14800.00
00280              16.40    15200.00
00281              16.40    15200.00
00282              11.60    15600.00
00283              15.20    15400.00
00284              18.00    15600.00
00285              15.20    15600.00
00286              16.40    15600.00
00287              20.00    15800.00
00288              18.80    16000.00
00289              17.20    16000.00
00290              21.20    16000.00
00291              22.40    16000.00
00292              20.40    16200.00
00293              22.80    16000.00
00294              26.00    16200.00
00295              24.80    16400.00
00296              24.80    16400.00
00297              27.60    16400.00
00298              28.00    16400.00
00299              28.00    16400.00
00300              30.00    16400.00
00301              31.60    16400.00
00302              30.80    16400.00
00303              32.40    16400.00
00304              33.20    16400.00
00305              32.80    16400.00
00306              32.80    16400.00
00307              34.00    16600.00
00308              32.40    16400.00
00309              31.20    16400.00
00310              30.00    16400.00
00311              28.80    16400.00
00312              27.20    16400.00
00313              26.00    16400.00
00314              24.40    16200.00
00315              24.40    16200.00
00316              22.80    16200.00
00317              21.60    16000.00
00318              21.20    16000.00
00319              20.40    16000.00
00320              19.60    16000.00
00321              19.60    15800.00
00322              18.40    16000.00
00323              18.00    15800.00
00324              16.80    15600.00
00325              16.40    15600.00
00326              15.60    15600.00
00327              15.20    15400.00
00328              14.00    15400.00
00329              14.00    15200.00
00330              13.60    15200.00
00331              13.20    15000.00
00332              13.20    14800.00
00333              12.80    14800.00
00334              12.00    14600.00
00335              11.60    14400.00
00336              11.60    14200.00
00337              10.80    14200.00
00338              10.40    14000.00
00339              10.00    13800.00
00340              10.40    13600.00
00341               9.60    13400.00
00342               8.80    13400.00
00343               8.80    13400.00
00344               8.80    13000.00
00345               8.00    13000.00
00346               7.20    12600.00
00347               8.40    12600.00
00348               6.80    12400.00
00349               6.00    12200.00
00350               7.20    12000.00
00351               6.80    11800.00
00352               5.60    11600.00
00353               6.80    11400.00
00354               6.40    11200.00
00355               5.20    11000.00
00356               5.60    11000.00
00357               5.60    10800.00
00358               4.40    10600.00
00359               5.20    10200.00
00360               5.20    10200.00
00361               4.40     9800.00
00362               4.40     9400.00
00363               4.40     9400.00
00364               4.00     9200.00
00365               3.60     9000.00
00366               3.60     8600.00
00367               3.60     8400.00
00368               3.60     8400.00
00369               3.60     8000.00
00370               3.60     7800.00
00371               2.40     7600.00
00372               2.80     7200.00
00373               3.20     7000.00
00374               2.40     6800.00
00375               2.00     6600.00
00376               3.20     6200.00
00377               2.00     6000.00
00378               2.00     5800.00
00379               2.40     5600.00
00380               2.40     5400.00
00381               1.20     5000.00
00382               2.00     4600.00
00383               2.40     4600.00
00384               1.20     4200.00
00385               1.20     3800.00
00386               2.00     3800.00
00387               1.60     3600.00
00388               0.40     3200.00
00389               1.20     3000.00
00390               1.20     2800.00
00391               0.40     2400.00
00392               0.40     2200.00
00393               0.80     2000.00
00394               0.40     1600.00
00395               0.80     1200.00
00396               0.80     1000.00
00397               0.40      800.00
00398               0.00      400.00
00399               0.40      400.00
00400               0.40        0.00
00401               0.00     -200.00
00402               0.80     -400.00
00403               2.40     -800.00
00404              -2.00    -1000.00
00405              -0.80    -1200.00
00406               0.80    -1600.00
00407              -0.80    -1800.00
00408              -1.20    -2000.00
00409               9.20    -2000.00
00410              30.80    -2800.00
00411             -29.60    -3200.00
00412             -42.40    -3400.00
00413              21.20    -3600.00
00414              -9.20    -3600.00
00415              10.80    -3800.00
00416              40.80    -4400.00
00417             -50.00    -4200.00
00418              50.00    -4800.00
00419              50.00    -5200.00
00420             -50.00    -5000.00
00421              40.80    -5800.00
00422              50.00    -5600.00
00423             -50.00    -6000.00
00424              29.20    -6400.00
00425              -2.80    -6400.00
00426               8.80    -7000.00
00427             -11.60    -7000.00
00428             -34.80    -7200.00
00429              50.00    -7800.00
00430             -34.80    -7400.00
00431             -20.40    -8000.00
00432              31.20    -8200.00
00433              -9.20    -8400.00
00434             -14.00    -8800.00
00435             -18.00    -9000.00
00436              29.60    -9200.00
00437             -22.80    -9200.00
00438             -20.00    -9600.00
00439              21.60   -10000.00
00440             -12.40   -10000.00
00441              -6.00   -10400.00
00442             -14.40   -10400.00
00443              11.60   -10800.00
00444             -15.20   -10800.00
00445             -18.00   -10800.00
00446              16.40   -11400.00
00447             -14.40   -11400.00
00448             -12.00   -11800.00
00449              -0.40   -12000.00
00450              -3.60   -12200.00
00451             -16.80   -12200.00
00452              -6.40   -12400.00
00453              -0.40   -12600.00
00454             -11.60   -12800.00
00455             -10.80   -13000.00
00456              -3.60   -13000.00
00457              -7.60   -13400.00
00458             -15.60   -13600.00
00459              -5.20   -13600.00
00460              -8.40   -13800.00
00461             -13.20   -13800.00
00462             -10.00   -14000.00
00463              -5.60   -14200.00
00464             -14.00   -14400.00
00465             -14.80   -14400.00
00466              -6.80   -14600.00
00467             -13.60   -14600.00
00468             -15.60   -14800.00
00469             -10.80   -15000.00
00470             -10.80   -15200.00
00471             -18.40   -15200.00
00472             -14.80   -15200.00
00473             -12.40   -15400.00
00474             -18.80   -15600.00
00475             -18.00   -15600.00
00476             -14.80   -15600.00
00477             -17.20   -15800.00
00478             -21.60   -16000.00
00479             -18.80   -16000.00
00480             -18.80   -16000.00
00481             -23.60   -16200.00
00482             -22.00   -16200.00
00483             -20.80   -16200.00
00484             -24.80   -16200.00
00485             -26.00   -16400.00
00486             -24.80   -16400.00
00487             -26.80   -16400.00
00488             -29.60   -16400.00
00489             -28.40   -16400.00
00490             -29.20   -16400.00
00491             -31.60   -16400.00
00492             -31.60   -16400.00
00493             -31.60   -16400.00
00494             -33.20   -16400.00
00495             -33.20   -16400.00
00496             -34.40   -16400.00
00497             -33.20   -16400.00
00498             -33.60   -16400.00
00499             -32.80   -16400.00
00500             -31.60   -16400.00
00501             -30.00   -16600.00
00502             -29.20   -16400.00
00503             -27.60   -16200.00
00504             -25.20   -16400.00
00505             -24.80   -16200.00
00506             -23.60   -16200.00
00507             -22.80   -16200.00
00508             -22.00   -16000.00
00509             -21.20   -16200.00
00510             -20.00   -16000.00
00511             -19.60   -16000.00
00512             -18.80   -16000.00
00513             -18.80   -15800.00
00514             -18.00   -15600.00
00515             -16.80   -15600.00
00516             -16.40   -15600.00
00517             -15.20   -15400.00
00518             -15.20   -15200.00
00519             -15.20   -15200.00
00520             -14.00   -15200.00
00521             -13.60   -15000.00
00522             -14.00   -14800.00
00523             -12.40   -14800.00
00524             -12.40   -14600.00
00525             -13.20   -14600.00
00526             -11.60   -14400.00
00527             -10.80   -14400.00
00528             -10.80   -14000.00
00529             -10.40   -14000.00
00530             -10.40   -13600.00
00531             -10.00   -13600.00
00532             -10.00   -13400.00
00533             -10.00   -13200.00
00534              -7.60   -13200.00
00535              -9.20   -13000.00
00536              -9.20   -12800.00
00537              -6.80   -12600.00
00538              -8.40   -12400.00
00539              -8.80   -12400.00
00540              -6.80   -12200.00
00541              -7.20   -12000.00
00542              -7.60   -11800.00
00543              -6.80   -11600.00
00544              -6.00   -11400.00
00545              -7.20   -11000.00
00546              -6.40   -11000.00
00547              -5.60   -10800.00
00548              -5.60   -10600.00
00549              -6.00   -10400.00
00550              -5.60   -10200.00
00551              -5.20    -9800.00
00552              -4.40    -9800.00
00553              -5.60    -9400.00
00554              -4.80    -9200.00
00555              -4.00    -9000.00
00556              -4.40    -8800.00
00557              -4.40    -8800.00
00558              -4.00    -8400.00
00559              -4.40    -8200.00
00560              -4.40    -8000.00
00561              -4.00    -7600.00
00562              -4.00    -7400.00
00563              -3.60    -7000.00
00564              -2.80    -6800.00
00565              -4.00    -6800.00
00566              -3.20    -6400.00
00567              -2.40    -6200.00
00568              -3.60    -5800.00
00569              -2.80    -5600.00
00570              -1.60    -5400.00
00571              -2.40    -5000.00
00572              -2.80    -4800.00
00573              -2.40    -4600.00
00574              -2.40    -4400.00
00575              -2.40    -4000.00
00576              -1.20    -3800.00
00577              -1.20    -3600.00
00578              -2.00    -3400.00
00579              -1.60    -3000.00
00580              -1.20    -2800.00
00581              -1.60    -2600.00
00582              -1.20    -2400.00
00583              -0.80    -1800.00
00584              -1.20    -1600.00
00585              -0.80    -1600.00
00586              -0.40    -1200.00
00587              -1.20     -800.00
00588              -0.80     -600.00
00589              -0.40     -400.00
00590               0.40        0.00
00591               0.40        0.00
00592               0.80      400.00
00593               3.60      600.00
00594              -0.80      800.00
00595              -1.20     1200.00
00596               2.00     1400.00
00597               0.80     1800.00
00598               1.20     2000.00
00599               1.20     2200.00
00600               9.20     2600.00
00601              23.60     3000.00
00602             -13.20     3200.00
00603             -37.20     3600.00
00604              12.00     3600.00
00605              14.40     3600.00
00606             -31.60     4000.00
00607              39.20     4400.00
00608              14.40     4400.00
00609             -50.00     5000.00
00610              50.00     5200.00
00611              18.80     5200.00
00612             -50.00     5600.00
00613              32.80     5800.00
00614              18.80     6200.00
00615             -14.00     6400.00
00616              -3.60     6800.00
00617               7.60     6800.00
00618              24.40     7000.00
00619             -28.80     7200.00
00620               4.00     7600.00
00621              32.40     7800.00
00622             -22.80     8200.00
00623              -1.20     8200.00
00624              27.60     8600.00
00625               0.80     8800.00
00626             -18.00     9000.00
00627              13.60     9200.00
00628              19.60     9400.00
00629             -14.00     9800.00
00630               2.00    10000.00
00631              18.80    10200.00
00632               5.20    10400.00
00633              -8.40    10400.00
00634              10.40    10800.00
00635              15.60    11000.00
00636              -9.20    11200.00
00637               8.40    11600.00
00638              17.20    11600.00
00639              -1.60    11800.00
00640               1.20    12000.00
00641              15.60    12000.00
00642               6.80    12400.00
00643              -2.40    12600.00
00644              12.00    12800.00
00645              13.60    13000.00
00646               2.80    13200.00
00647               5.60    13200.00
00648              15.20    13400.00
00649               7.60    13400.00
00650               3.60    13600.00
00651              13.60    14000.00
00652              13.20    14000.00
00653               4.40    14200.00
00654              12.00    14400.00
00655              16.40    14400.00
00656               6.80    14600.00
00657              10.40    14800.00
00658              16.80    14800.00
00659              11.60    15000.00
00660              10.40    15000.00
00661              16.80    15200.00
00662              15.60    15200.00
00663              11.60    15400.00
00664              16.40    15400.00
00665              18.00    15600.00
00666              15.20    15800.00
00667              17.20    15800.00
00668              20.00    15800.00
00669              18.80    15800.00
00670              18.00    16000.00
00671              21.20    16200.00
00672              22.00    16000.00
00673              20.80    16000.00
00674              22.80    16200.00
00675              26.00    16200.00
00676              24.40    16200.00
00677              25.20    16400.00
00678              28.00    16400.00
00679              28.40    16400.00
00680              27.60    16600.00
00681              30.80    16400.00
00682              32.40    16400.00
00683              30.80    16400.00
00684              32.00    16400.00
00685              33.20    16400.00
00686              32.80    16600.00
00687              32.80    16400.00
00688              34.00    16400.00
00689              32.80    16600.00
00690              30.80    16400.00
00691              30.00    16400.00
00692              28.40    16400.00
00693              27.20    16200.00
00694              26.00    16400.00
00695              25.20    16200.00
00696              24.00    16400.00
00697              22.80    16200.00
00698              21.20    16000.00
00699              21.60    16000.00
00700              20.00    16000.00
00701              18.80    16000.00
00702              18.80    16000.00
00703              18.40    15800.00
00704              17.20    15800.00
00705              17.20    15600.00
00706              16.40    15600.00
00707              16.00    15600.00
00708              14.80    15400.00
00709              14.00    15200.00
00710              14.00    15200.00
00711              13.60    15000.00
00712              12.80    15000.00
00713              13.60    14800.00
00714              12.40    14600.00
00715              11.60    14600.00
00716              11.60    14400.00
00717              11.60    14600.00
00718              10.80    14200.00
00719              10.40    14000.00
00720              10.00    13800.00
00721              10.00    13600.00
00722               8.80    13600.00
00723               9.20    13400.00
00724               8.80    13200.00
00725               8.40    13200.00
00726               8.40    12800.00
00727               8.40    12600.00
00728               7.60    12600.00
00729               7.60    12400.00
00730               7.20    12400.00
00731               6.80    12000.00
00732               7.20    12000.00
00733               6.80    11600.00
00734               6.00    11600.00
00735               6.00    11400.00
00736               6.00    11000.00
00737               5.20    10800.00
00738               4.80    10600.00
00739               5.60    10400.00
00740               5.20    10400.00
00741               4.00    10200.00
00742               4.40    10000.00
00743               4.00     9600.00
00744               4.00     9400.00
00745               4.00     9200.00
00746               4.00     9000.00
00747               3.60     8800.00
00748               4.00     8400.00
00749               3.60     8200.00
00750               2.80     8000.00
00751               2.80     7800.00
00752               2.80     7600.00
00753               2.80     7200.00
00754               2.40     7000.00
00755               2.40     6800.00
00756               2.40     6400.00
00757               2.00     6200.00
00758               2.00     6000.00
00759               2.00     6000.00
00760               2.00     5600.00
00761               1.20     5200.00
00762               2.40     5000.00
00763               1.20     4800.00
00764               1.20     4600.00
00765               2.00     4200.00
00766               1.20     4000.00
00767               0.80     3800.00
00768               1.20     3600.00
00769               0.80     3200.00
00770               0.80     3000.00
00771               0.80     2800.00
00772               0.40     2400.00
00773               0.40     2000.00
00774               0.80     1800.00
00775               0.40     1600.00
00776               0.40     1400.00
00777               0.40     1000.00
00778               0.40      800.00
00779               0.00      400.00
00780               0.40      200.00
00781               0.40        0.00
00782               0.00     -200.00
00783               0.80     -400.00
00784               2.40     -800.00
00785              -1.60    -1000.00
00786              -2.00    -1200.00
00787               0.80    -1400.00
00788              -0.40    -1800.00
00789              -1.60    -2000.00
00790              10.00    -2000.00
00791              30.80    -2800.00
00792             -30.00    -3200.00
00793             -41.20    -3400.00
00794              22.80    -3600.00
00795             -10.00    -3400.00
00796              11.60    -3800.00
00797              40.40    -4400.00
00798             -50.00    -4200.00
00799              50.00    -4600.00
00800              50.00    -5200.00
00801             -50.00    -5000.00
00802              43.60    -5600.00
00803              50.00    -5800.00
00804             -50.00    -5800.00
00805              29.20    -6400.00
00806              -2.80    -6400.00
00807               8.80    -6800.00
00808             -12.40    -7000.00
00809             -34.00    -7200.00
00810              50.00    -7600.00
00811             -36.00    -7400.00
00812             -20.00    -8200.00
00813              32.40    -8200.00
00814              -9.60    -8400.00
00815             -14.80    -8800.00
00816             -17.20    -9000.00
00817              30.00    -9200.00
00818             -24.80    -9200.00
00819             -19.60    -9800.00
00820              21.60   -10000.00
00821             -13.20   -10000.00
00822              -6.40   -10400.00
00823             -13.60   -10400.00
00824              11.60   -10800.00
00825             -16.00   -10800.00
00826             -17.20   -11200.00
00827              16.40   -11400.00
00828             -15.20   -11400.00
00829             -11.20   -11600.00
00830              -0.40   -12000.00
00831              -4.00   -12200.00
00832             -16.80   -12400.00
00833              -6.00   -12600.00
00834              -1.20   -12600.00
00835             -12.00   -12800.00
00836             -10.40   -13200.00
00837              -4.40   -13200.00
00838              -8.00   -13200.00
00839             -15.20   -13600.00
00840              -4.40   -13600.00
00841              -8.80   -13800.00
00842             -13.20   -13800.00
00843              -9.20   -14000.00
00844              -6.00   -14200.00
00845             -14.00   -14400.00
00846             -14.00   -14400.00
00847              -6.80   -14800.00
00848             -14.80   -14800.00
00849             -15.20   -14800.00
00850             -10.40   -14800.00
00851             -11.60   -15000.00
00852             -18.00   -15200.00
00853             -14.00   -15400.00
00854             -12.40   -15400.00
00855             -18.80   -15600.00
00856             -17.20   -15400.00
00857             -14.00   -15600.00
00858             -16.80   -15800.00
00859             -21.20   -15800.00
00860             -18.80   -16000.00
00861             -18.40   -16200.00
00862             -23.60   -16200.00
00863             -22.80   -16200.00
00864             -20.40   -16200.00
00865             -24.40   -16200.00
00866             -26.40   -16400.00
00867             -25.20   -16400.00
00868             -26.80   -16400.00
00869             -29.20   -16400.00
00870             -29.20   -16400.00
00871             -27.60   -16400.00
00872             -31.20   -16400.00
00873             -32.80   -16600.00
00874             -31.60   -16600.00
00875             -32.80   -16400.00
00876             -34.40   -16400.00
00877             -34.00   -16600.00
00878             -32.80   -16400.00
00879             -34.40   -16400.00
00880             -33.20   -16400.00
00881             -31.20   -16400.00
00882             -30.00   -16400.00
00883             -29.20   -16400.00
00884             -27.60   -16400.00
00885             -26.00   -16400.00
00886             -24.80   -16200.00
00887             -24.40   -16200.00
00888             -23.20   -16200.00
00889             -22.00   -16000.00
00890             -21.60   -16000.00
00891             -20.40   -16000.00
00892             -20.00   -16000.00
00893             -18.80   -16000.00
00894             -18.40   -15800.00
00895             -18.00   -15600.00
00896             -17.20   -15400.00
00897             -15.60   -15400.00
00898             -16.40   -15400.00
00899             -15.20   -15200.00
00900             -14.00   -15200.00
00901             -15.20   -15200.00
00902             -14.00   -15200.00
00903             -13.20   -14800.00
00904             -12.40   -14800.00
00905             -12.40   -14600.00
00906             -12.00   -14400.00
00907             -12.00   -14400.00
00908             -12.00   -14400.00
00909             -10.80   -14000.00
00910             -10.80   -14000.00
00911             -10.40   -13800.00
00912              -9.60   -13600.00
00913             -10.00   -13400.00
00914              -8.80   -13400.00
00915              -8.80   -13200.00
00916              -9.20   -13000.00
00917              -7.60   -12800.00
00918              -7.60   -12800.00
00919              -8.80   -12400.00
00920              -7.20   -12200.00
00921              -7.20   -12200.00
00922              -8.40   -12000.00
00923              -6.00   -11600.00
00924              -6.00   -11600.00
00925              -7.60   -11200.00
00926              -6.00   -11000.00
00927              -5.20   -11000.00
00928              -7.20   -10600.00
00929              -6.00   -10400.00
00930              -4.40   -10200.00
00931              -6.00   -10000.00
00932              -5.60   -10000.00
00933              -4.40    -9800.00
00934              -5.60    -9400.00
00935              -5.60    -9200.00
00936              -4.40    -9000.00
00937              -4.40    -8800.00
00938              -5.20    -8600.00
00939              -3.60    -8200.00
00940              -4.40    -8000.00
00941              -4.40    -7800.00
00942              -4.00    -7600.00
00943              -4.00    -7400.00
00944              -4.00    -7200.00
00945              -3.60    -6800.00
00946              -3.60    -6600.00
00947              -2.80    -6400.00
00948              -2.80    -6000.00
00949              -3.60    -6000.00
00950              -3.20    -5600.00
00951              -2.40    -5200.00
00952              -3.20    -5200.00
00953              -2.40    -4800.00
00954              -2.00    -4600.00
00955              -2.80    -4400.00
00956              -2.40    -4200.00
00957              -1.20    -4000.00
00958              -2.00    -3600.00
00959              -1.60    -3400.00
00960              -2.00    -3200.00
00961              -1.20    -2800.00
00962              -2.00    -2600.00
00963              -1.20    -2200.00
00964              -1.20    -2000.00
00965              -1.20    -1800.00
00966              -1.20    -1600.00
00967              -0.80    -1200.00
00968              -1.20    -1000.00
00969              -0.80     -600.00
00970              -0.40     -400.00
00971               0.40        0.00
00972              -0.80      200.00
00973               0.40      400.00
00974               2.80      600.00
00975               0.40      800.00
00976              -1.20     1200.00
00977               1.20     1800.00
00978               2.00     1800.00
00979              -0.40     2000.00
00980               0.80     2200.00
00981              10.40     2400.00
00982              23.20     2800.00
00983             -13.60     3200.00
00984             -36.40     3600.00
00985              11.60     3600.00
00986              13.60     3600.00
00987             -30.80     4000.00
00988              40.80     4400.00
00989              12.00     4400.00
00990             -50.00     5000.00
00991              50.00     5200.00
00992              16.80     5200.00
00993             -50.00     5600.00
00994              34.00     6000.00
00995              18.00     6000.00
00996             -14.00     6400.00
00997              -3.60     6600.00
00998               8.40     7000.00
00999              23.60     7200.00
01000             -29.20     7400.00
01001               5.20     7400.00
01002              31.60     7800.00
01003             -23.20     8200.00
01004              -0.80     8400.00
01005              27.60     8600.00
01006               0.40     8800.00
01007             -18.00     9000.00
01008              13.60     9200.00
01009              18.80     9600.00
01010             -14.00     9600.00
01011               2.80    10000.00
01012              18.40    10200.00
01013               5.20    10400.00
01014              -8.80    10400.00
01015              10.00    10800.00
01016              16.40    11000.00
01017              -9.20    11200.00
01018               7.60    11400.00
01019              18.40    11600.00
01020              -2.00    11800.00
01021               0.80    12000.00
01022              16.40    12000.00
01023               6.40    12400.00
01024              -2.40    12400.00
01025              12.80    12800.00
01026              13.60    12800.00
01027               2.40    13200.00
01028               6.00    13200.00
01029              15.20    13400.00
01030               6.80    13400.00
01031               4.00    13600.00
01032              14.00    13800.00
01033              12.00    14000.00
01034               4.40    14000.00
01035              12.40    14200.00
01036              16.40    14400.00
01037               6.40    14600.00
01038              10.40    14800.00
01039              17.20    14800.00
01040              11.60    15000.00
01041              10.40    15000.00
01042              18.00    15200.00
01043              15.20    15200.00
01044              11.60    15400.00
01045              16.80    15400.00
01046              18.00    15600.00
01047              15.20    15600.00
01048              17.20    15800.00
01049              20.00    15800.00
01050              19.60    15800.00
01051              18.00    16000.00
01052              20.00    16000.00
01053              23.60    16000.00
01054              21.20    16200.00
01055              22.00    16200.00
01056              26.80    16200.00
01057              24.80    16400.00
01058              24.40    16400.00
01059              29.20    16400.00
01060              28.40    16400.00
01061              27.60    16400.00
01062              30.80    16400.00
01063              32.00    16600.00
01064              31.20    16400.00
01065              31.20    16400.00
01066              33.20    16400.00
01067              33.20    16400.00
01068              32.80    16400.00
01069              33.60    16600.00
01070              33.20    16400.00
01071              31.20    16400.00
01072              29.20    16400.00
01073              29.20    16400.00
01074              27.60    16400.00
01075              24.80    16400.00
01076              25.20    16400.00
01077              23.60    16200.00
01078              22.80    16200.00
01079              21.60    16200.00
01080              20.40    16000.00
01081              20.40    16000.00
01082              18.80    15800.00
01083              18.00    16000.00
01084              19.20    15800.00
01085              18.00    15800.00
01086              16.40    15600.00
01087              16.40    15600.00
01088              16.00    15400.00
01089              14.80    15600.00
01090              14.00    15200.00
01091              14.80    15200.00
01092              14.00    15000.00
01093              12.40    14800.00
01094              13.60    14800.00
01095              12.40    14800.00
01096              11.60    14600.00
01097              11.60    14400.00
01098              10.80    14400.00
01099              10.40    14200.00
01100              10.80    14000.00
01101               9.20    13800.00
01102              10.40    13600.00
01103              10.40    13600.00
01104               9.20    13400.00
01105              10.00    13200.00
01106               7.60    13200.00
01107               7.20    12800.00
01108               8.00    12800.00
01109               5.20    12600.00
01110               6.80    12400.00
01111               7.60    12400.00
01112               6.80    12000.00
01113               8.40    12000.00
01114               8.40    11800.00
01115               6.80    11600.00
01116               5.60    11200.00
01117               4.40    11000.00
01118               4.80    11000.00
01119               2.80    10800.00
01120               4.00    10400.00
01121               8.00    10200.00
01122               5.20    10000.00
01123               6.00    10000.00
01124               7.20     9600.00
01125               2.00     9400.00
01126               2.80     9200.00
01127               2.40     8800.00
01128               1.20     8600.00
01129               5.20     8400.00
01130               4.40     8400.00
01131               4.40     8000.00
01132               5.20     7800.00
01133               2.00     7400.00
01134               1.20     7200.00
01135               2.00     7000.00
01136              -0.40     6800.00
01137               2.40     6600.00
01138               4.00     6200.00
01139               3.60     6000.00
01140               3.60     5800.00
01141               2.00     5600.00
01142               0.40     5200.00
01143               0.40     5000.00
01144              -0.40     4600.00
01145               2.00     4400.00
01146               2.00     4200.00
01147               2.40     4000.00
01148               3.60     3600.00
01149               1.20     3600.00
01150              -0.40     3200.00
01151              -0.40     2800.00
01152              -1.20     2800.00
01153               0.00     2400.00
01154               1.20     2200.00
01155               1.20     2000.00
01156               2.00     1600.00
01157               0.80     1400.00
01158              -0.40     1200.00
01159              -0.80      800.00
01160              -1.20      400.00
01161              -0.80        0.00
01162               0.80        0.00
01163               0.40     -200.00
01164               2.00     -400.00
01165               4.00     -800.00
01166              -2.40    -1000.00
01167              -2.40    -1200.00
01168               1.20    -1600.00
01169              -1.20    -1600.00
01170              -2.40    -2000.00
01171              11.60    -2400.00
01172              31.20    -2800.00
01173             -31.60    -3200.00
01174             -40.40    -3400.00
01175              23.20    -3600.00
01176             -12.00    -3600.00
01177              12.40    -3600.00
01178              40.40    -4200.00
01179             -50.00    -4200.00
01180              50.00    -4600.00
01181              50.00    -5200.00
01182             -50.00    -5000.00
01183              45.60    -5800.00
01184              50.00    -5800.00
01185             -50.00    -5800.00
01186              30.00    -6400.00
01187              -2.40    -6400.00
01188               9.60    -7000.00
01189             -12.80    -7000.00
01190             -33.20    -7200.00
01191              50.00    -7800.00
01192             -36.80    -7400.00
01193             -18.80    -8200.00
01194              31.20    -8200.00
01195              -8.00    -8400.00
01196             -15.60    -8800.00
01197             -17.20    -8800.00
01198              30.80    -9200.00
01199             -26.00    -9200.00
01200             -19.20    -9600.00
01201              22.40   -10000.00
01202             -14.00   -10000.00
01203              -6.80   -10400.00
01204             -12.40   -10600.00
01205              11.60   -10800.00
01206             -16.80   -10800.00
01207             -16.40   -11200.00
01208              16.40   -11400.00
01209             -15.60   -11400.00
01210             -11.60   -11800.00
01211               0.80   -12000.00
01212              -4.40   -12200.00
01213             -16.80   -12200.00
01214              -5.60   -12400.00
01215              -1.20   -12800.00
01216             -12.00   -12800.00
01217             -10.00   -13000.00
01218              -3.60   -13000.00
01219              -8.40   -13400.00
01220             -15.20   -13400.00
01221              -4.40   -13800.00
01222              -9.20   -13600.00
01223             -13.60   -14000.00
01224              -9.20   -14000.00
01225              -5.60   -14400.00
01226             -14.80   -14400.00
01227             -14.40   -14600.00
01228              -6.80   -14600.00
01229             -14.40   -14600.00
01230             -15.20   -14800.00
01231             -10.00   -15000.00
01232             -11.60   -15200.00
01233             -18.40   -15200.00
01234             -14.00   -15400.00
01235             -12.40   -15400.00
01236             -19.60   -15400.00
01237             -17.20   -15400.00
01238             -14.40   -15600.00
01239             -17.20   -15600.00
01240             -20.40   -16000.00
01241             -18.40   -15800.00
01242             -18.40   -16200.00
01243             -23.20   -16000.00
01244             -22.00   -16200.00
01245             -20.40   -16200.00
01246             -24.00   -16200.00
01247             -26.40   -16400.00
01248             -25.20   -16400.00
01249             -26.40   -16400.00
01250             -29.60   -16400.00
01251             -28.40   -16200.00
01252             -27.60   -16400.00
01253             -31.20   -16400.00
01254             -32.40   -16400.00
01255             -31.20   -16600.00
01256             -32.80   -16400.00
01257             -34.40   -16600.00
01258             -33.20   -16400.00
01259             -33.20   -16400.00
01260             -34.40   -16400.00
01261             -32.80   -16400.00
01262             -31.20   -16600.00
01263             -31.20   -16400.00
01264             -28.40   -16400.00
01265             -27.20   -16400.00
01266             -26.40   -16400.00
01267             -24.80   -16200.00
01268             -23.60   -16200.00
01269             -23.60   -16200.00
01270             -22.80   -16000.00
01271             -21.20   -16200.00
01272             -20.40   -16000.00
01273             -19.60   -15800.00
01274             -18.80   -16000.00
01275             -18.40   -15600.00
01276             -18.00   -15600.00
01277             -17.20   -15600.00
01278             -16.40   -15600.00
01279             -16.40   -15400.00
01280             -15.60   -15200.00
01281             -14.80   -15200.00
01282             -14.80   -15000.00
01283             -14.80   -15000.00
01284             -13.20   -14800.00
01285             -12.40   -14600.00
01286             -12.40   -14600.00
01287             -12.00   -14600.00
01288             -12.00   -14400.00
01289             -11.60   -14200.00
01290             -11.60   -14200.00
01291             -10.40   -14000.00
01292             -10.00   -13800.00
01293             -10.00   -13600.00
01294             -10.40   -13600.00
01295              -8.80   -13200.00
01296              -9.20   -13200.00
01297              -9.20   -13000.00
01298              -7.60   -12800.00
01299              -7.60   -12600.00
01300              -8.80   -12400.00
01301              -7.60   -12200.00
01302              -7.60   -12200.00
01303              -7.60   -12000.00
01304              -6.80   -11600.00
01305              -6.00   -11400.00
01306              -6.80   -11400.00
01307              -6.40   -11000.00
01308              -5.60   -11000.00
01309              -6.00   -10800.00
01310              -6.00   -10600.00
01311              -4.80   -10400.00
01312              -5.20   -10000.00
01313              -5.20   -10000.00
01314              -4.40    -9800.00
01315              -5.60    -9600.00
01316              -5.20    -9200.00
01317              -4.40    -9200.00
01318              -4.40    -8800.00
01319              -4.40    -8800.00
01320              -3.60    -8400.00
01321              -4.40    -8000.00
01322              -4.00    -8000.00
01323              -4.00    -7600.00
01324              -3.60    -7400.00
01325              -2.80    -7200.00
01326              -4.00    -7000.00
01327              -3.60    -6800.00
01328              -2.40    -6400.00
01329              -2.80    -6000.00
01330              -3.60    -6000.00
01331              -2.40    -5600.00
01332              -2.00    -5400.00
01333              -3.60    -5000.00
01334              -2.40    -4800.00
01335              -2.00    -4400.00
01336              -2.80    -4400.00
01337              -2.40    -4000.00
01338              -1.20    -3800.00
01339              -2.00    -3600.00
01340              -2.40    -3400.00
01341              -1.20    -3200.00
01342              -1.20    -2800.00
01343              -2.40    -2600.00
01344              -1.20    -2400.00
01345              -0.80    -2000.00
01346              -2.00    -1800.00
01347              -1.20    -1400.00
01348              -0.40    -1200.00
01349              -1.20    -1000.00
01350              -0.80     -800.00
01351               0.40     -400.00
01352               0.40        0.00
01353              -0.40        0.00
01354               0.40      400.00
01355               2.80      600.00
01356              -0.40      800.00
01357              -1.60     1000.00
01358               1.60     1400.00
01359               2.00     1800.00
01360               0.40     2000.00
01361               1.20     2200.00
01362              10.40     2800.00
01363              23.60     2800.00
01364             -14.00     3200.00
01365             -36.80     3600.00
01366              13.20     3600.00
01367              13.60     3600.00
01368             -31.60     4000.00
01369              41.20     4400.00
01370              12.80     4400.00
01371             -50.00     4800.00
01372              50.00     5200.00
01373              16.40     5200.00
01374             -50.00     5600.00
01375              34.00     6000.00
01376              18.00     6000.00
01377             -13.20     6400.00
01378              -3.60     6600.00
01379               8.40     7000.00
01380              24.00     7200.00
01381             -28.00     7200.00
01382               4.00     7600.00
01383              31.60     7800.00
01384             -20.80     8200.00
01385              -1.20     8400.00
01386              27.60     8600.00
01387               1.60     8800.00
01388             -18.00     9200.00
01389              13.20     9200.00
01390              18.80     9400.00
01391             -12.40     9600.00
01392               1.60    10000.00
01393              18.00    10200.00
01394               6.80    10400.00
01395              -9.20    10600.00
01396              10.40    10800.00
01397              15.60    11000.00
01398              -9.20    11200.00
01399               7.60    11400.00
01400              17.20    11800.00
01401              -0.80    11800.00
01402               0.80    12000.00
01403              15.60    12000.00
01404               6.80    12400.00
01405              -2.40    12600.00
01406              13.20    12800.00
01407              12.40    12800.00
01408               2.00    13000.00
01409               8.40    13200.00
01410              13.60    13400.00
01411               5.60    13400.00
01412               6.00    13600.00
01413              13.20    14000.00
01414              10.40    14000.00
01415               5.20    14200.00
01416              13.60    14200.00
01417              14.80    14400.00
01418               5.60    14600.00
01419              13.20    14600.00
01420              16.00    14800.00
01421              10.00    15000.00
01422              11.60    15000.00
01423              16.80    15200.00
01424              14.00    15200.00
01425              13.20    15400.00
01426              17.20    15600.00
01427              16.80    15600.00
01428              15.20    15600.00
01429              18.00    15600.00
01430              19.60    15800.00
01431              19.20    15800.00
01432              18.80    15800.00
01433              20.40    16000.00
01434              22.00    16000.00
01435              21.20    16200.00
01436              23.20    16000.00
01437              26.00    16400.00
01438              24.80    16400.00
01439              25.60    16400.00
01440              28.40    16400.00
01441              28.40    16400.00
01442              28.00    16400.00
01443              30.80    16400.00
01444              31.60    16400.00
01445              30.80    16400.00
01446              32.40    16600.00
01447              34.00    16600.00
01448              32.80    16400.00
01449              32.40    16400.00
01450              34.40    16600.00
01451              32.80    16400.00
01452              30.40    16400.00
01453              30.80    16400.00
01454              29.60    16400.00
01455              26.00    16400.00
01456              26.00    16000.00
01457              25.20    16400.00
01458              23.20    16200.00
01459              22.00    16200.00
01460              22.00    16000.00
01461              20.80    16000.00
01462              19.20    16000.00
01463              19.60    16000.00
01464              18.80    15800.00
01465              17.60    15800.00
01466              17.20    15800.00
01467              17.60    15600.00
01468              15.20    15600.00
01469              14.80    15600.00
01470              15.60    15400.00
01471              13.60    15200.00
01472              13.60    15200.00
01473              13.60    15200.00
01474              13.20    15000.00
01475              12.40    14800.00
01476              12.00    14600.00
01477              12.40    14600.00
01478              11.60    14400.00
01479              10.80    14200.00
01480              10.80    14200.00
01481              10.00    14000.00
01482              10.00    14000.00
01483              10.00    13600.00
01484               9.60    13600.00
01485               8.40    13400.00
01486               8.40    13200.00
01487               8.40    13000.00
01488               8.00    12800.00
01489               7.20    12800.00
01490               8.40    12600.00
01491               7.20    12400.00
01492               7.20    12400.00
01493               6.00    12000.00
01494               7.20    11800.00
01495               6.00    11800.00
01496               6.00    11400.00
01497               6.00    11200.00
01498               5.60    11200.00
01499               5.60    10800.00
01500               5.20    10600.00
01501               5.20    10400.00
01502               5.60    10200.00
01503               4.40    10000.00
01504               4.00     9800.00
01505               5.20     9600.00
01506               4.40     9400.00
01507               2.40     9200.00
01508               4.00     8800.00
01509               4.80     8800.00
01510               2.40     8400.00
01511               3.60     8200.00
01512               4.40     8000.00
01513               3.60     7600.00
01514               2.00     7600.00
01515               3.60     7200.00
01516               4.00     7000.00
01517               1.20     6800.00
01518               1.60     6400.00
01519               3.60     6200.00
01520               2.00     6000.00
01521               0.80     5600.00
01522               2.80     5600.00
01523               2.40     5200.00
01524               0.80     5000.00
01525               1.60     4800.00
01526               2.40     4400.00
01527               0.80     4000.00
01528               1.20     3800.00
01529               1.60     3600.00
01530               0.80     3400.00
01531               0.80     3200.00
01532               0.80     2800.00
01533               0.80     2800.00
01534               0.80     2400.00
01535               0.40     2000.00
01536               0.40     2000.00
01537               0.40     1600.00
01538               0.40     1400.00
01539               0.40     1000.00
01540               0.00      800.00
01541              -0.80      400.00
01542               0.80      200.00
01543               0.00        0.00
01544              -0.80     -400.00
01545               1.20     -400.00
01546               2.80     -800.00
01547              -2.00    -1000.00
01548              -1.60    -1400.00
01549               1.20    -1600.00
01550              -0.40    -1800.00
01551              -2.00    -2000.00
01552              10.40    -2200.00
01553              31.20    -2800.00
01554             -31.60    -3200.00
01555             -40.80    -3400.00
01556              23.20    -3600.00
01557             -10.80    -3600.00
01558              13.60    -3600.00
01559              39.60    -4400.00
01560             -50.00    -4000.00
01561              50.00    -4800.00
01562              50.00    -5200.00
01563             -50.00    -5000.00
01564              47.60    -5800.00
01565              48.80    -5600.00
01566             -50.00    -5800.00
01567              30.80    -6400.00
01568              -3.60    -6200.00
01569              10.00    -6800.00
01570             -14.00    -7000.00
01571             -32.00    -7200.00
01572              50.00    -7800.00
01573             -37.60    -7400.00
01574             -18.00    -8000.00
01575              31.60    -8200.00
01576              -9.20    -8200.00
01577             -14.80    -8800.00
01578             -16.40    -8800.00
01579              30.00    -9200.00
01580             -25.20    -9200.00
01581             -18.40    -9600.00
01582              21.20   -10000.00
01583             -13.60   -10000.00
01584              -6.00   -10400.00
01585             -13.60   -10400.00
01586              12.00   -10800.00
01587             -16.80   -11000.00
01588             -16.80   -11200.00
01589              15.60   -11400.00
01590             -15.60   -11400.00
01591             -11.60   -11800.00
01592              -0.40   -12000.00
01593              -4.00   -12200.00
01594             -17.20   -12400.00
01595              -5.60   -12600.00
01596              -1.20   -12600.00
01597             -12.00   -12800.00
01598             -10.00   -13000.00
01599              -4.00   -13200.00
01600              -8.80   -13200.00
01601             -15.20   -13600.00
01602              -5.20   -13800.00
01603              -9.20   -13800.00
01604             -13.20   -14000.00
01605             -10.00   -14000.00
01606              -6.00   -14200.00
01607             -14.40   -14400.00
01608             -14.80   -14600.00
01609              -7.20   -14800.00
01610             -14.80   -14800.00
01611             -15.20   -14800.00
01612             -10.40   -14800.00
01613             -12.00   -15000.00
01614             -18.40   -15200.00
01615             -14.00   -15200.00
01616             -12.80   -15400.00
01617             -18.80   -15400.00
01618             -17.60   -15600.00
01619             -14.40   -15600.00
01620             -17.20   -15800.00
01621             -21.20   -15600.00
01622             -18.80   -16000.00
01623             -18.40   -16000.00
01624             -23.20   -16200.00
01625             -22.80   -16000.00
01626             -20.00   -16200.00
01627             -24.40   -16200.00
01628             -26.40   -16400.00
01629             -24.80   -16400.00
01630             -26.40   -16400.00
01631             -29.20   -16400.00
01632             -29.20   -16400.00
01633             -28.00   -16400.00
01634             -30.80   -16400.00
01635             -32.40   -16400.00
01636             -31.60   -16400.00
01637             -32.80   -16600.00
01638             -34.40   -16400.00
01639             -33.60   -16400.00
01640             -32.80   -16400.00
01641             -34.00   -16400.00
01642             -32.80   -16400.00
01643             -31.20   -16400.00
01644             -30.40   -16400.00
01645             -29.20   -16400.00
01646             -27.20   -16400.00
01647             -26.00   -16400.00
01648             -24.80   -16400.00
01649             -24.80   -16200.00
01650             -23.60   -16200.00
01651             -21.60   -16200.00
01652             -21.60   -16000.00
01653             -20.40   -16000.00
01654             -18.80   -16000.00
01655             -18.80   -16000.00
01656             -18.80   -15800.00
01657             -18.00   -15600.00
01658             -16.80   -15600.00
01659             -16.80   -15600.00
01660             -16.40   -15200.00
01661             -15.20   -15400.00
01662             -14.80   -15200.00
01663             -15.20   -15200.00
01664             -14.00   -15000.00
01665             -13.20   -14800.00
01666             -13.60   -14600.00
01667             -12.40   -14600.00
01668             -12.40   -14600.00
01669             -12.00   -14400.00
01670             -12.00   -14200.00
01671             -11.60   -14000.00
01672             -10.40   -14000.00
01673             -10.00   -13800.00
01674             -10.80   -13600.00
01675             -10.00   -13400.00
01676              -8.40   -13400.00
01677             -10.40   -13200.00
01678              -8.80   -13000.00
01679              -7.20   -12800.00
01680              -8.80   -12600.00
01681              -8.80   -12400.00
01682              -6.80   -12200.00
01683              -7.60   -12000.00
01684              -8.40   -12000.00
01685              -6.00   -11600.00
01686              -6.00   -11600.00
01687              -7.20   -11400.00
01688              -6.00   -11000.00
01689              -5.20   -10800.00
01690              -7.20   -10600.00
01691              -6.00   -10400.00
01692              -4.80   -10200.00
01693              -5.60   -10200.00
01694              -5.20    -9800.00
01695              -4.00    -9600.00
01696              -5.60    -9600.00
01697              -4.80    -9200.00
01698              -4.40    -9200.00
01699              -4.40    -8800.00
01700              -4.00    -8400.00
01701              -3.20    -8400.00
01702              -4.40    -8000.00
01703              -4.00    -8000.00
01704              -4.00    -7600.00
01705              -3.60    -7400.00
01706              -2.80    -7200.00
01707              -3.60    -6800.00
01708              -3.60    -6800.00
01709              -2.40    -6400.00
01710              -2.80    -6000.00
01711              -4.00    -6000.00
01712              -2.00    -5600.00
01713              -2.40    -5400.00
01714              -2.80    -5000.00
01715              -2.40    -4800.00
01716              -2.00    -4600.00
01717              -2.40    -4400.00
01718              -2.40    -4000.00
01719              -1.60    -3800.00
01720              -2.00    -3600.00
01721              -2.00    -3200.00
01722              -2.00    -3200.00
01723              -1.20    -2800.00
01724              -2.00    -2600.00
01725              -2.00    -2200.00
01726              -0.80    -2000.00
01727              -1.20    -1800.00
01728              -1.20    -1600.00
01729              -0.80    -1200.00
01730              -0.80    -1000.00
01731              -0.80     -800.00
01732              -0.80     -400.00
01733               0.00     -200.00
01734              -0.80        0.00
01735               0.00      400.00
01736               3.60      600.00
01737              -0.40      800.00
01738              -1.60     1200.00
01739               2.00     1400.00
01740               1.20     1800.00
01741              -0.80     2000.00
01742               2.00     2200.00
01743              10.00     2400.00
01744              22.80     3000.00
01745             -13.60     3200.00
01746             -36.40     3400.00
01747              12.00     3600.00
01748              13.60     3800.00
01749             -30.80     4000.00
01750              41.20     4400.00
01751              10.80     4400.00
01752             -50.00     4800.00
01753              50.00     5200.00
01754              14.40     5200.00
01755             -50.00     5600.00
01756              34.80     5600.00
01757              17.20     6200.00
01758             -13.20     6400.00
01759              -3.20     6600.00
01760               9.20     7000.00
01761              24.00     7200.00
01762             -29.60     7200.00
01763               6.00     7600.00
01764              31.60     7800.00
01765             -23.20     8200.00
01766               0.40     8400.00
01767              27.60     8600.00
01768               0.40     8800.00
01769             -18.00     9200.00
01770              14.80     9200.00
01771              18.40     9400.00
01772             -14.00     9800.00
01773               3.60    10000.00
01774              18.80    10200.00
01775               4.40    10200.00
01776              -8.40    10600.00
01777              10.80    10800.00
01778              14.80    11000.00
01779              -9.20    11200.00
01780               8.80    11200.00
01781              17.20    11600.00
01782              -1.60    11800.00
01783               1.20    12000.00
01784              16.40    12000.00
01785               6.00    12400.00
01786              -2.40    12600.00
01787              12.40    12800.00
01788              13.20    12800.00
01789               2.00    13000.00
01790               6.80    13200.00
01791              14.80    13400.00
01792               6.80    13400.00
01793               4.00    13600.00
01794              14.00    13800.00
01795              12.00    14000.00
01796               4.00    14000.00
01797              12.00    14200.00
01798              16.40    14400.00
01799               6.00    14600.00
01800              10.40    14600.00
01801              17.20    14800.00
01802              11.20    15000.00
01803              10.40    15000.00
01804              17.20    15000.00
01805              15.20    15200.00
01806              11.60    15400.00
01807              16.40    15600.00
01808              18.00    15600.00
01809              15.20    15600.00
01810              17.20    15600.00
01811              20.00    15800.00
01812              19.20    15800.00
01813              18.00    15800.00
01814              21.20    15800.00
01815              23.20    16000.00
01816              20.40    16200.00
01817              22.80    16000.00
01818              26.40    16200.00
01819              24.80    16400.00
01820              24.80    16400.00
01821              28.40    16400.00
01822              28.40    16400.00
01823              27.60    16400.00
01824              30.00    16400.00
01825              32.80    16600.00
01826              30.40    16400.00
01827              31.60    16400.00
01828              34.00    16400.00
01829              32.80    16400.00
01830              32.80    16400.00
01831              34.40    16600.00
01832              32.80    16400.00
01833              30.40    16400.00
01834              30.80    16400.00
01835              29.20    16400.00
01836              26.40    16400.00
01837              26.00    16400.00
01838              26.40    16400.00
01839              23.20    16200.00
01840              22.00    16200.00
01841              22.00    16200.00
01842              21.20    16000.00
01843              18.40    16000.00
01844              18.80    16000.00
01845              20.40    15800.00
01846              16.80    15800.00
01847              16.80    15600.00
01848              18.00    15600.00
01849              15.20    15600.00
01850              14.00    15600.00
01851              15.60    15600.00
01852              14.80    15200.00
01853              13.60    15200.00
01854              13.60    15000.00
01855              13.60    15000.00
01856              12.40    14800.00
01857              12.00    14800.00
01858              11.60    14600.00
01859              12.00    14400.00
01860              10.40    14200.00
01861              10.40    14200.00
01862              10.40    14000.00
01863              10.00    14000.00
01864               9.20    13600.00
01865               8.80    13400.00
01866               8.80    13400.00
01867               8.40    13200.00
01868               8.40    13200.00
01869               8.40    12800.00
01870               7.20    12800.00
01871               7.60    12600.00
01872               7.60    12400.00
01873               6.80    12400.00
01874               6.80    12000.00
01875               6.80    11800.00
01876               6.00    11600.00
01877               5.20    11400.00
01878               6.80    11200.00
01879               6.00    11000.00
01880               5.20    10800.00
01881               5.60    10800.00
01882               5.60    10400.00
01883               4.40    10200.00
01884               4.40    10000.00
01885               5.20     9600.00
01886               4.00     9600.00
01887               4.00     9200.00
01888               4.80     9200.00
01889               4.00     8800.00
01890               3.60     8800.00
01891               4.00     8400.00
01892               3.60     8400.00
01893               2.80     8000.00
01894               4.00     7800.00
01895               2.80     7400.00
01896               2.40     7200.00
01897               3.60     7000.00
01898               3.20     6800.00
01899               2.40     6400.00
01900               2.40     6400.00
01901               2.80     6000.00
01902               2.00     6000.00
01903               2.40     5600.00
01904               2.00     5200.00
01905               2.00     5000.00
01906               2.00     4800.00
01907               1.60     4400.00
01908               0.80     4000.00
01909               1.20     4000.00
01910               1.20     3600.00
01911               0.80     3400.00
01912               1.20     3200.00
01913               0.80     3000.00
01914               0.80     2600.00
01915               0.40     2400.00
01916               0.40     2000.00
01917               0.40     2000.00
01918               0.80     1600.00
01919               0.40     1400.00
01920               0.00     1000.00
01921               0.40      800.00
01922              -0.40      400.00
01923              -0.40      400.00
01924               0.40        0.00
01925               0.40     -200.00
01926               0.80     -400.00
01927               2.00     -800.00
01928              -1.20    -1000.00
01929              -2.00    -1200.00
01930               0.40    -1600.00
01931              -0.40    -1800.00
01932              -2.40    -2000.00
01933              10.40    -2200.00
01934              30.80    -2800.00
01935             -32.40    -3200.00
01936             -40.80    -3200.00
01937              23.60    -3600.00
01938             -12.00    -3400.00
01939              14.00    -3800.00
01940              38.40    -4400.00
01941             -50.00    -4200.00
01942              50.00    -4600.00
01943              50.00    -5000.00
01944             -50.00    -5000.00
01945              48.80    -5600.00
01946              47.20    -5600.00
01947             -50.00    -5800.00
01948              30.80    -6400.00
01949              -3.60    -6400.00
01950              10.00    -6800.00
01951             -14.40    -7000.00
01952             -31.60    -7200.00
01953              50.00    -7600.00
01954             -38.80    -7400.00
01955             -17.20    -8200.00
01956              32.00    -8200.00
01957              -9.60    -8400.00
01958             -15.60    -8800.00
01959             -15.60    -8800.00
01960              30.40    -9200.00
01961             -26.40    -9200.00
01962             -17.20    -9600.00
01963              21.60    -9800.00
01964             -14.80   -10000.00
01965              -5.60   -10400.00
01966             -12.00   -10400.00
01967              11.60   -10600.00
01968             -18.00   -10800.00
01969             -15.60   -10800.00
01970              15.60   -11200.00
01971             -15.60   -11400.00
01972             -10.40   -11800.00
01973              -0.80   -12000.00
01974              -4.80   -12000.00
01975             -16.80   -12200.00
01976              -6.00   -12400.00
01977              -2.00   -12800.00
01978             -11.60   -12800.00
01979              -9.20   -13000.00
01980              -4.40   -13200.00
01981              -8.40   -13200.00
01982             -15.60   -13600.00
01983              -5.60   -13600.00
01984              -9.20   -13800.00
01985             -12.40   -13800.00
01986              -9.20   -14000.00
01987              -6.00   -14200.00
01988             -15.20   -14400.00
01989             -14.80   -14400.00
01990              -6.80   -14600.00
01991             -15.20   -14800.00
01992             -15.60   -14800.00
01993             -10.00   -14800.00
01994             -12.00   -15200.00
01995             -18.80   -15200.00
01996             -14.00   -15400.00
01997             -13.20   -15400.00
01998             -20.00   -15600.00
01999             -17.20   -15600.00
02000             -14.80   -15600.00
02001             -18.00   -15600.00
02002             -21.20   -16000.00
02003             -18.40   -16000.00
02004             -18.80   -16200.00
02005             -23.60   -16000.00
02006             -22.00   -16000.00
02007             -20.40   -16200.00
02008             -24.40   -16200.00
02009             -26.40   -16200.00
02010             -24.80   -16200.00
02011             -26.80   -16400.00
02012             -29.60   -16400.00
02013             -28.80   -16400.00
02014             -28.00   -16400.00
02015             -31.20   -16400.00
02016             -32.40   -16400.00
02017             -31.20   -16400.00
02018             -33.20   -16400.00
02019             -34.00   -16600.00
02020             -33.20   -16400.00
02021             -32.80   -16400.00
02022             -34.00   -16400.00
02023             -32.80   -16400.00
02024             -31.20   -16400.00
02025             -30.00   -16400.00
02026             -28.80   -16400.00
02027             -26.80   -16400.00
02028             -26.00   -16200.00
02029             -24.80   -16400.00
02030             -24.40   -16200.00
02031             -23.20   -16200.00
02032             -21.60   -16000.00
02033             -21.20   -16000.00
02034             -20.00   -16000.00
02035             -19.60   -15800.00
02036             -18.40   -15800.00
02037             -18.40   -15600.00
02038             -18.40   -15600.00
02039             -16.80   -15400.00
02040             -15.60   -15400.00
02041             -16.80   -15200.00
02042             -15.60   -15400.00
02043             -14.80   -15200.00
02044             -15.20   -15200.00
02045             -14.00   -15200.00
02046             -13.20   -14800.00
02047             -12.80   -14600.00
02048             -12.40   -14800.00
02049             -12.00   -14400.00
02050             -12.00   -14400.00
02051             -12.00   -14400.00
02052             -11.60   -14000.00
02053             -10.40   -14000.00
02054             -10.40   -13800.00
02055             -10.40   -13600.00
02056              -9.20   -13600.00
02057              -8.80   -13200.00
02058             -10.00   -13200.00
02059              -9.20   -13000.00
02060              -7.60   -12800.00
02061              -8.40   -12400.00
02062              -8.80   -12400.00
02063              -7.60   -12400.00
02064              -7.60   -12200.00
02065              -7.60   -12000.00
02066              -6.00   -11600.00
02067              -6.00   -11600.00
02068              -7.60   -11400.00
02069              -6.80   -11000.00
02070              -5.60   -10800.00
02071              -6.80   -10800.00
02072              -6.00   -10600.00
02073              -4.40   -10400.00
02074              -6.00   -10200.00
02075              -5.20    -9800.00
02076              -4.40    -9600.00
02077              -6.00    -9400.00
02078              -4.40    -9200.00
02079              -4.00    -9000.00
02080              -4.40    -8800.00
02081              -4.40    -8600.00
02082              -3.60    -8200.00
02083              -4.00    -8000.00
02084              -4.00    -8000.00
02085              -3.60    -7600.00
02086              -3.60    -7400.00
02087              -3.20    -7200.00
02088              -3.60    -6800.00
02089              -2.40    -6600.00
02090              -2.80    -6400.00
02091              -3.60    -6200.00
02092              -2.40    -6000.00
02093              -2.00    -5600.00
02094              -2.80    -5400.00
02095              -2.00    -5200.00
02096              -1.20    -4800.00
02097              -3.60    -4600.00
02098              -2.40    -4200.00
02099              -1.20    -4000.00
02100              -2.40    -4000.00
02101              -2.00    -3600.00
02102              -1.20    -3400.00
02103              -1.20    -3200.00
02104              -2.00    -2800.00
02105              -1.20    -2600.00
02106              -1.20    -2400.00
02107              -1.60    -2000.00
02108              -1.20    -1800.00
02109              -0.40    -1600.00
02110              -0.80    -1200.00
02111              -1.20    -1000.00
02112              -0.40     -600.00
02113              -0.40     -400.00
02114              -0.80     -200.00
02115              -0.80      200.00
02116               0.80      400.00
02117               2.00      600.00
02118              -0.40      800.00
02119              -0.80     1200.00
02120               0.80     1400.00
02121               0.80     1800.00
02122              -0.40     2000.00
02123               1.20     2000.00
02124              10.40     2400.00
02125              23.20     3000.00
02126             -14.00     3000.00
02127             -36.40     3600.00
02128              12.40     3600.00
02129              12.40     3600.00
02130             -31.20     4000.00
02131              42.40     4400.00
02132               9.60     4400.00
02133             -50.00     4800.00
02134              50.00     5200.00
02135              13.20     5200.00
02136             -50.00     5600.00
02137              35.20     5800.00
02138              16.80     6000.00
02139             -13.20     6400.00
02140              -3.60     6600.00
02141               8.80     7000.00
02142              23.20     7200.00
02143             -30.00     7200.00
02144               6.00     7600.00
02145              31.20     7800.00
02146             -23.20     8200.00
02147               0.80     8400.00
02148              28.00     8600.00
02149              -0.80     8800.00
02150             -18.00     9000.00
02151              15.20     9200.00
02152              18.00     9400.00
02153             -14.00     9600.00
02154               3.60    10000.00
02155              18.40    10200.00
02156               4.00    10400.00
02157              -8.40    10400.00
02158              11.60    10800.00
02159              14.80    11000.00
02160              -8.80    11200.00
02161               8.40    11600.00
02162              18.00    11600.00
02163              -1.20    11800.00
02164              -0.40    12000.00
02165              15.60    12200.00
02166               8.40    12400.00
02167              -2.00    12600.00
02168              11.60    12600.00
02169              14.00    12800.00
02170               1.60    13000.00
02171               4.40    13200.00
02172              15.60    13400.00
02173               7.20    13600.00
02174               3.60    13600.00
02175              14.40    14000.00
02176              12.00    14000.00
02177               4.00    14000.00
02178              12.00    14400.00
02179              15.20    14400.00
02180               6.80    14600.00
02181              11.60    14600.00
02182              16.40    14800.00
02183              10.00    14800.00
02184              10.80    15000.00
02185              16.40    15200.00
02186              14.80    15400.00
02187              12.40    15200.00
02188              16.80    15400.00
02189              17.20    15600.00
02190              14.80    15600.00
02191              16.80    15600.00
02192              20.00    15800.00
02193              18.40    15800.00
02194              18.00    16000.00
02195              21.20    16200.00
02196              22.80    16000.00
02197              20.40    16000.00
02198              22.80    16200.00
02199              26.00    16200.00
02200              24.40    16200.00
02201              25.20    16400.00
02202              28.00    16200.00
02203              28.40    16400.00
02204              28.00    16400.00
02205              30.00    16400.00
02206              31.60    16400.00
02207              30.80    16400.00
02208              32.00    16600.00
02209              34.00    16400.00
02210              33.20    16400.00
02211              32.80    16400.00
02212              34.00    16400.00
02213              32.80    16600.00
02214              30.80    16400.00
02215              30.00    16400.00
02216              28.80    16400.00
02217              27.60    16400.00
02218              26.40    16400.00
02219              25.20    16200.00
02220              24.40    16200.00
02221              22.40    16000.00
02222              21.60    16000.00
02223              21.20    16000.00
02224              20.40    16000.00
02225              18.80    16000.00
02226              18.80    15800.00
02227              18.40    15800.00
02228              18.00    15800.00
02229              16.40    15800.00
02230              16.00    15600.00
02231              16.00    15600.00
02232              14.80    15600.00
02233              14.00    15200.00
02234              14.00    15200.00
02235              13.60    15000.00
02236              12.40    15000.00
02237              12.80    14800.00
02238              12.40    14600.00
02239              11.60    14400.00
02240              11.60    14600.00
02241              11.20    14400.00
02242              10.40    14000.00
02243              10.40    14000.00
02244               8.80    13800.00
02245               9.20    13600.00
02246              10.40    13400.00
02247               8.00    13400.00
02248               7.60    13200.00
02249              10.00    12800.00
02250               7.60    12800.00
02251               6.00    12600.00
02252               8.80    12400.00
02253               7.20    12400.00
02254               5.20    12200.00
02255               7.20    12000.00
02256               7.20    11800.00
02257               5.20    11600.00
02258               5.60    11400.00
02259               7.20    11200.00
02260               5.20    11000.00
02261               4.40    11000.00
02262               6.00    10800.00
02263               5.20    10400.00
02264               4.40    10200.00
02265               5.20    10000.00
02266               5.20     9800.00
02267               3.60     9600.00
02268               4.00     9400.00
02269               4.40     9200.00
02270               4.00     8800.00
02271               3.60     8600.00
02272               4.00     8400.00
02273               4.00     8200.00
02274               2.80     8000.00
02275               3.60     7800.00
02276               3.60     7600.00
02277               2.40     7200.00
02278               2.80     7000.00
02279               3.60     6800.00
02280               2.40     6400.00
02281               2.00     6400.00
02282               2.40     6000.00
02283               2.40     5800.00
02284               1.60     5600.00
02285               2.00     5400.00
02286               2.80     5000.00
02287               1.20     4800.00
02288               1.20     4400.00
02289               2.40     4400.00
02290               1.20     4000.00
02291               0.40     3600.00
02292               2.40     3400.00
02293               1.20     3200.00
02294               0.40     3000.00
02295               1.20     2800.00
02296               0.80     2400.00
02297               0.40     2200.00
02298               0.80     2000.00
02299               0.80     1600.00
02300               0.40     1400.00
02301              -0.40     1200.00
02302               0.40      800.00
02303              -0.40      600.00
02304              -0.40      200.00
02305              -0.40        0.00
02306              -0.40     -400.00
02307               0.80     -400.00
02308               2.00     -800.00
02309              -1.60    -1000.00
02310              -2.40    -1400.00
02311               0.40    -1600.00
02312               0.40    -1800.00
02313              -2.00    -2000.00
02314              10.00    -2200.00
02315              30.80    -2800.00
02316             -32.80    -3200.00
02317             -40.40    -3400.00
02318              23.20    -3600.00
02319             -12.00    -3600.00
02320              13.60    -3800.00
02321              37.60    -4400.00
02322             -50.00    -4200.00
02323              50.00    -4800.00
02324              50.00    -5200.00
02325             -50.00    -5000.00
02326              49.20    -5600.00
02327              46.00    -5600.00
02328             -50.00    -6000.00
02329              31.20    -6400.00
02330              -4.00    -6400.00
02331              10.40    -6800.00
02332             -15.20    -7200.00
02333             -31.60    -7200.00
02334              50.00    -7600.00
02335             -39.20    -7400.00
02336             -16.80    -8200.00
02337              31.20    -8200.00
02338             -10.00    -8400.00
02339             -14.80    -8800.00
02340             -16.00    -8800.00
02341              29.60    -9200.00
02342             -26.00    -9200.00
02343             -17.20    -9600.00
02344              21.20   -10000.00
02345             -13.60   -10000.00
02346              -6.00   -10400.00
02347             -13.20   -10400.00
02348              11.60   -10800.00
02349             -17.20   -10800.00
02350             -15.60   -11200.00
02351              15.60   -11400.00
02352             -15.60   -11400.00
02353             -10.80   -11800.00
02354               0.40   -11800.00
02355              -4.00   -12000.00
02356             -16.80   -12200.00
02357              -5.60   -12400.00
02358              -1.60   -12600.00
02359             -12.00   -12800.00
02360              -9.60   -13000.00
02361              -4.00   -13200.00
02362              -8.80   -13200.00
02363             -14.80   -13400.00
02364              -5.20   -13600.00
02365             -10.00   -13600.00
02366             -13.60   -13800.00
02367              -9.60   -14000.00
02368              -6.80   -14000.00
02369             -14.80   -14400.00
02370             -14.00   -14600.00
02371              -7.60   -14600.00
02372             -15.20   -14800.00
02373             -15.20   -14800.00
02374             -10.80   -15000.00
02375             -12.00   -15200.00
02376             -18.40   -15200.00
02377             -14.00   -15200.00
02378             -13.20   -15400.00
02379             -19.60   -15600.00
02380             -17.20   -15400.00
02381             -14.80   -15600.00
02382             -18.40   -15800.00
02383             -21.60   -16000.00
02384             -18.40   -16000.00
02385             -19.20   -16000.00
02386             -24.40   -16200.00
02387             -22.40   -16200.00
02388             -20.40   -16200.00
02389             -24.80   -16200.00
02390             -26.00   -16400.00
02391             -24.80   -16400.00
02392             -26.40   -16400.00
02393             -29.60   -16400.00
02394             -29.60   -16400.00
02395             -28.00   -16400.00
02396             -31.20   -16400.00
02397             -32.40   -16400.00
02398             -31.20   -16400.00
02399             -33.20   -16400.00
02400             -34.00   -16400.00
02401             -33.20   -16400.00
02402             -33.20   -16400.00
02403             -33.60   -16400.00
02404             -32.80   -16400.00
02405             -31.20   -16600.00
02406             -29.60   -16400.00
02407             -28.40   -16400.00
02408             -27.60   -16400.00
02409             -25.20   -16400.00
02410             -24.80   -16200.00
02411             -24.40   -16200.00
02412             -22.80   -16200.00
02413             -21.60   -16200.00
02414             -21.20   -16000.00
02415             -20.40   -16000.00
02416             -18.80   -15800.00
02417             -18.80   -16000.00
02418             -18.40   -15600.00
02419             -17.20   -15800.00
02420             -16.80   -15600.00
02421             -16.40   -15600.00
02422             -16.00   -15400.00
02423             -15.20   -15400.00
02424             -14.40   -15200.00
02425             -14.80   -15000.00
02426             -14.00   -15000.00
02427             -12.80   -14800.00
02428             -12.80   -14800.00
02429             -12.40   -14600.00
02430             -12.00   -14600.00
02431             -12.00   -14400.00
02432             -12.00   -14200.00
02433             -10.80   -14000.00
02434             -10.40   -14000.00
02435             -10.00   -13800.00
02436             -10.40   -13600.00
02437              -9.60   -13600.00
02438             -10.00   -13200.00
02439              -9.20   -13200.00
02440              -8.80   -13000.00
02441              -8.80   -12800.00
02442              -7.60   -12400.00
02443              -8.40   -12400.00
02444              -8.40   -12400.00
02445              -7.60   -12200.00
02446              -7.60   -12000.00
02447              -7.20   -11600.00
02448              -6.80   -11400.00
02449              -6.80   -11400.00
02450              -6.40   -11000.00
02451              -6.00   -11000.00
02452              -6.80   -10800.00
02453              -6.00   -10600.00
02454              -5.60   -10400.00
02455              -6.00   -10000.00
02456              -5.20    -9800.00
02457              -4.40    -9600.00
02458              -6.00    -9600.00
02459              -5.20    -9200.00
02460              -4.00    -9000.00
02461              -4.40    -8800.00
02462              -4.00    -8600.00
02463              -4.00    -8400.00
02464              -3.60    -8200.00
02465              -3.60    -8000.00
02466              -4.00    -7600.00
02467              -4.00    -7400.00
02468              -2.80    -7200.00
02469              -3.60    -6800.00
02470              -3.20    -6800.00
02471              -2.40    -6400.00
02472              -2.40    -6000.00
02473              -2.80    -5800.00
02474              -2.80    -5600.00
02475              -2.40    -5400.00
02476              -1.60    -5200.00
02477              -3.60    -4600.00
02478              -2.00    -4600.00
02479              -1.20    -4400.00
02480              -2.40    -4000.00
02481              -2.00    -3800.00
02482              -1.20    -3600.00
02483              -2.00    -3400.00
02484              -2.00    -3200.00
02485              -1.20    -2800.00
02486              -1.20    -2600.00
02487              -1.20    -2400.00
02488              -1.20    -2000.00
02489              -1.20    -1600.00
02490              -1.20    -1600.00
02491              -0.80    -1200.00
02492              -1.20    -1000.00
02493              -0.40     -800.00
02494              -0.80     -200.00
02495              -0.80     -200.00
02496              -0.40        0.00
02497               0.00      400.00
02498               2.40      600.00
02499              -0.40      800.00
02500              -1.20     1200.00
02501               0.80     1400.00
02502               1.20     1800.00
02503              -0.40     2000.00
02504               0.80     2200.00
02505              10.00     2600.00
02506              23.20     3000.00
02507             -14.40     3200.00
02508             -36.40     3600.00
02509              13.20     3600.00
02510              12.80     3600.00
02511             -31.60     4000.00
02512              42.40     4400.00
02513               9.20     4400.00
02514             -50.00     4800.00
02515              50.00     5200.00
02516              12.40     5200.00
02517             -50.00     5600.00
02518              34.80     5800.00
02519              16.40     6000.00
02520             -12.80     6400.00
02521              -4.00     6800.00
02522               9.20     6800.00
02523              24.00     7200.00
02524             -30.00     7400.00
02525               6.00     7600.00
02526              30.80     7800.00
02527             -23.60     8200.00
02528               0.40     8400.00
02529              27.60     8600.00
02530              -0.40     8800.00
02531             -18.00     9000.00
02532              14.80     9200.00
02533              18.40     9400.00
02534             -14.00    10000.00
02535               2.80    10000.00
02536              18.80    10000.00
02537               4.40    10400.00
02538              -8.40    10400.00
02539              11.20    10800.00
02540              15.60    11000.00
02541              -9.60    11200.00
02542               9.20    11400.00
02543              18.00    11600.00
02544              -2.00    11800.00
02545               2.00    12000.00
02546              15.60    12000.00
02547               6.00    12400.00
02548              -2.00    12600.00
02549              12.40    12600.00
02550              13.60    12800.00
02551               2.40    13000.00
02552               6.80    13200.00
02553              15.20    13400.00
02554               7.20    13400.00
02555               4.00    13600.00
02556              14.00    14000.00
02557              12.40    14000.00
02558               4.40    14200.00
02559              12.40    14200.00
02560              16.40    14400.00
02561               6.00    14600.00
02562              10.40    14800.00
02563              16.80    15000.00
02564              11.60    14800.00
02565              10.40    14800.00
02566              17.20    15200.00
02567              15.60    15200.00
02568              10.40    15400.00
02569              16.80    15400.00
02570              18.40    15600.00
02571              13.20    15800.00
02572              18.00    15800.00
02573              20.80    15800.00
02574              18.00    16000.00
02575              18.40    16000.00
02576              21.60    16000.00
02577              21.60    16000.00
02578              20.40    16200.00
02579              23.60    16200.00
02580              26.00    16200.00
02581              24.40    16200.00
02582              25.20    16400.00
02583              28.00    16400.00
02584              28.00    16400.00
02585              28.00    16400.00
02586              30.80    16400.00
02587              31.60    16400.00
02588              30.80    16600.00
02589              32.80    16400.00
02590              34.00    16400.00
02591              32.80    16600.00
02592              32.80    16400.00
02593              34.00    16400.00
02594              32.80    16400.00
02595              30.80    16400.00
02596              30.00    16400.00
02597              29.20    16400.00
02598              26.80    16400.00
02599              26.00    16400.00
02600              25.20    16400.00
02601              24.40    16400.00
02602              22.80    16200.00
02603              22.40    16000.00
02604              21.20    16000.00
02605              19.60    16000.00
02606              20.00    16000.00
02607              18.80    15800.00
02608              17.20    15800.00
02609              17.20    15800.00
02610              17.20    15800.00
02611              15.60    15600.00
02612              16.40    15600.00
02613              15.20    15400.00
02614              14.40    15200.00
02615              14.00    15200.00
02616              13.60    15000.00
02617              13.20    15000.00
02618              13.20    14800.00
02619              12.00    14800.00
02620              12.00    14600.00
02621              11.20    14400.00
02622              10.80    14200.00
02623              10.40    14200.00
02624              10.00    14000.00
02625               9.20    14000.00
02626              10.00    13600.00
02627               9.20    13400.00
02628               8.40    13400.00
02629               8.40    13200.00
02630               9.60    13000.00
02631               7.60    12800.00
02632               7.20    12800.00
02633               8.40    12400.00
02634               7.20    12400.00
02635               5.60    12400.00
02636               7.20    11800.00
02637               7.20    12000.00
02638               5.20    11800.00
02639               6.00    11400.00
02640               6.80    11200.00
02641               5.20    11000.00
02642               5.20    10800.00
02643               5.60    10800.00
02644               5.20    10600.00
02645               4.40    10200.00
02646               5.20    10000.00
02647               4.80     9600.00
02648               4.00     9600.00
02649               4.00     9400.00
02650               4.40     9200.00
02651               4.00     9000.00
02652               3.20     8600.00
02653               4.00     8600.00
02654               4.00     8200.00
02655               2.80     8000.00
02656               2.80     7800.00
02657               3.20     7600.00
02658               2.40     7200.00
02659               2.40     7000.00
02660               3.20     6800.00
02661               2.80     6600.00
02662               2.40     6200.00
02663               2.40     6000.00
02664               2.00     5800.00
02665               2.40     5600.00
02666               2.00     5200.00
02667               2.00     5200.00
02668               2.00     4600.00
02669               1.20     4400.00
02670               1.60     4200.00
02671               1.20     4000.00
02672               1.20     3800.00
02673               1.20     3200.00
02674               0.80     3200.00
02675               1.20     3000.00
02676               0.80     2600.00
02677               0.80     2400.00
02678               0.80     2000.00
02679               0.80     2000.00
02680               0.40     1600.00
02681               0.80     1200.00
02682               0.40     1200.00
02683               0.40      800.00
02684               0.40      400.00
02685               0.00      200.00
02686               0.40        0.00
02687               0.40     -400.00
02688               0.80     -400.00
02689               2.40     -800.00
02690              -2.00    -1000.00
02691              -2.40    -1400.00
02692               0.80    -1600.00
02693              -0.40    -1800.00
02694              -2.40    -2000.00
02695              10.80    -2000.00
02696              30.80    -2800.00
02697             -34.00    -3200.00
02698             -39.60    -3400.00
02699              24.40    -3600.00
02700             -13.20    -3400.00
02701              14.80    -3800.00
02702              37.60    -4400.00
02703             -50.00    -4200.00
02704              50.00    -4800.00
02705              50.00    -5200.00
02706             -50.00    -5000.00
02707              50.00    -5600.00
02708              45.60    -5600.00
02709             -50.00    -6000.00
02710              31.20    -6400.00
02711              -4.40    -6400.00
02712              10.40    -7000.00
02713             -16.40    -7000.00
02714             -30.80    -7200.00
02715              50.00    -7800.00
02716             -39.60    -7400.00
02717             -16.40    -8000.00
02718              31.60    -8200.00
02719             -10.40    -8400.00
02720             -15.20    -8800.00
02721             -15.60    -8800.00
02722              29.60    -9400.00
02723             -26.80    -9200.00
02724             -16.40    -9600.00
02725              21.20    -9800.00
02726             -13.60   -10000.00
02727              -6.00   -10400.00
02728             -13.20   -10400.00
02729              12.40   -10800.00
02730             -18.00   -10800.00
02731             -15.20   -11200.00
02732              15.60   -11400.00
02733             -16.00   -11400.00
02734             -10.40   -11600.00
02735               0.00   -12000.00
02736              -4.00   -12200.00
02737             -16.80   -12200.00
02738              -5.60   -12400.00
02739              -0.80   -12800.00
02740             -12.00   -12800.00
02741             -10.00   -12800.00
02742              -3.60   -13200.00
02743              -8.40   -13200.00
02744             -15.20   -13400.00
02745              -4.40   -13600.00
02746              -9.20   -13800.00
02747             -13.20   -13800.00
02748              -9.20   -14000.00
02749              -6.00   -14200.00
02750             -14.40   -14400.00
02751             -14.00   -14400.00
02752              -7.20   -14600.00
02753             -14.80   -14800.00
02754             -15.60   -14800.00
02755             -10.00   -14800.00
02756             -11.60   -15000.00
02757             -18.40   -15200.00
02758             -14.00   -15200.00
02759             -12.80   -15400.00
02760             -20.00   -15600.00
02761             -17.20   -15600.00
02762             -14.80   -15600.00
02763             -18.00   -15600.00
02764             -21.20   -15800.00
02765             -18.80   -16000.00
02766             -18.80   -16000.00
02767             -23.60   -16200.00
02768             -22.80   -16000.00
02769             -20.40   -16000.00
02770             -24.80   -16200.00
02771             -26.80   -16200.00
02772             -25.20   -16400.00
02773             -26.40   -16400.00
02774             -30.00   -16400.00
02775             -29.20   -16400.00
02776             -28.00   -16400.00
02777             -31.60   -16400.00
02778             -32.40   -16600.00
02779             -31.60   -16400.00
02780             -33.20   -16400.00
02781             -34.00   -16400.00
02782             -33.20   -16400.00
02783             -32.80   -16400.00
02784             -33.60   -16400.00
02785             -33.20   -16400.00
02786             -31.20   -16400.00
02787             -30.00   -16400.00
02788             -29.20   -16400.00
02789             -27.60   -16200.00
02790             -25.20   -16400.00
02791             -24.80   -16200.00
02792             -24.40   -16200.00
02793             -22.80   -16000.00
02794             -22.00   -16200.00
02795             -21.20   -16000.00
02796             -20.40   -16000.00
02797             -19.20   -15800.00
02798             -18.80   -16000.00
02799             -18.40   -15600.00
02800             -18.00   -15600.00
02801             -16.80   -15600.00
02802             -16.40   -15400.00
02803             -15.60   -15400.00
02804             -15.20   -15200.00
02805             -14.80   -15200.00
02806             -14.80   -15200.00
02807             -14.00   -15200.00
02808             -13.20   -14800.00
02809             -12.40   -14600.00
02810             -13.20   -14600.00
02811             -12.40   -14400.00
02812             -11.60   -14400.00
02813             -11.60   -14400.00
02814             -12.00   -14000.00
02815             -10.00   -14000.00
02816              -9.20   -13800.00
02817             -11.60   -13600.00
02818              -9.60   -13400.00
02819              -8.00   -13400.00
02820             -10.40   -13200.00
02821             -10.00   -13000.00
02822              -6.80   -12800.00
02823              -8.40   -12600.00
02824             -10.00   -12400.00
02825              -6.80   -12400.00
02826              -7.60   -12200.00
02827              -9.20   -12000.00
02828              -6.00   -11600.00
02829              -6.00   -11600.00
02830              -7.60   -11400.00
02831              -6.80   -11000.00
02832              -5.20   -11000.00
02833              -6.80   -10600.00
02834              -6.00   -10600.00
02835              -5.60   -10400.00
02836              -5.60   -10000.00
02837              -5.20   -10000.00
02838              -5.20    -9800.00
02839              -6.00    -9600.00
02840              -5.20    -9200.00
02841              -4.80    -9000.00
02842              -4.40    -8800.00
02843              -4.40    -8400.00
02844              -4.00    -8400.00
02845              -4.40    -8200.00
02846              -4.00    -8000.00
02847              -3.60    -7600.00
02848              -4.00    -7400.00
02849              -3.60    -7000.00
02850              -3.60    -7000.00
02851              -3.60    -6600.00
02852              -2.80    -6400.00
02853              -3.20    -6200.00
02854              -2.80    -6000.00
02855              -2.40    -5600.00
02856              -2.40    -5200.00
02857              -3.20    -5000.00
02858              -2.40    -4800.00
02859              -2.00    -4400.00
02860              -2.40    -4400.00
02861              -2.00    -4000.00
02862              -1.20    -4000.00
02863              -2.00    -3400.00
02864              -2.00    -3400.00
02865              -1.20    -3000.00
02866              -2.00    -2800.00
02867              -1.20    -2600.00
02868              -0.80    -2400.00
02869              -1.20    -2000.00
02870              -0.80    -1800.00
02871              -1.20    -1600.00
02872              -0.80    -1200.00
02873              -0.80     -800.00
02874              -1.20     -600.00
02875              -0.40     -400.00
02876               0.40        0.00
02877              -0.40      200.00
02878              -0.40      400.00
02879               3.60      800.00
02880               0.40      800.00
02881              -2.00     1200.00
02882               1.20     1400.00
02883               2.00     1800.00
02884              -0.80     2000.00
02885               0.40     2200.00
02886              10.80     2600.00
02887              23.20     3000.00
02888             -15.60     3200.00
02889             -36.00     3400.00
02890              13.60     3600.00
02891              11.60     3800.00
02892             -31.20     4000.00
02893              42.80     4400.00
02894               7.60     4400.00
02895             -50.00     5000.00
02896              50.00     5200.00
02897              10.80     5200.00
02898             -50.00     5600.00
02899              36.00     6000.00
02900              15.20     6000.00
02901             -12.40     6400.00
02902              -3.60     6600.00
02903               8.40     7000.00
02904              23.20     7000.00
02905             -30.00     7400.00
02906               6.40     7600.00
02907              30.80     7800.00
02908             -23.20     8200.00
02909               0.80     8400.00
02910              26.80     8600.00
02911              -0.40     8800.00
02912             -17.20     9000.00
02913              14.40     9200.00
02914              18.00     9400.00
02915             -14.00     9800.00
02916               3.60    10000.00
02917              18.80    10400.00
02918               4.40    10400.00
02919              -8.80    10600.00
02920              11.60    10800.00
02921              14.80    11000.00
02922              -9.60    11200.00
02923               9.60    11400.00
02924              18.00    11600.00
02925              -2.40    11800.00
02926               2.40    12000.00
02927              16.40    12000.00
02928               5.60    12400.00
02929              -1.20    12400.00
02930              12.40    12600.00
02931              13.60    12800.00
02932               2.40    13000.00
02933               6.00    13200.00
02934              16.40    13400.00
02935               6.00    13600.00
02936               4.00    13600.00
02937              14.80    14000.00
02938              12.00    14000.00
02939               5.20    14000.00
02940              12.40    14400.00
02941              15.60    14400.00
02942               6.00    14600.00
02943              11.20    14800.00
02944              16.80    14800.00
02945              11.60    14800.00
02946              10.80    15000.00
02947              16.40    15200.00
02948              16.40    15200.00
02949              11.60    15400.00
02950              15.60    15400.00
02951              18.00    15600.00
02952              14.80    15600.00
02953              17.20    15800.00
02954              20.00    15800.00
02955              18.40    16000.00
02956              18.00    16000.00
02957              21.20    16000.00
02958              21.60    16000.00
02959              21.20    16000.00
02960              23.20    16200.00
02961              25.20    16200.00
02962              24.40    16200.00
02963              25.20    16400.00
02964              27.60    16400.00
02965              28.00    16400.00
02966              28.00    16400.00
02967              30.80    16400.00
02968              31.60    16600.00
02969              31.20    16600.00
02970              32.40    16600.00
02971              33.20    16600.00
02972              33.20    16600.00
02973              32.80    16400.00
02974              33.20    16400.00
02975              32.80    16400.00
02976              31.20    16600.00
02977              29.60    16400.00
02978              29.20    16400.00
02979              27.60    16400.00
02980              25.60    16400.00
02981              24.80    16200.00
02982              24.40    16400.00
02983              22.80    16000.00
02984              21.20    16000.00
02985              21.20    16000.00
02986              20.00    16200.00
02987              18.80    16000.00
02988              18.40    16000.00
02989              18.80    15800.00
02990              17.60    15800.00
02991              16.80    15800.00
02992              16.40    15600.00
02993              16.00    15400.00
02994              14.80    15400.00
02995              14.00    15400.00
02996              14.00    15200.00
02997              13.60    15000.00
02998              12.80    14800.00
02999              13.20    14800.00
03000              12.40    14800.00
03001              11.60    14600.00
03002              11.60    14400.00
03003              11.60    14200.00
03004              10.40    14200.00
03005              10.40    14000.00
03006              10.00    14000.00
03007              10.00    13600.00
03008               9.20    13600.00
03009               8.80    13400.00
03010               8.80    13200.00
03011               8.40    13200.00
03012               8.00    12800.00
03013               7.60    12800.00
03014               7.60    12400.00
03015               6.80    12400.00
03016               6.80    12400.00
03017               7.20    12200.00
03018               6.00    11800.00
03019               6.00    11600.00
03020               6.80    11600.00
03021               5.60    11200.00
03022               5.20    11000.00
03023               6.00    11000.00
03024               5.20    10400.00
03025               4.40    10400.00
03026               4.80    10200.00
03027               5.20    10000.00
03028               4.00     9800.00
03029               4.00     9600.00
03030               4.40     9400.00
03031               4.00     9200.00
03032               3.60     8800.00
03033               4.00     8600.00
03034               4.00     8400.00
03035               2.80     8200.00
03036               3.20     8000.00
03037               3.20     7800.00
03038               2.80     7600.00
03039               2.40     7200.00
03040               2.80     7200.00
03041               2.80     6800.00
03042               2.00     6400.00
03043               2.00     6200.00
03044               2.00     6200.00
03045               2.40     5600.00
03046               1.60     5600.00
03047               2.00     5200.00
03048               2.00     5000.00
03049               1.20     4600.00
03050               1.20     4600.00
03051               1.60     4200.00
03052               1.20     4000.00
03053               0.80     3600.00
03054               1.20     3600.00
03055               1.20     3200.00
03056               0.80     3000.00
03057               0.80     2800.00
03058               0.80     2400.00
03059               0.40     2200.00
03060               0.40     1800.00
03061               0.80     1800.00
03062               0.40     1200.00
03063               0.40     1200.00
03064               0.40      800.00
03065               0.40      600.00
03066              -0.40      200.00
03067               0.40        0.00
03068               0.00     -400.00
03069               0.80     -400.00
03070               2.40     -800.00
03071              -1.20    -1000.00
03072              -1.20    -1200.00
03073               0.80    -1400.00
03074              -0.40    -1800.00
03075              -1.20    -2000.00
03076              10.40    -2200.00
03077              30.00    -2800.00
03078             -33.20    -3200.00
03079             -39.60    -3400.00
03080              24.00    -3600.00
03081             -13.60    -3600.00
03082              15.20    -3600.00
03083              36.40    -4400.00
03084             -50.00    -4000.00
03085              50.00    -4800.00
03086              50.00    -5200.00
03087             -50.00    -5000.00
03088              50.00    -5800.00
03089              44.00    -5600.00
03090             -50.00    -6000.00
03091              31.20    -6400.00
03092              -4.40    -6200.00
03093              10.80    -6800.00
03094             -16.40    -7000.00
03095             -30.00    -7200.00
03096              50.00    -8000.00
03097             -39.60    -7400.00
03098             -15.60    -8200.00
03099              30.40    -8400.00
03100             -10.40    -8400.00
03101             -15.20    -8800.00
03102             -15.60    -8800.00
03103              30.00    -9200.00
03104             -26.80    -9200.00
03105             -16.40    -9600.00
03106              21.20   -10000.00
03107             -13.60    -9800.00
03108              -6.00   -10400.00
03109             -12.40   -10400.00
03110              12.00   -10800.00
03111             -18.00   -10800.00
03112             -15.20   -11000.00
03113              15.60   -11400.00
03114             -16.40   -11400.00
03115             -10.80   -11800.00
03116               0.40   -12000.00
03117              -4.40   -12000.00
03118             -16.80   -12200.00
03119              -5.60   -12400.00
03120              -1.20   -12600.00
03121             -12.00   -12800.00
03122              -9.60   -13000.00
03123              -4.40   -13200.00
03124              -8.00   -13200.00
03125             -14.00   -13400.00
03126              -5.20   -13600.00
03127             -10.40   -13600.00
03128             -12.00   -13800.00
03129              -8.80   -14000.00
03130              -7.60   -14200.00
03131             -14.80   -14400.00
03132             -12.40   -14400.00
03133              -7.20   -14800.00
03134             -15.20   -14800.00
03135             -14.80   -14800.00
03136             -10.00   -14800.00
03137             -12.00   -15000.00
03138             -18.40   -15200.00
03139             -13.60   -15200.00
03140             -12.80   -15400.00
03141             -20.00   -15600.00
03142             -16.80   -15600.00
03143             -14.00   -15600.00
03144             -18.40   -15600.00
03145             -21.20   -16000.00
03146             -18.40   -16000.00
03147             -19.60   -16000.00
03148             -24.40   -16200.00
03149             -21.60   -16000.00
03150             -20.40   -16200.00
03151             -25.20   -16200.00
03152             -26.00   -16400.00
03153             -24.80   -16400.00
03154             -26.80   -16400.00
03155             -30.00   -16200.00
03156             -28.40   -16400.00
03157             -28.00   -16400.00
03158             -31.60   -16400.00
03159             -31.60   -16400.00
03160             -31.60   -16400.00
03161             -33.20   -16400.00
03162             -34.40   -16400.00
03163             -34.00   -16400.00
03164             -33.20   -16400.00
03165             -34.00   -16400.00
03166             -33.20   -16400.00
03167             -31.20   -16400.00
03168             -30.80   -16400.00
03169             -29.20   -16400.00
03170             -26.80   -16400.00
03171             -25.60   -16200.00
03172             -25.20   -16200.00
03173             -24.40   -16200.00
03174             -22.80   -16200.00
03175             -22.00   -16200.00
03176             -21.60   -16200.00
03177             -20.00   -16000.00
03178             -19.60   -16000.00
03179             -18.80   -15800.00
03180             -18.00   -15800.00
03181             -18.00   -15600.00
03182             -17.20   -15600.00
03183             -16.40   -15400.00
03184             -15.60   -15400.00
03185             -15.20   -15400.00
03186             -14.40   -15200.00
03187             -14.80   -15000.00
03188             -14.00   -15000.00
03189             -12.80   -14800.00
03190             -13.20   -14600.00
03191             -13.20   -14600.00
03192             -12.00   -14400.00
03193             -11.60   -14400.00
03194             -12.00   -14000.00
03195             -10.80   -14000.00
03196             -10.00   -13800.00
03197             -10.80   -13800.00
03198             -10.40   -13600.00
03199              -9.20   -13600.00
03200              -8.80   -13200.00
03201              -9.20   -13000.00
03202              -8.80   -13000.00
03203              -8.00   -12800.00
03204              -8.80   -12800.00
03205              -8.40   -12400.00
03206              -7.60   -12200.00
03207              -7.60   -12200.00
03208              -7.60   -12000.00
03209              -7.20   -11800.00
03210              -6.80   -11600.00
03211              -6.80   -11400.00
03212              -7.20   -11000.00
03213              -6.00   -11000.00
03214              -5.60   -10600.00
03215              -6.40   -10600.00
03216              -6.00   -10400.00
03217              -5.20   -10000.00
03218              -5.60   -10000.00
03219              -5.20    -9800.00
03220              -5.60    -9400.00
03221              -5.20    -9200.00
03222              -4.80    -9000.00
03223              -4.40    -8800.00
03224              -4.40    -8400.00
03225              -4.00    -8400.00
03226              -4.40    -8200.00
03227              -3.60    -8000.00
03228              -4.00    -7600.00
03229              -4.40    -7400.00
03230              -3.60    -7200.00
03231              -3.60    -7000.00
03232              -3.60    -6600.00
03233              -2.80    -6400.00
03234              -3.60    -6200.00
03235              -3.60    -5800.00
03236              -2.40    -5600.00
03237              -2.80    -5400.00
03238              -3.20    -5200.00
03239              -1.20    -4800.00
03240              -3.60    -4400.00
03241              -2.80    -4400.00
03242              -1.20    -4000.00
03243              -2.00    -3800.00
03244              -2.40    -3600.00
03245              -1.20    -3400.00
03246              -1.20    -3200.00
03247              -2.00    -2800.00
03248              -1.20    -2600.00
03249              -0.80    -2200.00
03250              -0.80    -2000.00
03251              -2.00    -1800.00
03252              -0.80    -1600.00
03253               0.00    -1200.00
03254              -2.00    -1000.00
03255              -1.20     -800.00
03256               1.20     -400.00
03257              -0.80     -200.00
03258              -0.80        0.00
03259               2.40      400.00
03260               2.00      600.00
03261              -0.80      800.00
03262               0.40     1200.00
03263               1.20     1400.00
03264               1.20     1800.00
03265               0.80     2000.00
03266               1.20     2200.00
03267              10.40     2400.00
03268              22.80     3000.00
03269             -14.00     3200.00
03270             -36.80     3200.00
03271              13.60     3600.00
03272              13.20     3600.00
03273             -31.20     4000.00
03274              43.20     4400.00
03275               8.00     4400.00
03276             -50.00     4800.00
03277              50.00     5200.00
03278              10.80     5400.00
03279             -50.00     5600.00
03280              36.00     5600.00
03281              15.60     6000.00
03282             -13.20     6400.00
03283              -3.60     6600.00
03284              10.00     6800.00
03285              21.20     7000.00
03286             -30.00     7200.00
03287               8.40     7600.00
03288              28.80     7800.00
03289             -23.20     8000.00
03290               2.40     8400.00
03291              26.40     8600.00
03292              -1.60     8800.00
03293             -16.80     9000.00
03294              15.60     9200.00
03295              16.40     9400.00
03296             -14.00     9600.00
03297               5.20    10000.00
03298              18.00    10200.00
03299               3.60    10200.00
03300              -7.20    10600.00
03301              10.40    10800.00
03302              14.00    11000.00
03303              -7.60    11200.00
03304              10.00    11400.00
03305              16.40    11600.00
03306              -1.20    11800.00
03307               2.00    12000.00
03308              15.20    12000.00
03309               6.00    12400.00
03310              -1.20    12600.00
03311              12.40    12600.00
03312              13.20    12800.00
03313               2.40    13200.00
03314               6.80    13200.00
03315              14.80    13400.00
03316               7.20    13600.00
03317               4.00    13600.00
03318              14.00    13800.00
03319              12.00    14000.00
03320               4.80    14200.00
03321              12.40    14200.00
03322              16.40    14400.00
03323               6.40    14800.00
03324              11.20    14600.00
03325              17.20    14800.00
03326              10.80    15000.00
03327              10.80    15000.00
03328              17.20    15000.00
03329              15.20    15400.00
03330              11.60    15400.00
03331              18.00    15600.00
03332              18.00    15600.00
03333              14.00    15600.00
03334              18.00    15600.00
03335              20.00    15800.00
03336              18.00    16000.00
03337              18.40    16000.00
03338              22.00    16000.00
03339              22.00    16000.00
03340              20.40    16400.00
03341              23.60    16000.00
03342              25.60    16400.00
03343              23.60    16200.00
03344              26.00    16400.00
03345              28.00    16400.00
03346              27.60    16400.00
03347              28.40    16400.00
03348              30.80    16400.00
03349              30.80    16600.00
03350              30.80    16400.00
03351              32.40    16600.00
03352              33.20    16400.00
03353              32.80    16400.00
03354              33.20    16600.00
03355              34.00    16400.00
03356              32.40    16400.00
03357              30.80    16400.00
03358              30.00    16400.00
03359              28.40    16400.00
03360              27.60    16400.00
03361              26.40    16400.00
03362              24.80    16400.00
03363              23.60    16400.00
03364              22.40    16200.00
03365              21.20    16000.00
03366              20.40    16000.00
03367              20.00    16000.00
03368              19.20    16000.00
03369              18.80    15800.00
03370              18.40    15800.00
03371              17.20    15600.00
03372              17.20    15800.00
03373              16.00    15600.00
03374              15.20    15400.00
03375              15.20    15200.00
03376              14.00    15200.00
03377              13.60    15200.00
03378              13.60    15200.00
03379              12.40    15000.00
03380              12.80    14800.00
03381              12.80    14800.00
03382              12.00    14600.00
03383              11.60    14400.00
03384              11.60    14400.00
03385              10.80    14200.00
03386              10.00    14000.00
03387              10.40    13800.00
03388              10.00    14000.00
03389               9.20    13600.00
03390               9.20    13400.00
03391               8.80    13400.00
03392               7.20    13200.00
03393               8.40    12800.00
03394               8.40    12800.00
03395               6.80    12400.00
03396               7.60    12400.00
03397               7.60    12400.00
03398               5.60    12000.00
03399               6.80    12000.00
03400               7.20    11600.00
03401               5.60    11400.00
03402               5.60    11200.00
03403               6.40    11000.00
03404               5.20    10800.00
03405               4.40    10600.00
03406               5.60    10400.00
03407               5.20    10200.00
03408               3.60    10000.00
03409               5.20     9800.00
03410               5.20     9400.00
03411               3.60     9400.00
03412               3.60     9200.00
03413               4.00     8800.00
03414               3.60     8600.00
03415               3.60     8400.00
03416               3.60     8200.00
03417               3.60     8000.00
03418               2.80     7800.00
03419               2.40     7600.00
03420               2.40     7200.00
03421               2.80     7200.00
03422               2.40     6800.00
03423               2.00     6400.00
03424               2.80     6200.00
03425               2.40     6000.00
03426               1.20     5800.00
03427               2.40     5400.00
03428               2.80     5200.00
03429               0.80     5200.00
03430               1.20     4600.00
03431               2.80     4400.00
03432               1.20     4200.00
03433               0.40     4000.00
03434               2.00     3800.00
03435               2.00     3400.00
03436               0.40     3000.00
03437               0.80     3000.00
03438               1.20     2800.00
03439               0.40     2400.00
03440               0.40     2000.00
03441               0.80     2000.00
03442               0.40     1600.00
03443               0.40     1400.00
03444               0.40     1200.00
03445               0.00      800.00
03446               0.40      600.00
03447               0.80      200.00
03448              -0.80        0.00
03449              -0.40     -200.00
03450               2.00     -400.00
03451               2.00     -800.00
03452              -2.40    -1000.00
03453              -0.80    -1200.00
03454               0.80    -1600.00
03455              -0.80    -1800.00
03456              -1.20    -2000.00
03457              10.80    -2200.00
03458              30.00    -3000.00
03459             -33.20    -3200.00
03460             -39.20    -3200.00
03461              24.40    -3600.00
03462             -12.80    -3400.00
03463              15.60    -3600.00
03464              36.00    -4400.00
03465             -50.00    -4200.00
03466              50.00    -4600.00
03467              50.00    -5200.00
03468             -50.00    -5000.00
03469              50.00    -5600.00
03470              43.60    -5800.00
03471             -50.00    -5800.00
03472              31.60    -6400.00
03473              -4.40    -6400.00
03474              10.80    -6800.00
03475             -17.20    -7200.00
03476             -29.60    -7200.00
03477              50.00    -7800.00
03478             -40.80    -7600.00
03479             -15.20    -8000.00
03480              30.80    -8200.00
03481             -10.40    -8400.00
03482             -15.20    -8800.00
03483             -15.20    -8800.00
03484              29.60    -9200.00
03485             -27.20    -9400.00
03486             -15.60    -9600.00
03487              20.40   -10000.00
03488             -13.60   -10000.00
03489              -6.40   -10400.00
03490             -13.20   -10600.00
03491              12.00   -10800.00
03492             -18.40   -10800.00
03493             -15.20   -11200.00
03494              15.20   -11200.00
03495             -16.40   -11400.00
03496             -10.80   -11800.00
03497              -0.40   -12000.00
03498              -4.40   -12200.00
03499             -17.20   -12200.00
03500              -5.20   -12600.00
03501              -1.20   -12800.00
03502             -12.40   -12800.00
03503             -10.00   -13000.00
03504              -3.60   -13000.00
03505              -8.80   -13400.00
03506             -15.20   -13400.00
03507              -4.40   -13600.00
03508              -9.60   -13800.00
03509             -13.20   -14000.00
03510              -9.20   -14000.00
03511              -5.60   -14200.00
03512             -14.80   -14400.00
03513             -14.00   -14600.00
03514              -6.80   -14600.00
03515             -15.20   -14800.00
03516             -15.20   -14800.00
03517             -10.00   -14800.00
03518             -11.60   -14800.00
03519             -18.40   -15200.00
03520             -13.60   -15400.00
03521             -10.80   -15400.00
03522             -23.60   -15400.00
03523             -15.60   -15600.00
03524             -10.80   -15800.00
03525             -29.60   -15800.00
03526             -11.20   -16000.00
03527             -20.80   -16000.00
03528             -14.00   -16000.00
03529             -18.80   -16000.00
03530             -30.00   -16000.00
03531             -19.60   -16400.00
03532             -26.80   -16200.00
03533             -29.20   -16400.00
03534             -23.60   -16200.00
03535             -26.40   -16400.00
03536             -26.00   -16400.00
03537             -25.20   -16400.00
03538             -29.60   -16400.00
03539             -31.60   -16400.00
03540             -34.40   -16400.00
03541             -35.60   -16400.00
03542             -35.60   -16400.00
03543             -32.40   -16400.00
03544             -30.00   -16400.00
03545             -30.00   -16400.00
03546             -34.00   -16400.00
03547             -34.40   -16400.00
03548             -33.20   -16400.00
03549             -32.80   -16400.00
03550             -28.00   -16400.00
03551             -28.40   -16400.00
03552             -24.40   -16200.00
03553             -23.60   -16200.00
03554             -24.00   -16200.00
03555             -22.40   -16200.00
03556             -22.00   -16000.00
03557             -23.60   -16000.00
03558             -21.60   -16000.00
03559             -18.40   -15800.00
03560             -19.60   -15800.00
03561             -17.20   -15800.00
03562             -17.20   -15600.00
03563             -17.60   -15600.00
03564             -16.80   -15600.00
03565             -15.20   -15400.00
03566             -16.40   -15200.00
03567             -14.80   -15200.00
03568             -15.20   -15200.00
03569             -16.00   -14800.00
03570             -12.00   -14800.00
03571             -12.40   -14600.00
03572             -12.00   -14600.00
03573             -12.00   -14600.00
03574             -11.60   -14400.00
03575             -12.00   -14000.00
03576             -12.00   -14000.00
03577             -10.80   -14000.00
03578             -10.40   -13800.00
03579             -10.00   -13600.00
03580             -10.00   -13400.00
03581              -8.00   -13200.00
03582              -8.80   -13200.00
03583              -8.80   -13000.00
03584              -8.40   -12800.00
03585              -8.80   -12800.00
03586              -8.80   -12400.00
03587              -7.60   -12400.00
03588              -6.80   -12200.00
03589              -7.20   -12000.00
03590              -6.80   -11600.00
03591              -6.80   -11400.00
03592              -6.00   -11200.00
03593              -6.80   -11000.00
03594              -6.80   -10800.00
03595              -6.80   -10600.00
03596              -5.60   -10600.00
03597              -5.60   -10400.00
03598              -4.80   -10000.00
03599              -4.80    -9800.00
03600              -4.40    -9600.00
03601              -6.80    -9600.00
03602              -4.80    -9200.00
03603              -4.40    -9000.00
03604              -4.40    -8800.00
03605              -4.40    -8600.00
03606              -3.60    -8400.00
03607              -4.40    -8000.00
03608              -4.40    -8000.00
03609              -3.60    -7600.00
03610              -4.00    -7400.00
03611              -4.40    -7200.00
03612              -3.60    -6800.00
03613              -3.60    -6600.00
03614              -2.80    -6400.00
03615              -2.80    -6400.00
03616              -2.80    -5800.00
03617              -2.80    -5600.00
03618              -2.40    -5600.00
03619              -2.40    -5200.00
03620              -2.80    -4800.00
03621              -2.80    -4400.00
03622              -2.40    -4400.00
03623              -2.00    -4200.00
03624              -2.00    -3800.00
03625              -1.20    -3600.00
03626              -2.00    -3400.00
03627              -2.00    -3000.00
03628              -2.00    -2800.00
03629              -1.20    -2600.00
03630              -1.20    -2200.00
03631              -1.20    -2000.00
03632              -0.80    -1800.00
03633              -1.20    -1400.00
03634              -0.80    -1200.00
03635              -0.80    -1000.00
03636              -0.80     -600.00
03637              -0.40     -400.00
03638              -0.40        0.00
03639              -0.40      200.00
03640               0.40      400.00
03641               2.80      800.00
03642               0.40      800.00
03643              -1.20     1200.00
03644               1.60     1600.00
03645               2.00     1800.00
03646              -0.40     2000.00
03647               1.20     2200.00
03648              11.60     2600.00
03649              23.20     2800.00
03650             -15.20     3200.00
03651             -35.60     3600.00
03652              14.00     3600.00
03653              11.60     3800.00
03654             -30.80     4000.00
03655              43.60     4400.00
03656               7.20     4400.00
03657             -50.00     4800.00
03658              50.00     5200.00
03659              10.40     5200.00
03660             -50.00     5600.00
03661              36.00     5800.00
03662              15.60     6000.00
03663             -12.40     6600.00
03664              -4.00     6600.00
03665              10.00     7000.00
03666              22.80     7200.00
03667             -31.20     7600.00
03668               7.60     7600.00
03669              30.00     7800.00
03670             -23.60     8400.00
03671               0.80     8400.00
03672              26.80     8600.00
03673              -0.80     8800.00
03674             -18.00     9000.00
03675              14.80     9200.00
03676              18.00     9400.00
03677             -14.00     9800.00
03678               3.60     9800.00
03679              18.80    10200.00
03680               4.00    10400.00
03681              -8.80    10600.00
03682              11.60    10600.00
03683              14.80    11000.00
03684             -10.00    11200.00
03685               9.20    11400.00
03686              17.20    11800.00
03687              -2.40    11800.00
03688               1.20    12000.00
03689              16.40    12000.00
03690               5.60    12400.00
03691              -2.00    12600.00
03692              12.40    12800.00
03693              13.60    13000.00
03694               2.40    13000.00
03695               6.00    13200.00
03696              15.20    13400.00
03697               6.80    13400.00
03698               4.00    13600.00
03699              14.00    14000.00
03700              12.00    14000.00
03701               4.00    14200.00
03702              13.20    14400.00
03703              16.40    14400.00
03704               6.00    14600.00
03705              10.80    14800.00
03706              17.60    14800.00
03707              10.80    14800.00
03708              10.80    15000.00
03709              18.00    15200.00
03710              15.20    15400.00
03711              11.60    15400.00
03712              16.80    15600.00
03713              17.20    15600.00
03714              15.20    15600.00
03715              17.60    15800.00
03716              20.00    15800.00
03717              18.80    15800.00
03718              18.40    16000.00
03719              21.20    16000.00
03720              22.80    16000.00
03721              20.40    16000.00
03722              23.20    16200.00
03723              26.40    16200.00
03724              24.40    16400.00
03725              24.80    16400.00
03726              28.40    16400.00
03727              28.00    16400.00
03728              27.60    16600.00
03729              30.80    16400.00
03730              32.00    16400.00
03731              30.80    16600.00
03732              32.40    16400.00
03733              33.20    16400.00
03734              32.80    16600.00
03735              32.80    16400.00
03736              33.60    16400.00
03737              32.80    16400.00
03738              30.80    16600.00
03739              30.00    16400.00
03740              28.00    16400.00
03741              26.80    16400.00
03742              26.00    16400.00
03743              24.80    16400.00
03744              23.60    16200.00
03745              23.20    16200.00
03746              21.20    16200.00
03747              20.00    16000.00
03748              20.00    16000.00
03749              19.60    16000.00
03750              18.00    16000.00
03751              18.00    15800.00
03752              18.80    15800.00
03753              16.40    15800.00
03754              14.80    15600.00
03755              15.60    15600.00
03756              15.60    15200.00
03757              12.40    15200.00
03758              14.40    15000.00
03759              15.20    15000.00
03760              11.20    15000.00
03761              12.40    14800.00
03762              14.80    14800.00
03763              11.20    14600.00
03764              10.00    14400.00
03765              12.00    14200.00
03766              11.20    14200.00
03767               8.80    14000.00
03768              10.40    14000.00
03769              10.40    13600.00
03770               8.80    13600.00
03771               8.40    13400.00
03772               8.80    13200.00
03773               9.20    13200.00
03774               7.60    12800.00
03775               7.20    12800.00
03776               7.60    12600.00
03777               7.20    12400.00
03778               6.80    12200.00
03779               6.40    12000.00
03780               7.20    11800.00
03781               6.80    11600.00
03782               6.00    11400.00
03783               5.60    11200.00
03784               5.60    11000.00
03785               5.20    10800.00
03786               5.20    10800.00
03787               5.60    10400.00
03788               4.80    10200.00
03789               5.20    10000.00
03790               4.80     9800.00
03791               4.00     9600.00
03792               4.00     9400.00
03793               4.00     9200.00
03794               3.60     8800.00
03795               3.60     8800.00
03796               4.00     8400.00
03797               3.60     8200.00
03798               2.40     8000.00
03799               2.80     7600.00
03800               3.20     7600.00
03801               2.40     7200.00
03802               2.80     7000.00
03803               2.80     6800.00
03804               2.00     6600.00
03805               2.00     6200.00
03806               2.40     6000.00
03807               2.00     5600.00
03808               1.20     5600.00
03809               2.40     5200.00
03810               2.00     5200.00
03811               1.20     4600.00
03812               2.00     4600.00
03813               1.20     4200.00
03814               0.80     3800.00
03815               1.20     3800.00
03816               1.20     3400.00
03817               0.80     3200.00
03818               0.80     3000.00
03819               0.80     2800.00
03820               0.40     2400.00
03821               0.40     2200.00
03822               0.80     2000.00
03823               0.40     1600.00
03824               0.40     1400.00
03825               0.80     1200.00
03826              -0.40      600.00
03827               0.80      400.00
03828              -0.40      400.00
03829              -0.40        0.00
03830               0.40     -200.00
03831               0.80     -600.00
03832               2.00     -800.00
03833              -0.80    -1000.00
03834              -1.20    -1200.00
03835              -0.40    -1600.00
03836               0.40    -1800.00
03837              -1.20    -2000.00
03838               9.20    -2000.00
03839              31.20    -2800.00
03840             -34.00    -3200.00
03841             -39.60    -3400.00
03842              25.20    -3600.00
03843             -13.20    -3600.00
03844              16.00    -3600.00
03845              36.00    -4400.00
03846             -50.00    -4000.00
03847              50.00    -4800.00
03848              50.00    -5200.00
03849             -50.00    -5000.00
03850              50.00    -5800.00
03851              42.00    -5600.00
03852             -50.00    -5800.00
03853              32.80    -6400.00
03854              -4.40    -6400.00
03855              11.60    -6800.00
03856             -17.20    -7000.00
03857             -28.80    -7200.00
03858              50.00    -7800.00
03859             -40.80    -7400.00
03860             -14.40    -8000.00
03861              30.00    -8200.00
03862             -10.40    -8400.00
03863             -15.60    -9000.00
03864             -15.20    -8800.00
03865              30.80    -9200.00
03866             -28.00    -9400.00
03867             -16.40    -9600.00
03868              21.20   -10000.00
03869             -14.00   -10000.00
03870              -6.80   -10400.00
03871             -12.80   -10600.00
03872              12.40   -10800.00
03873             -18.80   -10800.00
03874             -15.20   -11200.00
03875              15.60   -11200.00
03876             -16.80   -11400.00
03877             -10.80   -11800.00
03878               0.40   -12000.00
03879              -4.40   -12200.00
03880             -17.20   -12400.00
03881              -5.20   -12400.00
03882              -1.20   -12600.00
03883             -13.20   -12800.00
03884             -10.00   -13000.00
03885              -4.00   -13000.00
03886              -9.20   -13200.00
03887             -14.80   -13200.00
03888              -4.00   -13600.00
03889             -10.00   -13800.00
03890             -13.60   -14000.00
03891              -8.80   -14000.00
03892              -5.60   -14400.00
03893             -15.20   -14400.00
03894             -14.00   -14400.00
03895              -6.80   -14600.00
03896             -15.20   -14600.00
03897             -16.40   -14800.00
03898              -9.60   -15000.00
03899             -11.60   -15000.00
03900             -19.20   -15200.00
03901             -14.00   -15400.00
03902             -12.00   -15400.00
03903             -19.60   -15600.00
03904             -18.00   -15600.00
03905             -14.00   -15600.00
03906             -17.60   -15600.00
03907             -22.00   -16000.00
03908             -18.80   -15800.00
03909             -18.40   -16000.00
03910             -24.40   -16000.00
03911             -22.00   -16000.00
03912             -18.80   -16200.00
03913             -24.80   -16200.00
03914             -26.80   -16400.00
03915             -24.80   -16400.00
03916             -26.80   -16400.00
03917             -29.60   -16400.00
03918             -29.20   -16400.00
03919             -28.00   -16200.00
03920             -31.20   -16400.00
03921             -32.80   -16400.00
03922             -31.20   -16400.00
03923             -32.80   -16400.00
03924             -34.40   -16400.00
03925             -33.20   -16400.00
03926             -32.80   -16400.00
03927             -34.40   -16400.00
03928             -33.60   -16400.00
03929             -31.60   -16400.00
03930             -30.40   -16400.00
03931             -28.40   -16400.00
03932             -28.40   -16400.00
03933             -24.80   -16400.00
03934             -24.80   -16200.00
03935             -25.20   -16200.00
03936             -22.00   -16000.00
03937             -22.00   -16200.00
03938             -22.80   -16000.00
03939             -18.80   -16000.00
03940             -20.00   -16000.00
03941             -20.40   -15800.00
03942             -18.00   -15800.00
03943             -18.00   -15600.00
03944             -18.00   -15600.00
03945             -16.00   -15600.00
03946             -16.00   -15400.00
03947             -16.40   -15200.00
03948             -14.80   -15200.00
03949             -14.80   -15200.00
03950             -14.00   -14800.00
03951             -13.60   -14800.00
03952             -12.00   -14600.00
03953             -12.80   -14600.00
03954             -12.40   -14600.00
03955             -11.60   -14400.00
03956             -12.00   -14400.00
03957             -11.60   -14000.00
03958             -10.40   -13800.00
03959             -10.00   -13800.00
03960             -10.80   -13600.00
03961              -9.60   -13400.00
03962              -8.40   -13400.00
03963             -10.40   -13000.00
03964              -8.80   -13000.00
03965              -7.20   -12800.00
03966              -8.80   -12600.00
03967              -8.40   -12400.00
03968              -6.40   -12400.00
03969              -7.60   -12200.00
03970              -7.60   -12000.00
03971              -5.60   -11600.00
03972              -6.80   -11400.00
03973              -7.20   -11400.00
03974              -6.00   -11000.00
03975              -6.00   -11000.00
03976              -6.00   -10600.00
03977              -5.60   -10400.00
03978              -5.60   -10400.00
03979              -5.60   -10000.00
03980              -4.40    -9800.00
03981              -4.40    -9800.00
03982              -6.00    -9400.00
03983              -4.00    -9200.00
03984              -4.00    -9000.00
03985              -5.20    -8800.00
03986              -4.00    -8800.00
03987              -2.80    -8400.00
03988              -4.40    -8200.00
03989              -4.00    -7800.00
03990              -3.20    -7600.00
03991              -4.40    -7600.00
03992              -3.60    -7200.00
03993              -3.60    -6800.00
03994              -2.80    -6800.00
03995              -2.80    -6400.00
03996              -2.80    -6400.00
03997              -3.20    -5800.00
03998              -2.40    -5600.00
03999              -2.80    -5200.00
04000              -2.80    -5000.00
04001              -2.40    -4800.00
04002              -2.40    -4600.00
04003              -2.40    -4400.00
04004              -2.40    -4000.00
04005              -1.20    -3800.00
04006              -2.40    -3600.00
04007              -2.00    -3400.00
04008              -1.20    -3000.00
04009              -1.20    -2800.00
04010              -2.00    -2600.00
04011              -1.20    -2200.00
04012              -0.80    -2000.00
04013              -1.20    -1800.00
04014              -1.20    -1600.00
04015              -0.80    -1200.00
04016              -1.20     -800.00
04017              -0.80     -800.00
04018              -0.40     -200.00
04019              -0.40     -200.00
04020               0.40      200.00
04021               0.40      400.00
04022               2.00      600.00
04023               0.40      800.00
04024              -1.20     1200.00
04025               0.80     1400.00
04026               2.00     1800.00
04027               0.40     2000.00
04028               0.80     2200.00
04029              10.40     2600.00
04030              23.60     3000.00
04031             -16.00     3200.00
04032             -36.00     3400.00
04033              14.80     3600.00
04034              11.60     3600.00
04035             -31.20     4000.00
04036              44.40     4400.00
04037               6.80     4400.00
04038             -50.00     5000.00
04039              50.00     5200.00
04040               9.60     5200.00
04041             -50.00     5800.00
04042              36.80     6000.00
04043              15.60     6000.00
04044             -12.80     6400.00
04045              -4.00     6600.00
04046              10.40     7000.00
04047              23.20     7000.00
04048             -30.80     7200.00
04049               8.00     7600.00
04050              30.00     8000.00
04051             -23.60     8200.00
04052               1.20     8400.00
04053              27.60     8800.00
04054              -0.80     8800.00
04055             -17.20     8800.00
04056              15.20     9200.00
04057              17.20     9400.00
04058             -14.80     9800.00
04059               4.00    10000.00
04060              18.80    10200.00
04061               4.00    10400.00
04062              -8.80    10600.00
04063              11.60    10800.00
04064              14.80    11000.00
04065              -9.60    11200.00
04066               9.60    11600.00
04067              17.20    11600.00
04068              -2.40    11800.00
04069               2.00    12000.00
04070              16.40    12000.00
04071               5.20    12400.00
04072              -2.00    12600.00
04073              12.40    12600.00
04074              13.60    12800.00
04075               2.00    13000.00
04076               6.40    13200.00
04077              15.20    13200.00
04078               6.00    13600.00
04079               4.00    13600.00
04080              14.40    14000.00
04081              11.60    14000.00
04082               4.40    14200.00
04083              13.20    14200.00
04084              15.60    14600.00
04085               6.00    14600.00
04086              10.80    14800.00
04087              16.80    14800.00
04088              10.80    14800.00
04089              10.80    15000.00
04090              17.20    15000.00
04091              15.20    15200.00
04092              11.20    15200.00
04093              17.20    15400.00
04094              18.00    15600.00
04095              14.80    15800.00
04096              17.20    15800.00
04097              20.80    15800.00
04098              18.40    16000.00
04099              18.00    16000.00
04100              21.60    16000.00
04101              21.60    16000.00
04102              20.40    16000.00
04103              24.00    16200.00
04104              26.00    16400.00
04105              23.60    16400.00
04106              26.00    16400.00
04107              28.40    16200.00
04108              28.00    16400.00
04109              28.40    16400.00
04110              31.20    16400.00
04111              31.20    16600.00
04112              30.80    16400.00
04113              32.40    16600.00
04114              33.20    16600.00
04115              32.80    16400.00
04116              33.20    16600.00
04117              34.00    16400.00
04118              32.80    16400.00
04119              31.20    16400.00
04120              30.00    16400.00
04121              28.40    16400.00
04122              27.20    16400.00
04123              26.40    16400.00
04124              24.80    16400.00
04125              23.20    16400.00
04126              22.80    16000.00
04127              21.20    16000.00
04128              20.40    16200.00
04129              20.00    16000.00
04130              18.80    16000.00
04131              18.40    16000.00
04132              18.40    15800.00
04133              17.20    15800.00
04134              16.80    15600.00
04135              15.60    15600.00
04136              15.60    15400.00
04137              14.80    15400.00
04138              13.60    15200.00
04139              14.00    15200.00
04140              14.00    15000.00
04141              12.00    15000.00
04142              12.40    14800.00
04143              12.40    14800.00
04144              11.60    14600.00
04145              11.60    14400.00
04146              11.60    14400.00
04147              10.40    14200.00
04148              10.00    14000.00
04149              10.00    14000.00
04150               9.20    13600.00
04151               9.20    13600.00
04152               9.20    13400.00
04153               8.40    13200.00
04154               8.40    13200.00
04155               8.40    13000.00
04156               7.60    12800.00
04157               7.20    12600.00
04158               7.20    12400.00
04159               6.80    12200.00
04160               6.40    12000.00
04161               6.80    11800.00
04162               6.80    11600.00
04163               5.60    11400.00
04164               6.40    11200.00
04165               6.00    11000.00
04166               5.20    10800.00
04167               5.20    10600.00
04168               5.20    10400.00
04169               4.80    10200.00
04170               5.20    10000.00
04171               4.40     9800.00
04172               4.00     9600.00
04173               4.00     9400.00
04174               4.40     9200.00
04175               3.60     9000.00
04176               3.60     8800.00
04177               4.00     8400.00
04178               3.60     8200.00
04179               2.80     8000.00
04180               3.60     7800.00
04181               3.60     7600.00
04182               2.80     7200.00
04183               2.80     7000.00
04184               2.40     6800.00
04185               2.00     6600.00
04186               2.40     6200.00
04187               2.00     6200.00
04188               2.00     5800.00
04189               2.40     5600.00
04190               1.60     5200.00
04191               1.20     5000.00
04192               2.00     4600.00
04193               1.20     4400.00
04194               1.20     4200.00
04195               1.20     4000.00
04196               0.80     3600.00
04197               0.80     3600.00
04198               1.20     3200.00
04199               1.20     2800.00
04200               0.40     2600.00
04201               0.40     2400.00
04202               0.80     2200.00
04203               0.40     1800.00
04204               0.00     1600.00
04205               0.40     1400.00
04206               0.40     1000.00
04207              -0.40      800.00
04208              -0.40      600.00
04209              -0.40      200.00
04210              -0.40        0.00
04211              -0.40     -400.00
04212               1.20     -400.00
04213               2.00     -800.00
04214              -2.00    -1000.00
04215              -0.80    -1400.00
04216               0.40    -1600.00
04217              -1.20    -1800.00
04218              -1.20    -2000.00
04219              11.20    -2200.00
04220              29.60    -2800.00
04221             -34.00    -3200.00
04222             -38.80    -3400.00
04223              24.40    -3600.00
04224             -13.60    -3400.00
04225              16.80    -3600.00
04226              34.00    -4400.00
04227             -50.00    -4000.00
04228              50.00    -4600.00
04229              50.00    -5200.00
04230             -50.00    -5000.00
04231              50.00    -5600.00
04232              40.40    -5600.00
04233             -50.00    -5800.00
04234              34.00    -6400.00
04235              -6.00    -6200.00
04236              10.80    -7000.00
04237             -16.80    -6800.00
04238             -28.00    -7200.00
04239              50.00    -7600.00
04240             -40.80    -7600.00
04241             -13.20    -8200.00
04242              29.60    -8200.00
04243             -10.40    -8400.00
04244             -14.80    -9000.00
04245             -15.20    -8800.00
04246              30.00    -9200.00
04247             -27.60    -9400.00
04248             -14.80    -9600.00
04249              20.00    -9800.00
04250             -14.80   -10000.00
04251              -6.00   -10400.00
04252             -13.20   -10400.00
04253              12.00   -10800.00
04254             -18.40   -10800.00
04255             -14.80   -11200.00
04256              15.20   -11400.00
04257             -16.80   -11400.00
04258             -10.80   -11600.00
04259               0.00   -12000.00
04260              -4.40   -12200.00
04261             -17.20   -12200.00
04262              -5.20   -12400.00
04263              -1.20   -12600.00
04264             -12.40   -13000.00
04265             -10.40   -13000.00
04266              -4.00   -13200.00
04267              -9.60   -13200.00
04268             -15.20   -13600.00
04269              -4.40   -13600.00
04270              -9.20   -13800.00
04271             -13.60   -14000.00
04272             -10.40   -14000.00
04273              -6.00   -14000.00
04274             -15.20   -14400.00
04275             -14.00   -14400.00
04276              -6.80   -14600.00
04277             -15.20   -14800.00
04278             -15.20   -14800.00
04279             -10.40   -14800.00
04280             -12.00   -15000.00
04281             -18.40   -15200.00
04282             -13.60   -15200.00
04283             -12.40   -15400.00
04284             -20.00   -15400.00
04285             -17.60   -15600.00
04286             -14.00   -15600.00
04287             -18.40   -15600.00
04288             -21.60   -15800.00
04289             -18.40   -16000.00
04290             -18.80   -16000.00
04291             -23.60   -16200.00
04292             -22.00   -16200.00
04293             -20.40   -16000.00
04294             -24.80   -16400.00
04295             -26.40   -16400.00
04296             -25.20   -16200.00
04297             -26.80   -16400.00
04298             -29.60   -16400.00
04299             -28.40   -16400.00
04300             -28.00   -16400.00
04301             -31.20   -16400.00
04302             -32.40   -16400.00
04303             -31.60   -16400.00
04304             -33.20   -16600.00
04305             -34.00   -16400.00
04306             -33.20   -16400.00
04307             -33.20   -16400.00
04308             -34.00   -16400.00
04309             -33.20   -16400.00
04310             -31.20   -16400.00
04311             -30.00   -16400.00
04312             -28.40   -16400.00
04313             -27.60   -16200.00
04314             -25.20   -16200.00
04315             -24.40   -16400.00
04316             -24.80   -16200.00
04317             -23.20   -16200.00
04318             -22.00   -16200.00
04319             -21.60   -16000.00
04320             -20.40   -16000.00
04321             -18.80   -16000.00
04322             -18.80   -16000.00
04323             -18.40   -15800.00
04324             -18.00   -15800.00
04325             -17.20   -15600.00
04326             -16.80   -15400.00
04327             -16.40   -15400.00
04328             -15.20   -15200.00
04329             -14.80   -15200.00
04330             -14.80   -15200.00
04331             -14.80   -15200.00
04332             -13.60   -14800.00
04333             -12.40   -14800.00
04334             -13.60   -14800.00
04335             -12.00   -14600.00
04336             -10.80   -14400.00
04337             -12.00   -14400.00
04338             -11.60   -14000.00
04339             -10.00   -13800.00
04340             -10.40   -13800.00
04341             -10.40   -13600.00
04342             -10.00   -13400.00
04343              -9.20   -13200.00
04344              -8.80   -13000.00
04345              -9.20   -13000.00
04346              -8.40   -12800.00
04347              -7.60   -12400.00
04348              -8.80   -12400.00
04349              -7.60   -12200.00
04350              -7.20   -12200.00
04351              -7.20   -12000.00
04352              -7.60   -11600.00
04353              -6.00   -11600.00
04354              -6.00   -11400.00
04355              -6.80   -11200.00
04356              -6.40   -10800.00
04357              -5.20   -10800.00
04358              -5.60   -10400.00
04359              -6.00   -10400.00
04360              -5.20   -10000.00
04361              -4.00    -9800.00
04362              -5.20    -9600.00
04363              -6.00    -9600.00
04364              -4.40    -9200.00
04365              -4.40    -9000.00
04366              -4.00    -8800.00
04367              -3.60    -8600.00
04368              -4.00    -8200.00
04369              -4.40    -8000.00
04370              -4.00    -7800.00
04371              -4.40    -7600.00
04372              -3.60    -7400.00
04373              -2.40    -7200.00
04374              -3.20    -6800.00
04375              -2.80    -6800.00
04376              -2.80    -6400.00
04377              -3.60    -6000.00
04378              -2.80    -5800.00
04379              -3.60    -5600.00
04380              -2.00    -5600.00
04381              -0.80    -5000.00
04382              -2.80    -4600.00
04383              -4.00    -4600.00
04384              -2.00    -4200.00
04385              -2.40    -4000.00
04386              -2.40    -3800.00
04387              -1.20    -3600.00
04388              -0.80    -3200.00
04389              -2.00    -3200.00
04390              -2.40    -2800.00
04391              -1.20    -2600.00
04392              -2.00    -2200.00
04393              -1.60    -2000.00
04394              -0.40    -1800.00
04395              -1.20    -1400.00
04396              -1.20    -1200.00
04397              -0.80    -1000.00
04398              -1.20     -600.00
04399              -1.20     -400.00
04400               0.40        0.00
04401              -0.80        0.00
04402               0.40      400.00
04403               2.80      600.00
04404              -0.40      800.00
04405              -2.00     1200.00
04406               0.80     1400.00
04407               2.00     1800.00
04408              -1.20     2000.00
04409               1.20     2200.00
04410              11.60     2400.00
04411              22.80     2800.00
04412             -16.40     3200.00
04413             -35.60     3400.00
04414              14.80     3600.00
04415              10.80     3800.00
04416             -30.80     4000.00
04417              44.40     4400.00
04418               5.20     4400.00
04419             -50.00     5000.00
04420              50.00     5200.00
04421               7.20     5200.00
04422             -50.00     5800.00
04423              36.80     5600.00
04424              14.80     6200.00
04425             -12.00     6600.00
04426              -4.40     6600.00
04427              10.40     7000.00
04428              23.20     7000.00
04429             -31.20     7600.00
04430               8.40     7600.00
04431              30.80     7800.00
04432             -23.60     8400.00
04433               1.20     8400.00
04434              27.20     8800.00
04435              -0.80     8800.00
04436             -17.20     9000.00
04437              15.60     9200.00
04438              18.00     9400.00
04439             -14.00    10000.00
04440               3.60    10000.00
04441              19.60    10200.00
04442               4.00    10400.00
04443              -9.20    10600.00
04444              12.00    10800.00
04445              14.80    11000.00
04446             -10.00    11400.00
04447              10.00    11200.00
04448              17.20    11600.00
04449              -2.80    12000.00
04450               2.00    12000.00
04451              16.80    12200.00
04452               5.20    12400.00
04453              -2.40    12600.00
04454              12.40    12800.00
04455              13.60    12800.00
04456               1.20    13000.00
04457               6.80    13200.00
04458              15.20    13400.00
04459               6.00    13400.00
04460               4.00    13600.00
04461              14.80    14000.00
04462              11.60    14000.00
04463               4.00    14000.00
04464              13.20    14200.00
04465              15.60    14600.00
04466               5.20    14600.00
04467              11.20    14800.00
04468              16.40    14800.00
04469              10.80    14800.00
04470              10.80    15000.00
04471              16.80    15000.00
04472              15.20    15400.00
04473              11.60    15400.00
04474              16.80    15600.00
04475              18.00    15600.00
04476              15.20    15600.00
04477              17.20    15600.00
04478              20.00    15800.00
04479              18.80    16000.00
04480              18.00    15800.00
04481              21.20    16000.00
04482              22.80    16000.00
04483              20.40    16200.00
04484              23.20    16200.00
04485              26.40    16400.00
04486              24.40    16400.00
04487              25.20    16400.00
04488              28.00    16400.00
04489              28.40    16400.00
04490              28.00    16400.00
04491              31.20    16400.00
04492              32.40    16600.00
04493              30.80    16600.00
04494              32.40    16400.00
04495              34.00    16400.00
04496              32.80    16600.00
04497              32.80    16400.00
04498              34.00    16400.00
04499              32.80    16400.00
04500              30.80    16400.00
04501              30.40    16400.00
04502              29.20    16400.00
04503              26.80    16400.00
04504              26.00    16400.00
04505              25.20    16400.00
04506              24.40    16400.00
04507              22.80    16200.00
04508              21.60    16000.00
04509              21.20    16200.00
04510              20.00    16000.00
04511              19.20    16000.00
04512              18.80    15800.00
04513              18.00    15800.00
04514              16.80    15800.00
04515              16.80    15600.00
04516              16.00    15600.00
04517              16.40    15600.00
04518              14.80    15200.00
04519              14.00    15200.00
04520              13.60    15200.00
04521              13.60    15200.00
04522              12.40    14800.00
04523              13.20    14800.00
04524              12.00    14800.00
04525              11.60    14400.00
04526              11.60    14600.00
04527              11.60    14400.00
04528              10.80    14200.00
04529              10.40    14000.00
04530               9.20    13800.00
04531               9.20    13600.00
04532               9.60    13600.00
04533               8.40    13200.00
04534               8.40    13200.00
04535               9.20    13200.00
04536               7.60    12800.00
04537               6.80    12600.00
04538               8.40    12600.00
04539               7.20    12400.00
04540               5.60    12200.00
04541               7.20    12200.00
04542               7.20    12000.00
04543               5.60    11800.00
04544               6.00    11200.00
04545               6.80    11200.00
04546               5.20    11000.00
04547               5.20    10800.00
04548               5.60    10600.00
04549               5.20    10400.00
04550               5.20    10200.00
04551               5.60    10000.00
04552               5.20     9800.00
04553               4.00     9600.00
04554               4.00     9400.00
04555               4.00     9200.00
04556               4.00     9000.00
04557               4.40     8600.00
04558               4.00     8400.00
04559               3.60     8400.00
04560               3.60     8000.00
04561               3.20     7800.00
04562               2.80     7600.00
04563               3.60     7200.00
04564               3.60     7000.00
04565               2.40     6800.00
04566               2.80     6400.00
04567               2.00     6200.00
04568               1.20     6000.00
04569               2.00     5800.00
04570               3.60     5600.00
04571               2.40     5200.00
04572               2.00     5000.00
04573               2.00     4600.00
04574               0.40     4600.00
04575               1.20     4000.00
04576               2.00     3800.00
04577               0.80     3800.00
04578               0.80     3400.00
04579               0.80     3200.00
04580               0.80     2800.00
04581               0.80     2800.00
04582               0.40     2400.00
04583               0.40     2200.00
04584               0.80     2000.00
04585               0.40     1600.00
04586               0.40     1200.00
04587               0.80     1000.00
04588               0.00      800.00
04589              -1.20      400.00
04590               0.40      200.00
04591              -0.40        0.00
04592              -0.80     -200.00
04593               1.20     -400.00
04594               2.80     -800.00
04595              -2.40    -1000.00
04596              -1.20    -1200.00
04597               0.80    -1600.00
04598              -0.80    -1800.00
04599              -2.00    -2000.00
04600              11.60    -2400.00
04601              29.60    -2800.00
04602             -34.80    -3200.00
04603             -38.00    -3400.00
04604              24.80    -3800.00
04605             -14.80    -3400.00
04606              18.00    -3800.00
04607              34.00    -4400.00
04608             -50.00    -4200.00
04609              50.00    -4800.00
04610              50.00    -5200.00
04611             -50.00    -5000.00
04612              50.00    -5800.00
04613              39.60    -5600.00
04614             -50.00    -5800.00
04615              33.20    -6400.00
04616              -5.20    -6400.00
04617              11.60    -6800.00
04618             -18.80    -6800.00
04619             -27.60    -7200.00
04620              50.00    -7600.00
04621             -42.40    -7400.00
04622             -12.40    -8000.00
04623              30.00    -8200.00
04624             -10.80    -8400.00
04625             -15.20    -8800.00
04626             -14.00    -8800.00
04627              30.00    -9200.00
04628             -28.40    -9200.00
04629             -14.80    -9600.00
04630              20.40   -10000.00
04631             -14.00    -9800.00
04632              -6.00   -10400.00
04633             -12.40   -10600.00
04634              12.40   -10800.00
04635             -19.60   -10800.00
04636             -14.00   -11200.00
04637              15.60   -11400.00
04638             -17.20   -11400.00
04639             -10.00   -11800.00
04640               0.40   -12000.00
04641              -5.20   -12200.00
04642             -16.80   -12400.00
04643              -5.20   -12400.00
04644              -2.00   -12800.00
04645             -12.40   -12800.00
04646             -10.00   -13000.00
04647              -4.00   -13200.00
04648              -9.20   -13200.00
04649             -15.60   -13600.00
04650              -4.40   -13600.00
04651              -9.20   -13800.00
04652             -13.60   -14000.00
04653              -9.20   -14000.00
04654              -6.00   -14200.00
04655             -15.20   -14400.00
04656             -14.00   -14600.00
04657              -7.20   -14600.00
04658             -15.20   -14800.00
04659             -15.20   -14800.00
04660             -10.00   -14800.00
04661             -12.40   -15200.00
04662             -18.40   -15200.00
04663             -13.60   -15400.00
04664             -13.20   -15200.00
04665             -20.00   -15600.00
04666             -17.20   -15600.00
04667             -14.80   -15600.00
04668             -18.00   -15800.00
04669             -21.60   -15800.00
04670             -18.40   -16000.00
04671             -19.20   -16000.00
04672             -23.60   -16200.00
04673             -22.00   -16000.00
04674             -20.40   -16200.00
04675             -24.80   -16000.00
04676             -26.40   -16200.00
04677             -25.20   -16400.00
04678             -26.80   -16400.00
04679             -29.60   -16400.00
04680             -28.80   -16400.00
04681             -28.00   -16400.00
04682             -31.20   -16400.00
04683             -32.40   -16400.00
04684             -31.60   -16400.00
04685             -33.20   -16400.00
04686             -34.00   -16400.00
04687             -33.20   -16600.00
04688             -33.20   -16400.00
04689             -33.60   -16400.00
04690             -32.80   -16400.00
04691             -31.20   -16400.00
04692             -30.00   -16400.00
04693             -28.40   -16400.00
04694             -26.80   -16200.00
04695             -25.60   -16200.00
04696             -24.80   -16400.00
04697             -24.40   -16200.00
04698             -22.80   -16200.00
04699             -21.60   -16200.00
04700             -21.20   -16000.00
04701             -20.40   -16000.00
04702             -18.80   -15800.00
04703             -18.40   -15800.00
04704             -18.40   -15600.00
04705             -18.00   -15600.00
04706             -16.80   -15600.00
04707             -16.40   -15400.00
04708             -15.60   -15400.00
04709             -15.60   -15200.00
04710             -15.20   -15200.00
04711             -14.80   -15200.00
04712             -14.00   -15000.00
04713             -13.60   -14800.00
04714             -12.80   -14800.00
04715             -13.20   -14800.00
04716             -12.40   -14400.00
04717             -12.00   -14400.00
04718             -12.00   -14200.00
04719             -10.80   -14000.00
04720             -10.80   -14000.00
04721             -10.40   -13800.00
04722             -10.00   -13600.00
04723             -10.00   -13600.00
04724              -9.20   -13200.00
04725              -9.20   -13000.00
04726              -8.80   -13000.00
04727              -8.00   -12800.00
04728              -8.40   -12800.00
04729              -8.00   -12400.00
04730              -8.40   -12400.00
04731              -7.60   -12200.00
04732              -7.60   -12000.00
04733              -6.80   -11600.00
04734              -6.00   -11400.00
04735              -6.80   -11200.00
04736              -6.80   -11000.00
04737              -5.60   -11000.00
04738              -6.00   -10800.00
04739              -5.60   -10600.00
04740              -5.60   -10400.00
04741              -5.60   -10200.00
04742              -4.80    -9800.00
04743              -4.40    -9600.00
04744              -6.00    -9600.00
04745              -4.40    -9200.00
04746              -4.40    -9000.00
04747              -4.80    -8800.00
04748              -4.00    -8600.00
04749              -4.00    -8400.00
04750              -4.40    -8000.00
04751              -4.00    -7600.00
04752              -3.60    -7600.00
04753              -4.00    -7400.00
04754              -3.60    -7200.00
04755              -3.60    -6800.00
04756              -2.80    -6600.00
04757              -2.80    -6400.00
04758              -2.80    -6000.00
04759              -2.80    -5800.00
04760              -2.80    -5600.00
04761              -2.40    -5400.00
04762              -2.40    -5200.00
04763              -2.40    -4600.00
04764              -2.00    -4600.00
04765              -2.40    -4400.00
04766              -2.00    -4000.00
04767              -1.60    -4000.00
04768              -2.00    -3600.00
04769              -2.00    -3200.00
04770              -1.20    -3000.00
04771              -1.20    -2800.00
04772              -2.00    -2600.00
04773              -1.20    -2200.00
04774              -1.20    -2000.00
04775              -1.20    -1600.00
04776              -1.20    -1600.00
04777              -1.20    -1200.00
04778              -1.20     -800.00
04779              -0.80     -600.00
04780              -0.80     -400.00
04781              -0.40        0.00
04782              -0.80        0.00
04783               0.00      400.00
04784               2.80      600.00
04785              -0.40     1200.00
04786              -1.20     1200.00
04787               1.20     1400.00
04788               1.20     1600.00
04789              -0.40     2000.00
04790               0.80     2200.00
04791              10.80     2600.00
04792              23.20     3000.00
04793             -16.80     3200.00
04794             -35.60     3600.00
04795              15.20     3600.00
04796              10.40     3800.00
04797             -30.80     4000.00
04798              45.20     4400.00
04799               4.00     4400.00
04800             -50.00     5000.00
04801              50.00     5200.00
04802               6.40     5200.00
04803             -50.00     5600.00
04804              37.20     5800.00
04805              13.60     6200.00
04806             -12.40     6400.00
04807              -4.40     6600.00
04808              10.40     7000.00
04809              22.00     7200.00
04810             -31.20     7200.00
04811               9.20     7600.00
04812              29.60     7800.00
04813             -24.00     8200.00
04814               2.80     8400.00
04815              26.40     8600.00
04816              -1.20     8800.00
04817             -16.80     9200.00
04818              15.20     9200.00
04819              17.20     9600.00
04820             -14.00     9600.00
04821               3.60    10000.00
04822              18.40    10200.00
04823               4.40    10400.00
04824              -8.40    10400.00
04825              11.60    10800.00
04826              14.80    11000.00
04827              -9.20    11200.00
04828               9.60    11400.00
04829              18.00    11600.00
04830              -2.40    11800.00
04831               1.20    12000.00
04832              17.20    12200.00
04833               5.20    12400.00
04834              -2.80    12600.00
04835              13.60    12800.00
04836              13.20    12800.00
04837               1.20    13000.00
04838               6.80    13200.00
04839              15.20    13400.00
04840               5.60    13400.00
04841               4.00    13600.00
04842              14.80    13800.00
04843              11.60    14000.00
04844               4.40    14200.00
04845              13.20    14200.00
04846              15.60    14200.00
04847               5.60    14600.00
04848              10.80    14600.00
04849              17.20    14800.00
04850              10.80    14800.00
04851              10.00    15000.00
04852              17.20    15000.00
04853              15.20    15400.00
04854              11.60    15200.00
04855              16.40    15400.00
04856              18.00    15600.00
04857              15.20    15600.00
04858              16.40    15600.00
04859              20.00    15800.00
04860              19.60    16000.00
04861              18.00    16000.00
04862              20.40    16000.00
04863              23.20    16000.00
04864              21.20    16000.00
04865              22.80    16200.00
04866              26.40    16400.00
04867              24.80    16400.00
04868              24.80    16400.00
04869              28.40    16400.00
04870              28.40    16400.00
04871              27.60    16600.00
04872              30.40    16400.00
04873              32.40    16400.00
04874              30.80    16600.00
04875              32.40    16600.00
04876              34.00    16400.00
04877              32.80    16400.00
04878              33.20    16400.00
04879              33.60    16400.00
04880              32.80    16600.00
04881              31.20    16400.00
04882              29.60    16400.00
04883              28.40    16400.00
04884              27.60    16400.00
04885              26.00    16400.00
04886              24.40    16200.00
04887              24.40    16400.00
04888              22.80    16200.00
04889              21.20    16000.00
04890              21.60    16000.00
04891              20.00    16000.00
04892              18.80    15800.00
04893              18.40    16000.00
04894              18.40    15800.00
04895              18.00    15600.00
04896              16.80    15600.00
04897              16.40    15600.00
04898              16.40    15400.00
04899              14.80    15600.00
04900              14.00    15200.00
04901              14.40    15200.00
04902              13.60    15000.00
04903              12.40    15000.00
04904              13.20    14800.00
04905              12.00    14800.00
04906              11.60    14600.00
04907              11.60    14600.00
04908              10.80    14200.00
04909              10.40    14000.00
04910              11.20    14000.00
04911              10.00    14000.00
04912               8.80    13600.00
04913               9.20    13400.00
04914               8.40    13200.00
04915               7.60    13200.00
04916               8.80    13200.00
04917               8.40    12800.00
04918               6.80    12800.00
04919               8.00    12600.00
04920               7.60    12400.00
04921               6.80    12200.00
04922               6.80    12000.00
04923               6.80    11800.00
04924               5.60    11600.00
04925               6.00    11400.00
04926               6.40    11200.00
04927               5.20    11000.00
04928               5.20    10800.00
04929               5.20    10800.00
04930               5.20    10400.00
04931               4.40    10200.00
04932               4.80    10000.00
04933               5.20     9800.00
04934               4.40     9600.00
04935               4.00     9400.00
04936               4.00     9000.00
04937               4.00     8800.00
04938               3.60     8600.00
04939               4.00     8400.00
04940               3.60     8200.00
04941               3.60     8000.00
04942               3.60     7800.00
04943               3.60     7600.00
04944               2.80     7200.00
04945               3.20     7000.00
04946               2.40     6600.00
04947               2.80     6400.00
04948               2.40     6400.00
04949               2.00     6000.00
04950               2.40     5800.00
04951               2.00     5400.00
04952               2.00     5400.00
04953               2.00     4800.00
04954               2.00     4800.00
04955               1.20     4400.00
04956               1.20     4200.00
04957               1.20     4000.00
04958               1.20     3600.00
04959               1.20     3400.00
04960               0.80     3200.00
04961               0.80     3000.00
04962               0.80     2600.00
04963               0.80     2400.00
04964               0.80     2200.00
04965               0.80     1800.00
04966               0.40     1600.00
04967               0.40     1200.00
04968               0.40     1200.00
04969              -0.40      800.00
04970               0.00      600.00
04971              -0.40      200.00
04972              -0.80        0.00
04973               0.00     -400.00
04974               0.80     -400.00
04975               1.20     -800.00
04976              -2.00    -1000.00
04977              -1.20    -1400.00
04978               0.40    -1600.00
04979              -0.80    -1800.00
04980              -1.20    -2000.00
04981              11.60    -2200.00
04982              29.20    -2800.00
04983             -35.60    -3200.00
04984             -37.60    -3400.00
04985              24.40    -3600.00
04986             -15.20    -3600.00
04987              18.40    -3800.00
04988              32.40    -4400.00
04989             -50.00    -4000.00
04990              50.00    -4800.00
04991              50.00    -5200.00
04992             -50.00    -5000.00
04993              50.00    -5800.00
04994              37.60    -5800.00
04995             -50.00    -5800.00
04996              33.60    -6200.00
04997              -5.20    -6400.00
04998              11.60    -6800.00
04999             -19.60    -7200.00
05000             -26.80    -7200.00
