Unit:(mV)
                     CH1         CH2
Frequency              ? 262.442 kHz
00001               1.20     4600.00
00002               1.20     4400.00
00003               2.00     4000.00
00004               0.80     3600.00
00005               1.20     3600.00
00006               1.20     3200.00
00007               0.80     3000.00
00008               0.40     2800.00
00009               0.40     2400.00
00010               0.40     2200.00
00011               0.40     2000.00
00012               0.80     1600.00
00013               0.80     1400.00
00014              -0.80     1000.00
00015              -0.40      800.00
00016               0.40      600.00
00017              -0.80      400.00
00018              -0.40        0.00
00019               0.40     -200.00
00020              -0.40     -400.00
00021               2.00     -600.00
00022              -0.80     -800.00
00023              -2.40    -1400.00
00024               0.80    -1400.00
00025               0.40    -1800.00
00026              -2.40    -2000.00
00027               5.20    -2400.00
00028              32.80    -2800.00
00029             -18.00    -3200.00
00030             -50.00    -3400.00
00031              14.80    -3600.00
00032               3.60    -3800.00
00033              -7.60    -3600.00
00034              50.00    -4400.00
00035             -50.00    -4200.00
00036               9.60    -4600.00
00037              50.00    -5200.00
00038             -50.00    -5200.00
00039               0.40    -5600.00
00040              50.00    -5800.00
00041             -50.00    -5800.00
00042              15.20    -6400.00
00043              10.00    -6400.00
00044              -6.00    -6800.00
00045               6.00    -7200.00
00046             -38.80    -7200.00
00047              37.60    -8000.00
00048             -15.20    -7600.00
00049             -26.40    -8000.00
00050              22.80    -8400.00
00051              -4.40    -8400.00
00052              -4.00    -9000.00
00053             -28.00    -9000.00
00054              24.40    -9400.00
00055              -6.00    -9600.00
00056             -31.60    -9600.00
00057              18.40   -10000.00
00058              -5.60   -10200.00
00059              -5.20   -10400.00
00060             -18.00   -10600.00
00061              10.00   -10800.00
00062              -6.00   -11000.00
00063             -24.80   -11200.00
00064              13.60   -11400.00
00065              -8.80   -11600.00
00066             -13.60   -12000.00
00067              -2.80   -12200.00
00068              -1.60   -12200.00
00069             -14.00   -12400.00
00070              -9.20   -12600.00
00071              -2.40   -13000.00
00072              -7.60   -13000.00
00073             -10.80   -13200.00
00074              -7.60   -13400.00
00075              -4.40   -13600.00
00076             -15.20   -13800.00
00077              -8.80   -13800.00
00078              -7.60   -14200.00
00079             -11.60   -14000.00
00080             -12.40   -14400.00
00081              -7.60   -14400.00
00082             -10.80   -14800.00
00083             -15.60   -14800.00
00084              -8.80   -14800.00
00085             -12.00   -15000.00
00086             -15.60   -15200.00
00087             -12.00   -15200.00
00088             -10.40   -15400.00
00089             -17.20   -15400.00
00090             -16.00   -15600.00
00091             -12.40   -15800.00
00092             -18.80   -15800.00
00093             -18.40   -16000.00
00094             -14.80   -15800.00
00095             -16.80   -16200.00
00096             -20.40   -16200.00
00097             -19.60   -16200.00
00098             -18.80   -16400.00
00099             -22.80   -16200.00
00100             -23.20   -16400.00
00101             -21.20   -16400.00
00102             -22.80   -16400.00
00103             -26.00   -16400.00
00104             -25.20   -16800.00
00105             -26.00   -16600.00
00106             -29.20   -16800.00
00107             -29.60   -16800.00
00108             -28.00   -16600.00
00109             -30.80   -16800.00
00110             -32.40   -16800.00
00111             -31.20   -16800.00
00112             -33.20   -16800.00
00113             -34.00   -16800.00
00114             -34.00   -16800.00
00115             -34.00   -16800.00
00116             -33.20   -16800.00
00117             -33.20   -16800.00
00118             -31.60   -16800.00
00119             -30.00   -16800.00
00120             -29.20   -16600.00
00121             -28.40   -16600.00
00122             -26.40   -16600.00
00123             -24.40   -16400.00
00124             -24.80   -16600.00
00125             -23.60   -16400.00
00126             -21.60   -16400.00
00127             -21.60   -16200.00
00128             -21.20   -16200.00
00129             -19.60   -16200.00
00130             -18.40   -16200.00
00131             -18.80   -16000.00
00132             -18.00   -16000.00
00133             -16.80   -16000.00
00134             -16.80   -15800.00
00135             -16.40   -15600.00
00136             -15.20   -15600.00
00137             -15.20   -15600.00
00138             -14.80   -15400.00
00139             -14.40   -15200.00
00140             -13.60   -15200.00
00141             -13.60   -15000.00
00142             -12.40   -14800.00
00143             -13.20   -14800.00
00144             -12.40   -14800.00
00145             -11.60   -14600.00
00146             -12.00   -14400.00
00147             -10.40   -14200.00
00148             -10.00   -14000.00
00149             -10.40   -14000.00
00150             -10.80   -13600.00
00151              -8.80   -13600.00
00152             -10.00   -13400.00
00153              -9.20   -13200.00
00154              -8.40   -13200.00
00155              -8.80   -13000.00
00156              -8.40   -12800.00
00157              -7.60   -12600.00
00158              -8.40   -12400.00
00159              -7.60   -12200.00
00160              -7.20   -12200.00
00161              -7.60   -12000.00
00162              -6.00   -11600.00
00163              -6.80   -11400.00
00164              -6.80   -11000.00
00165              -5.60   -11000.00
00166              -6.00   -10800.00
00167              -6.00   -10600.00
00168              -5.20   -10400.00
00169              -5.20   -10200.00
00170              -4.80    -9800.00
00171              -5.20    -9800.00
00172              -4.40    -9400.00
00173              -5.60    -9200.00
00174              -3.60    -9000.00
00175              -4.40    -8800.00
00176              -4.40    -8600.00
00177              -4.00    -8400.00
00178              -3.60    -8000.00
00179              -4.40    -7600.00
00180              -2.80    -7600.00
00181              -2.80    -7200.00
00182              -4.40    -7200.00
00183              -3.20    -6800.00
00184              -2.40    -6400.00
00185              -3.20    -6400.00
00186              -2.40    -6000.00
00187              -2.00    -5800.00
00188              -2.80    -5600.00
00189              -2.80    -5200.00
00190              -2.00    -5000.00
00191              -2.40    -4600.00
00192              -2.80    -4400.00
00193              -1.20    -4200.00
00194              -1.60    -4000.00
00195              -2.00    -3600.00
00196              -1.60    -3400.00
00197              -1.20    -3200.00
00198              -2.00    -3000.00
00199              -2.00    -2600.00
00200              -0.80    -2400.00
00201              -1.20    -2000.00
00202              -1.20    -1800.00
00203              -0.80    -1600.00
00204              -1.20    -1200.00
00205              -0.80    -1000.00
00206              -1.20     -800.00
00207              -0.80     -400.00
00208              -0.40     -200.00
00209              -0.80        0.00
00210               0.40      400.00
00211               2.00      600.00
00212               0.80      800.00
00213              -1.60     1200.00
00214               0.80     1200.00
00215               2.00     1800.00
00216              -0.40     2000.00
00217               0.00     2200.00
00218               7.20     2400.00
00219              22.00     2800.00
00220              -0.80     3200.00
00221             -40.80     3400.00
00222              -0.80     3600.00
00223              23.60     3800.00
00224             -29.20     4000.00
00225              18.00     4400.00
00226              44.00     4400.00
00227             -50.00     4800.00
00228              36.00     5400.00
00229              50.00     5400.00
00230             -50.00     5800.00
00231              18.00     6000.00
00232              32.80     6000.00
00233             -20.00     6400.00
00234               4.80     6600.00
00235               0.40     7000.00
00236              16.80     7200.00
00237              -6.80     7400.00
00238              -8.80     7600.00
00239              22.40     8000.00
00240              -4.00     8200.00
00241              -5.60     8400.00
00242              13.60     8600.00
00243              14.00     8800.00
00244             -12.00     9200.00
00245              -4.40     9400.00
00246              25.20     9600.00
00247              -4.00     9800.00
00248              -7.20    10000.00
00249              15.60    10400.00
00250              12.00    10600.00
00251              -6.00    10800.00
00252               2.80    11000.00
00253              18.00    11200.00
00254              -3.60    11200.00
00255               2.00    11600.00
00256              15.60    11800.00
00257               4.80    12000.00
00258               0.40    12000.00
00259              10.80    12400.00
00260              10.40    12600.00
00261               0.80    12800.00
00262               6.80    12800.00
00263              13.20    13200.00
00264               6.80    13200.00
00265               4.80    13400.00
00266              12.00    13600.00
00267              10.00    13600.00
00268               5.20    14000.00
00269               9.20    14000.00
00270              13.20    14200.00
00271               7.60    14200.00
00272               8.40    14400.00
00273              15.60    14600.00
00274              10.00    14800.00
00275               8.00    14800.00
00276              15.20    15000.00
00277              13.60    15200.00
00278              10.00    15200.00
00279              14.80    15200.00
00280              16.80    15600.00
00281              11.60    15600.00
00282              15.20    15800.00
00283              18.00    15800.00
00284              15.20    16000.00
00285              16.80    15800.00
00286              19.60    16000.00
00287              19.60    16000.00
00288              18.40    16400.00
00289              20.00    16400.00
00290              21.60    16400.00
00291              21.20    16400.00
00292              21.60    16400.00
00293              25.20    16600.00
00294              25.20    16600.00
00295              24.40    16600.00
00296              27.20    16800.00
00297              29.20    16600.00
00298              28.00    16800.00
00299              29.60    16800.00
00300              32.80    16800.00
00301              30.80    16800.00
00302              31.20    16800.00
00303              34.00    16800.00
00304              33.20    16800.00
00305              32.40    16800.00
00306              34.80    16800.00
00307              33.60    16800.00
00308              30.80    16800.00
00309              30.80    16800.00
00310              29.20    16600.00
00311              28.40    16800.00
00312              26.00    16800.00
00313              26.40    16600.00
00314              24.40    16400.00
00315              22.80    16600.00
00316              22.00    16400.00
00317              21.20    16400.00
00318              20.40    16400.00
00319              20.00    16400.00
00320              19.60    16200.00
00321              18.40    16000.00
00322              17.20    16200.00
00323              16.80    16000.00
00324              15.60    15800.00
00325              15.60    15800.00
00326              15.60    15800.00
00327              14.80    15600.00
00328              14.80    15400.00
00329              14.00    15600.00
00330              13.60    15200.00
00331              13.20    15000.00
00332              12.40    15000.00
00333              12.00    14800.00
00334              10.80    14800.00
00335              10.80    14600.00
00336              10.80    14600.00
00337              10.40    14400.00
00338              10.40    14200.00
00339               8.80    14000.00
00340              10.00    13600.00
00341               9.20    13600.00
00342               6.80    13400.00
00343               8.40    13400.00
00344               9.20    13200.00
00345               6.00    13200.00
00346               8.00    12800.00
00347               8.80    12600.00
00348               5.60    12600.00
00349               6.00    12400.00
00350               8.40    12000.00
00351               5.20    11800.00
00352               5.20    11800.00
00353               7.20    11600.00
00354               6.00    11200.00
00355               4.40    11200.00
00356               5.60    10800.00
00357               5.60    10800.00
00358               4.40    10600.00
00359               4.40    10400.00
00360               5.20    10000.00
00361               4.40     9800.00
00362               3.60     9600.00
00363               4.00     9400.00
00364               5.20     9200.00
00365               3.20     8800.00
00366               3.60     8800.00
00367               4.40     8600.00
00368               2.80     8400.00
00369               2.40     8000.00
00370               4.00     7800.00
00371               3.20     7400.00
00372               2.00     7200.00
00373               3.60     7000.00
00374               2.80     6800.00
00375               2.00     6400.00
00376               2.40     6200.00
00377               2.40     6000.00
00378               2.40     5600.00
00379               2.00     5400.00
00380               2.00     5200.00
00381               2.00     4800.00
00382               2.00     4600.00
00383               1.20     4400.00
00384               1.20     4000.00
00385               1.20     3800.00
00386               1.20     3600.00
00387               0.80     3200.00
00388               0.80     3000.00
00389               0.40     2800.00
00390               0.80     2400.00
00391               0.80     2400.00
00392               1.20     2000.00
00393               0.40     1800.00
00394               0.40     1400.00
00395               0.40     1200.00
00396               0.40      800.00
00397              -0.80      600.00
00398              -0.40      400.00
00399               0.40        0.00
00400              -0.80     -200.00
00401              -0.40     -400.00
00402               2.40     -800.00
00403              -1.20    -1000.00
00404              -2.40    -1200.00
00405               0.80    -1600.00
00406               0.40    -1800.00
00407              -1.60    -2000.00
00408               4.40    -2200.00
00409              31.60    -2600.00
00410             -13.60    -3200.00
00411             -50.00    -3400.00
00412              11.60    -3800.00
00413               8.40    -3600.00
00414             -13.20    -3600.00
00415              50.00    -4400.00
00416             -50.00    -4200.00
00417              -1.20    -4400.00
00418              50.00    -5400.00
00419             -50.00    -5000.00
00420             -11.60    -5600.00
00421              50.00    -5800.00
00422             -50.00    -5800.00
00423              10.00    -6400.00
00424              12.80    -6400.00
00425              -8.40    -6800.00
00426               8.80    -7400.00
00427             -40.40    -7200.00
00428              34.80    -7800.00
00429             -10.40    -7800.00
00430             -30.00    -8000.00
00431              22.80    -8400.00
00432              -2.80    -8400.00
00433              -2.80    -9000.00
00434             -29.60    -9000.00
00435              22.00    -9200.00
00436              -2.00    -9600.00
00437             -34.40    -9400.00
00438              18.00   -10000.00
00439              -4.00   -10000.00
00440              -5.20   -10600.00
00441             -18.40   -10600.00
00442               8.80   -10800.00
00443              -3.60   -11000.00
00444             -26.80   -11200.00
00445              13.60   -11600.00
00446              -7.60   -11600.00
00447             -14.00   -12000.00
00448              -3.60   -12000.00
00449              -1.20   -12200.00
00450             -13.20   -12400.00
00451             -10.40   -12800.00
00452              -2.00   -13000.00
00453              -7.60   -13000.00
00454             -10.80   -13200.00
00455              -7.20   -13200.00
00456              -4.00   -13600.00
00457             -14.40   -13600.00
00458              -8.80   -13800.00
00459              -7.60   -14000.00
00460             -12.00   -14000.00
00461             -12.40   -14200.00
00462              -6.80   -14400.00
00463             -10.40   -14400.00
00464             -16.80   -14800.00
00465              -8.80   -14800.00
00466             -12.00   -15000.00
00467             -16.40   -15200.00
00468             -12.00   -15200.00
00469             -10.00   -15200.00
00470             -17.20   -15400.00
00471             -16.40   -15600.00
00472             -12.00   -15600.00
00473             -18.80   -15800.00
00474             -18.40   -15800.00
00475             -15.20   -16000.00
00476             -17.20   -16200.00
00477             -20.40   -16200.00
00478             -19.60   -16200.00
00479             -18.80   -16400.00
00480             -22.80   -16200.00
00481             -22.80   -16400.00
00482             -21.20   -16400.00
00483             -23.20   -16600.00
00484             -26.00   -16400.00
00485             -25.20   -16800.00
00486             -26.00   -16600.00
00487             -29.20   -16800.00
00488             -29.60   -16800.00
00489             -28.00   -16800.00
00490             -30.40   -16800.00
00491             -32.80   -16800.00
00492             -31.20   -16800.00
00493             -33.20   -17000.00
00494             -34.40   -16800.00
00495             -34.00   -16800.00
00496             -33.20   -16800.00
00497             -34.00   -16800.00
00498             -33.20   -16800.00
00499             -31.60   -16800.00
00500             -30.80   -16800.00
00501             -29.20   -16800.00
00502             -28.00   -16400.00
00503             -26.80   -16800.00
00504             -24.40   -16600.00
00505             -24.80   -16400.00
00506             -23.60   -16400.00
00507             -21.60   -16400.00
00508             -21.60   -16400.00
00509             -21.20   -16400.00
00510             -18.40   -16200.00
00511             -18.80   -16200.00
00512             -19.60   -16000.00
00513             -17.20   -16000.00
00514             -17.20   -16000.00
00515             -17.20   -16000.00
00516             -14.80   -15600.00
00517             -15.60   -15600.00
00518             -15.20   -15600.00
00519             -13.60   -15400.00
00520             -14.80   -15400.00
00521             -13.20   -15200.00
00522             -12.80   -15000.00
00523             -12.40   -14800.00
00524             -13.20   -15000.00
00525             -12.00   -14600.00
00526             -11.60   -14600.00
00527             -12.00   -14400.00
00528             -10.80   -14000.00
00529             -10.00   -14000.00
00530             -10.40   -13800.00
00531             -10.40   -13800.00
00532              -9.20   -13600.00
00533              -9.60   -13600.00
00534              -8.80   -13200.00
00535              -8.80   -13200.00
00536              -8.80   -13000.00
00537              -7.60   -12800.00
00538              -8.80   -12600.00
00539              -7.60   -12400.00
00540              -7.20   -12200.00
00541              -7.20   -12000.00
00542              -7.60   -11800.00
00543              -6.00   -11600.00
00544              -6.40   -11400.00
00545              -7.20   -11200.00
00546              -5.60   -11000.00
00547              -6.00   -10800.00
00548              -6.80   -10600.00
00549              -5.60   -10400.00
00550              -5.20   -10000.00
00551              -5.20   -10000.00
00552              -6.00    -9800.00
00553              -4.40    -9600.00
00554              -5.20    -9200.00
00555              -5.20    -9000.00
00556              -4.00    -8800.00
00557              -4.00    -8600.00
00558              -5.20    -8400.00
00559              -3.60    -8200.00
00560              -3.60    -8000.00
00561              -4.40    -7800.00
00562              -3.20    -7400.00
00563              -2.80    -7000.00
00564              -4.00    -6800.00
00565              -2.40    -6600.00
00566              -2.40    -6400.00
00567              -4.00    -6000.00
00568              -2.80    -5800.00
00569              -2.00    -5400.00
00570              -2.80    -5600.00
00571              -2.40    -5000.00
00572              -2.00    -4600.00
00573              -2.00    -4400.00
00574              -2.40    -4200.00
00575              -1.20    -4200.00
00576              -2.00    -3600.00
00577              -2.00    -3400.00
00578              -1.20    -3200.00
00579              -1.20    -3000.00
00580              -1.60    -2600.00
00581              -1.20    -2400.00
00582              -0.80    -2200.00
00583              -0.40    -2000.00
00584              -1.60    -1600.00
00585              -1.20    -1200.00
00586              -0.40    -1000.00
00587              -1.20     -800.00
00588              -1.20     -400.00
00589               0.80     -200.00
00590               0.40        0.00
00591              -0.80      400.00
00592               2.80      600.00
00593               1.60      800.00
00594              -2.40     1200.00
00595               0.80     1200.00
00596               2.00     1800.00
00597              -0.80     1800.00
00598               0.40     2000.00
00599               7.20     2400.00
00600              21.20     2800.00
00601               2.00     3200.00
00602             -40.40     3400.00
00603              -3.60     3600.00
00604              24.80     3800.00
00605             -27.60     3800.00
00606              13.20     4400.00
00607              48.40     4400.00
00608             -50.00     4800.00
00609              29.60     5200.00
00610              50.00     5200.00
00611             -50.00     5600.00
00612              13.20     6000.00
00613              36.00     6200.00
00614             -20.40     6400.00
00615               4.00     6800.00
00616               0.40     6800.00
00617              16.80     7200.00
00618              -5.20     7600.00
00619             -10.80     7600.00
00620              22.40     8200.00
00621              -2.40     8400.00
00622              -6.00     8400.00
00623              12.80     8600.00
00624              14.40     8800.00
00625             -10.80     9200.00
00626              -6.00     9200.00
00627              25.20     9600.00
00628              -2.40     9800.00
00629              -8.40    10200.00
00630              14.80    10200.00
00631              12.80    10600.00
00632              -5.60    10800.00
00633               2.00    11000.00
00634              18.40    11200.00
00635              -2.40    11200.00
00636               0.80    11800.00
00637              16.00    11800.00
00638               5.20    12000.00
00639              -0.40    12200.00
00640              10.40    12400.00
00641              11.60    12400.00
00642               0.40    12800.00
00643               6.00    12800.00
00644              13.60    13200.00
00645               7.20    13200.00
00646               4.40    13600.00
00647              12.00    13600.00
00648              10.40    13600.00
00649               5.20    14000.00
00650              10.00    14200.00
00651              12.40    14200.00
00652               8.40    14400.00
00653               9.20    14600.00
00654              14.40    14800.00
00655              11.60    14800.00
00656               8.40    15000.00
00657              14.00    15000.00
00658              14.40    15200.00
00659              10.00    15200.00
00660              13.60    15200.00
00661              17.60    15600.00
00662              12.40    15600.00
00663              13.60    15800.00
00664              18.00    16000.00
00665              15.60    16000.00
00666              15.60    16000.00
00667              20.00    16000.00
00668              19.60    16200.00
00669              18.00    16400.00
00670              20.00    16400.00
00671              21.60    16400.00
00672              21.20    16400.00
00673              22.00    16400.00
00674              24.80    16600.00
00675              24.80    16600.00
00676              24.80    16600.00
00677              26.80    16600.00
00678              28.00    16800.00
00679              28.40    16800.00
00680              29.60    16800.00
00681              31.60    16800.00
00682              31.60    16800.00
00683              31.20    16800.00
00684              32.80    16800.00
00685              34.00    16800.00
00686              33.20    16800.00
00687              34.00    16600.00
00688              34.00    16800.00
00689              31.20    16800.00
00690              30.80    16800.00
00691              29.60    16600.00
00692              27.60    16600.00
00693              26.40    16600.00
00694              26.00    16600.00
00695              24.40    16600.00
00696              23.20    16600.00
00697              22.40    16600.00
00698              21.20    16400.00
00699              20.40    16400.00
00700              20.00    16400.00
00701              19.20    16000.00
00702              18.80    16000.00
00703              18.00    16000.00
00704              17.20    16000.00
00705              16.40    16000.00
00706              15.20    15800.00
00707              16.00    15800.00
00708              15.20    15600.00
00709              13.20    15400.00
00710              14.00    15600.00
00711              14.00    15200.00
00712              12.40    15000.00
00713              13.20    15200.00
00714              13.20    14800.00
00715              11.60    14800.00
00716              10.40    14800.00
00717              10.80    14600.00
00718              10.80    14400.00
00719              10.40    14200.00
00720               9.20    14200.00
00721               8.80    13600.00
00722               9.20    13600.00
00723               7.60    13600.00
00724               8.80    13400.00
00725               9.20    13200.00
00726               6.40    13000.00
00727               7.60    12800.00
00728               8.80    12600.00
00729               6.80    12600.00
00730               5.60    12400.00
00731               7.20    12000.00
00732               6.80    12000.00
00733               5.20    11800.00
00734               6.80    11400.00
00735               6.80    11200.00
00736               4.40    11200.00
00737               4.40    10800.00
00738               5.60    10800.00
00739               5.20    10400.00
00740               4.40    10200.00
00741               4.80    10200.00
00742               4.40     9800.00
00743               3.60     9600.00
00744               4.00     9400.00
00745               4.40     9200.00
00746               3.60     8800.00
00747               3.60     8800.00
00748               4.00     8600.00
00749               3.60     8400.00
00750               2.40     8000.00
00751               2.40     7600.00
00752               3.20     7400.00
00753               2.80     7200.00
00754               2.40     7000.00
00755               2.80     6800.00
00756               2.80     6400.00
00757               1.60     6200.00
00758               2.40     6000.00
00759               2.40     5600.00
00760               2.00     5600.00
00761               2.40     5200.00
00762               2.40     5000.00
00763               1.20     4600.00
00764               2.00     4400.00
00765               1.60     4000.00
00766               0.80     3800.00
00767               1.20     3600.00
00768               1.20     3200.00
00769               0.80     3000.00
00770               0.80     2800.00
00771               1.20     2600.00
00772               0.40     2200.00
00773               0.80     2000.00
00774               0.80     1800.00
00775               0.40     1400.00
00776               0.00     1200.00
00777               0.80      800.00
00778               0.40      600.00
00779              -0.40      400.00
00780               0.40        0.00
00781               0.40     -200.00
00782              -0.40     -400.00
00783               2.40     -600.00
00784              -0.40    -1000.00
00785              -2.40    -1200.00
00786               0.40    -1400.00
00787               0.80    -1800.00
00788              -2.00    -2000.00
00789               3.60    -2200.00
00790              32.40    -2800.00
00791             -10.80    -3200.00
00792             -50.00    -3400.00
00793               9.60    -3600.00
00794              10.40    -3600.00
00795             -15.60    -3600.00
00796              50.00    -4400.00
00797             -50.00    -4200.00
00798             -11.60    -4400.00
00799              50.00    -5400.00
00800             -50.00    -5200.00
00801             -22.40    -5600.00
00802              50.00    -6000.00
00803             -50.00    -5800.00
00804               3.60    -6400.00
00805              16.80    -6400.00
00806             -10.40    -6800.00
00807              10.40    -7400.00
00808             -40.80    -7200.00
00809              32.80    -8000.00
00810              -6.40    -7600.00
00811             -32.80    -8000.00
00812              23.20    -8400.00
00813              -4.00    -8400.00
00814              -3.20    -9000.00
00815             -29.20    -9000.00
00816              20.00    -9400.00
00817               1.60    -9600.00
00818             -36.40    -9600.00
00819              17.20   -10000.00
00820              -3.60   -10000.00
00821              -5.20   -10400.00
00822             -18.00   -10600.00
00823               6.80   -10800.00
00824              -1.20   -11200.00
00825             -27.60   -11200.00
00826              12.00   -11600.00
00827              -6.00   -11600.00
00828             -14.00   -12000.00
00829              -4.00   -12000.00
00830              -0.80   -12400.00
00831             -12.00   -12400.00
00832             -10.80   -12600.00
00833              -2.40   -12800.00
00834              -7.60   -13000.00
00835             -10.40   -13200.00
00836              -7.60   -13200.00
00837              -4.00   -13600.00
00838             -14.00   -13600.00
00839              -8.80   -13800.00
00840              -7.60   -14000.00
00841             -11.20   -14200.00
00842             -12.00   -14400.00
00843              -7.20   -14600.00
00844             -10.00   -14600.00
00845             -16.00   -14600.00
00846              -8.80   -14800.00
00847             -11.60   -15000.00
00848             -15.20   -15200.00
00849             -13.20   -15200.00
00850             -10.00   -15200.00
00851             -16.00   -15600.00
00852             -16.80   -15600.00
00853             -12.00   -15800.00
00854             -18.00   -15800.00
00855             -19.20   -16000.00
00856             -14.80   -16000.00
00857             -16.40   -16000.00
00858             -21.20   -16200.00
00859             -18.80   -16200.00
00860             -18.80   -16200.00
00861             -22.40   -16200.00
00862             -23.20   -16400.00
00863             -21.60   -16400.00
00864             -22.80   -16400.00
00865             -26.00   -16600.00
00866             -25.20   -16600.00
00867             -26.40   -16800.00
00868             -28.40   -16600.00
00869             -29.20   -16600.00
00870             -28.40   -16800.00
00871             -30.80   -16800.00
00872             -32.80   -16800.00
00873             -30.80   -16800.00
00874             -33.20   -16800.00
00875             -34.80   -16800.00
00876             -33.20   -16800.00
00877             -34.40   -16800.00
00878             -34.00   -16800.00
00879             -33.20   -16800.00
00880             -32.40   -16800.00
00881             -30.00   -16800.00
00882             -29.20   -16600.00
00883             -28.40   -16800.00
00884             -26.40   -16600.00
00885             -24.40   -16800.00
00886             -24.80   -16400.00
00887             -24.40   -16400.00
00888             -21.60   -16400.00
00889             -21.60   -16400.00
00890             -21.20   -16200.00
00891             -19.60   -16200.00
00892             -18.80   -16200.00
00893             -18.40   -16000.00
00894             -18.00   -16000.00
00895             -17.20   -15800.00
00896             -16.40   -15800.00
00897             -15.60   -15600.00
00898             -15.60   -15600.00
00899             -14.80   -15400.00
00900             -14.80   -15400.00
00901             -14.00   -15200.00
00902             -13.60   -15200.00
00903             -12.40   -15000.00
00904             -13.20   -14800.00
00905             -12.40   -14800.00
00906             -11.20   -14600.00
00907             -11.60   -14600.00
00908             -12.00   -14400.00
00909             -10.40   -14000.00
00910             -10.00   -14000.00
00911             -10.80   -13800.00
00912             -10.00   -13600.00
00913              -8.40   -13600.00
00914              -9.20   -13400.00
00915              -9.20   -13200.00
00916              -7.60   -13000.00
00917              -8.80   -13000.00
00918              -8.80   -12800.00
00919              -7.60   -12400.00
00920              -8.40   -12400.00
00921              -8.00   -12200.00
00922              -6.80   -12200.00
00923              -7.20   -12000.00
00924              -7.20   -11600.00
00925              -6.00   -11400.00
00926              -6.00   -11200.00
00927              -7.20   -11000.00
00928              -5.60   -10800.00
00929              -5.60   -10600.00
00930              -6.00   -10400.00
00931              -5.60   -10200.00
00932              -4.40   -10000.00
00933              -6.00    -9800.00
00934              -5.60    -9600.00
00935              -4.40    -9200.00
00936              -5.20    -9200.00
00937              -4.80    -8800.00
00938              -3.60    -8600.00
00939              -4.40    -8400.00
00940              -4.40    -8000.00
00941              -4.00    -8000.00
00942              -4.00    -7600.00
00943              -4.00    -7400.00
00944              -2.80    -7200.00
00945              -3.60    -6800.00
00946              -3.60    -6600.00
00947              -2.80    -6400.00
00948              -2.40    -6000.00
00949              -2.80    -5800.00
00950              -2.40    -5600.00
00951              -2.80    -5200.00
00952              -2.40    -5000.00
00953              -2.40    -4600.00
00954              -2.40    -4400.00
00955              -2.40    -4200.00
00956              -1.20    -4000.00
00957              -1.20    -3800.00
00958              -2.00    -3400.00
00959              -1.20    -3200.00
00960              -1.20    -3000.00
00961              -2.00    -2800.00
00962              -1.20    -2400.00
00963              -0.40    -2000.00
00964              -1.20    -2000.00
00965              -1.20    -1600.00
00966              -0.40    -1200.00
00967              -1.20    -1000.00
00968              -2.00     -800.00
00969               0.40     -400.00
00970              -0.40     -400.00
00971              -0.80        0.00
00972               0.40      400.00
00973               2.40      600.00
00974               1.20      800.00
00975              -1.60     1200.00
00976               1.20     1400.00
00977               2.00     1600.00
00978               0.00     2000.00
00979               0.40     2000.00
00980               6.80     2400.00
00981              20.40     2800.00
00982               5.20     3200.00
00983             -40.40     3600.00
00984              -6.80     3600.00
00985              26.00     3800.00
00986             -26.40     3800.00
00987               8.40     4400.00
00988              50.00     4400.00
00989             -50.00     4800.00
00990              22.80     5200.00
00991              50.00     5400.00
00992             -50.00     5600.00
00993               7.60     6000.00
00994              38.80     6000.00
00995             -19.60     6400.00
00996               3.60     6800.00
00997              -1.20     6800.00
00998              15.60     7200.00
00999              -1.20     7400.00
01000             -13.20     7800.00
01001              21.20     7800.00
01002              -0.40     8200.00
01003              -7.60     8400.00
01004              10.80     8600.00
01005              15.60     8800.00
01006              -9.20     9200.00
01007              -7.20     9400.00
01008              25.60     9600.00
01009              -0.80     9800.00
01010              -9.20    10200.00
01011              14.00    10200.00
01012              12.80    10600.00
01013              -4.00    10800.00
01014               2.40    11000.00
01015              16.80    11200.00
01016              -2.80    11400.00
01017               0.80    11600.00
01018              15.20    11800.00
01019               5.20    12000.00
01020               1.20    12200.00
01021              10.80    12400.00
01022              10.00    12600.00
01023               1.20    12800.00
01024               6.00    12800.00
01025              12.40    13200.00
01026               7.60    13200.00
01027               4.40    13400.00
01028              11.60    13600.00
01029              10.40    13600.00
01030               5.60    14000.00
01031               8.80    14000.00
01032              13.20    14400.00
01033               8.40    14200.00
01034               8.80    14600.00
01035              15.20    14600.00
01036              10.80    14800.00
01037               8.40    14800.00
01038              14.80    15000.00
01039              14.00    15000.00
01040              10.40    15200.00
01041              14.80    15400.00
01042              16.80    15400.00
01043              12.40    15600.00
01044              14.80    15800.00
01045              18.00    15800.00
01046              15.20    15800.00
01047              16.40    16000.00
01048              19.20    16000.00
01049              18.80    16000.00
01050              18.80    16400.00
01051              20.00    16400.00
01052              22.00    16400.00
01053              21.20    16400.00
01054              21.60    16400.00
01055              25.20    16600.00
01056              25.60    16400.00
01057              24.40    16600.00
01058              27.60    16600.00
01059              28.40    16600.00
01060              27.60    16600.00
01061              29.60    16600.00
01062              31.60    16800.00
01063              30.80    16800.00
01064              31.20    16800.00
01065              33.20    16800.00
01066              32.80    16800.00
01067              33.20    16800.00
01068              33.60    16800.00
01069              33.20    16800.00
01070              31.60    16800.00
01071              30.40    16800.00
01072              29.20    16800.00
01073              27.60    16800.00
01074              26.00    16600.00
01075              25.20    16600.00
01076              24.40    16600.00
01077              23.20    16400.00
01078              21.60    16600.00
01079              21.60    16400.00
01080              20.40    16400.00
01081              19.60    16200.00
01082              19.60    16200.00
01083              18.40    16200.00
01084              17.20    16000.00
01085              16.80    16000.00
01086              16.40    15800.00
01087              15.60    15800.00
01088              16.40    15800.00
01089              14.80    15600.00
01090              14.00    15600.00
01091              14.80    15600.00
01092              13.60    15400.00
01093              11.60    15200.00
01094              13.20    15000.00
01095              13.20    14800.00
01096              10.40    14800.00
01097              10.80    14800.00
01098              12.00    14400.00
01099              10.00    14400.00
01100               9.20    14200.00
01101              11.20    14200.00
01102               8.80    13800.00
01103               8.40    13800.00
01104               9.20    13600.00
01105               8.80    13400.00
01106               7.60    13200.00
01107               8.40    13000.00
01108               8.00    12800.00
01109               6.80    12800.00
01110               7.20    12600.00
01111               6.80    12400.00
01112               6.80    12200.00
01113               6.00    12000.00
01114               6.80    11800.00
01115               6.00    11600.00
01116               5.60    11200.00
01117               5.20    11000.00
01118               5.20    11000.00
01119               5.20    10800.00
01120               4.40    10400.00
01121               4.40    10400.00
01122               4.80    10000.00
01123               4.00     9800.00
01124               4.00     9600.00
01125               4.00     9400.00
01126               4.00     9200.00
01127               3.60     9000.00
01128               4.00     8800.00
01129               3.60     8400.00
01130               3.60     8400.00
01131               2.80     8000.00
01132               2.80     7800.00
01133               2.40     7400.00
01134               2.80     7200.00
01135               2.40     7000.00
01136               2.80     6800.00
01137               2.00     6400.00
01138               2.00     6200.00
01139               2.00     6000.00
01140               2.00     5800.00
01141               2.00     5400.00
01142               2.00     5200.00
01143               2.00     4800.00
01144               1.20     4600.00
01145               1.20     4400.00
01146               1.20     4200.00
01147               1.20     3800.00
01148               1.20     3600.00
01149               1.20     3200.00
01150               0.80     3000.00
01151               0.80     3000.00
01152               0.80     2600.00
01153               0.80     2200.00
01154               0.80     2000.00
01155               0.40     1800.00
01156               0.40     1400.00
01157               0.80     1200.00
01158              -0.40      800.00
01159               0.40      600.00
01160               0.40      400.00
01161               0.00        0.00
01162              -0.40     -200.00
01163               0.40     -400.00
01164               3.60     -600.00
01165              -2.00    -1000.00
01166              -1.20    -1200.00
01167               2.00    -1600.00
01168              -2.00    -1800.00
01169              -0.80    -2000.00
01170               3.60    -2200.00
01171              30.00    -2600.00
01172              -7.20    -3200.00
01173             -50.00    -3400.00
01174               5.60    -3600.00
01175              13.60    -3600.00
01176             -16.80    -3600.00
01177              50.00    -4400.00
01178             -50.00    -4200.00
01179             -18.80    -4400.00
01180              50.00    -5200.00
01181             -50.00    -5000.00
01182             -34.00    -5600.00
01183              50.00    -5800.00
01184             -50.00    -5800.00
01185              -2.00    -6400.00
01186              20.00    -6400.00
01187             -13.20    -6800.00
01188              14.00    -7200.00
01189             -41.20    -7200.00
01190              28.40    -7600.00
01191              -1.60    -7800.00
01192             -34.80    -8000.00
01193              22.00    -8400.00
01194              -2.80    -8400.00
01195              -0.80    -9000.00
01196             -29.60    -8800.00
01197              15.20    -9200.00
01198               6.80    -9600.00
01199             -37.60    -9600.00
01200              15.20   -10000.00
01201              -1.60   -10200.00
01202              -5.20   -10600.00
01203             -18.80   -10600.00
01204               5.20   -10800.00
01205               2.00   -11200.00
01206             -29.20   -11000.00
01207              11.60   -11600.00
01208              -4.40   -11600.00
01209             -15.20   -12000.00
01210              -4.40   -12000.00
01211              -0.40   -12200.00
01212             -12.00   -12400.00
01213             -11.60   -12600.00
01214              -2.00   -13000.00
01215              -7.60   -13000.00
01216             -10.40   -13200.00
01217              -7.60   -13200.00
01218              -3.20   -13600.00
01219             -14.00   -13600.00
01220              -9.20   -13800.00
01221              -7.60   -14000.00
01222             -11.60   -14200.00
01223             -11.60   -14200.00
01224              -7.20   -14600.00
01225              -8.80   -14600.00
01226             -16.40   -14600.00
01227              -8.80   -14800.00
01228             -11.60   -15000.00
01229             -15.60   -15000.00
01230             -12.40   -15200.00
01231             -10.40   -15400.00
01232             -15.60   -15600.00
01233             -16.00   -15400.00
01234             -12.40   -15600.00
01235             -18.00   -15600.00
01236             -18.00   -15800.00
01237             -15.20   -16000.00
01238             -16.80   -16000.00
01239             -18.80   -16200.00
01240             -19.60   -16200.00
01241             -18.80   -16200.00
01242             -22.00   -16400.00
01243             -23.20   -16400.00
01244             -21.60   -16400.00
01245             -22.80   -16600.00
01246             -26.00   -16600.00
01247             -25.20   -16800.00
01248             -26.00   -16800.00
01249             -28.80   -16800.00
01250             -29.60   -16800.00
01251             -28.00   -16800.00
01252             -30.00   -16800.00
01253             -32.40   -16800.00
01254             -31.60   -16800.00
01255             -33.20   -16800.00
01256             -34.00   -16800.00
01257             -34.00   -16800.00
01258             -33.20   -16800.00
01259             -34.00   -16800.00
01260             -34.00   -16800.00
01261             -31.60   -16800.00
01262             -31.20   -16600.00
01263             -30.00   -16600.00
01264             -28.00   -16800.00
01265             -26.40   -16600.00
01266             -25.20   -16800.00
01267             -24.80   -16400.00
01268             -23.60   -16400.00
01269             -22.00   -16200.00
01270             -21.60   -16400.00
01271             -20.40   -16200.00
01272             -19.60   -16000.00
01273             -19.60   -16200.00
01274             -18.80   -16200.00
01275             -18.40   -16000.00
01276             -18.00   -16000.00
01277             -16.80   -15800.00
01278             -15.60   -15800.00
01279             -16.40   -15800.00
01280             -14.80   -15600.00
01281             -14.40   -15400.00
01282             -15.20   -15400.00
01283             -13.20   -15200.00
01284             -12.40   -15000.00
01285             -12.80   -14800.00
01286             -12.40   -14800.00
01287             -12.00   -14600.00
01288             -11.60   -14400.00
01289             -11.60   -14400.00
01290             -10.40   -14400.00
01291             -10.00   -14000.00
01292             -10.40   -13800.00
01293              -9.20   -13800.00
01294             -10.00   -13600.00
01295              -9.20   -13400.00
01296              -9.20   -13200.00
01297              -8.80   -13200.00
01298              -8.40   -13000.00
01299              -8.00   -12600.00
01300              -7.60   -12600.00
01301              -7.60   -12400.00
01302              -7.60   -12000.00
01303              -7.20   -12200.00
01304              -6.80   -12000.00
01305              -6.80   -11600.00
01306              -6.80   -11400.00
01307              -6.00   -11200.00
01308              -7.20   -11000.00
01309              -6.00   -10800.00
01310              -5.60   -10600.00
01311              -5.60   -10400.00
01312              -5.60   -10200.00
01313              -4.40   -10000.00
01314              -6.00    -9600.00
01315              -5.20    -9600.00
01316              -4.00    -9200.00
01317              -5.20    -9000.00
01318              -5.20    -8800.00
01319              -3.60    -8600.00
01320              -4.80    -8400.00
01321              -4.40    -8000.00
01322              -3.60    -7800.00
01323              -4.00    -7600.00
01324              -4.40    -7200.00
01325              -2.80    -7200.00
01326              -3.60    -6800.00
01327              -3.60    -6600.00
01328              -2.80    -6400.00
01329              -2.40    -6000.00
01330              -2.80    -5800.00
01331              -2.80    -5400.00
01332              -2.40    -5200.00
01333              -2.80    -5000.00
01334              -2.80    -4600.00
01335              -2.40    -4400.00
01336              -2.40    -4200.00
01337              -2.00    -4000.00
01338              -1.20    -3800.00
01339              -1.20    -3400.00
01340              -2.00    -3200.00
01341              -2.00    -2800.00
01342              -2.00    -2800.00
01343              -1.20    -2400.00
01344              -0.80    -2200.00
01345              -0.80    -1800.00
01346              -1.20    -1600.00
01347              -0.80    -1200.00
01348              -0.40    -1000.00
01349              -0.80     -600.00
01350              -0.80     -400.00
01351               0.40     -200.00
01352              -0.40        0.00
01353              -0.80      400.00
01354               2.00      600.00
01355               2.40      800.00
01356              -2.00     1000.00
01357               0.40     1200.00
01358               2.80     1600.00
01359               0.00     2000.00
01360               0.00     2000.00
01361               6.00     2400.00
01362              20.00     2800.00
01363               7.20     3200.00
01364             -39.60     3200.00
01365              -8.80     3600.00
01366              26.80     3800.00
01367             -23.60     3800.00
01368               4.00     4600.00
01369              50.00     4400.00
01370             -50.00     4800.00
01371              16.40     5200.00
01372              50.00     5400.00
01373             -50.00     5600.00
01374               2.40     6000.00
01375              41.20     6000.00
01376             -18.80     6400.00
01377               2.80     6800.00
01378               0.40     6800.00
01379              15.20     7200.00
01380              -0.80     7600.00
01381             -14.00     7600.00
01382              21.20     8000.00
01383               0.80     8200.00
01384              -8.00     8400.00
01385              11.20     8800.00
01386              15.60     8800.00
01387              -8.80     9200.00
01388              -8.40     9400.00
01389              24.80     9600.00
01390               0.80     9800.00
01391             -10.00    10200.00
01392              13.60    10200.00
01393              13.60    10600.00
01394              -4.00    10800.00
01395              -0.40    10800.00
01396              18.00    11000.00
01397              -0.80    11400.00
01398              -1.20    11600.00
01399              15.60    11800.00
01400               6.80    12000.00
01401              -0.40    12200.00
01402              10.40    12400.00
01403              11.20    12400.00
01404               1.20    12800.00
01405               5.60    12800.00
01406              12.80    13000.00
01407               8.40    13200.00
01408               4.00    13400.00
01409              10.80    13600.00
01410              11.20    13600.00
01411               5.60    14000.00
01412               8.40    14200.00
01413              13.20    14200.00
01414               8.40    14600.00
01415               8.40    14400.00
01416              15.20    14800.00
01417              10.80    14800.00
01418               8.40    15000.00
01419              14.80    15200.00
01420              14.40    15200.00
01421              10.00    15200.00
01422              14.80    15400.00
01423              17.20    15600.00
01424              12.00    15600.00
01425              14.80    15800.00
01426              18.40    15800.00
01427              15.20    15800.00
01428              16.00    16000.00
01429              20.00    16000.00
01430              19.60    16200.00
01431              17.60    16200.00
01432              20.00    16400.00
01433              22.80    16400.00
01434              21.20    16400.00
01435              21.60    16600.00
01436              26.00    16600.00
01437              25.20    16600.00
01438              24.00    16600.00
01439              27.60    16800.00
01440              28.40    16600.00
01441              27.60    16800.00
01442              29.20    16800.00
01443              32.40    16800.00
01444              31.20    16800.00
01445              30.80    16800.00
01446              33.20    16800.00
01447              33.20    16800.00
01448              32.40    16800.00
01449              34.00    16800.00
01450              33.20    16800.00
01451              31.60    16800.00
01452              30.00    16800.00
01453              29.60    16800.00
01454              28.00    16600.00
01455              26.00    16600.00
01456              25.20    16600.00
01457              24.40    16600.00
01458              22.00    16400.00
01459              22.00    16600.00
01460              22.00    16400.00
01461              19.60    16400.00
01462              19.60    16200.00
01463              20.00    16200.00
01464              17.60    16200.00
01465              16.80    16000.00
01466              17.60    16000.00
01467              15.60    15800.00
01468              15.20    15800.00
01469              16.80    15800.00
01470              14.40    15600.00
01471              13.60    15600.00
01472              14.80    15200.00
01473              12.80    15200.00
01474              12.00    15200.00
01475              13.60    15000.00
01476              11.60    15000.00
01477              10.80    14800.00
01478              12.00    14800.00
01479              10.80    14400.00
01480              10.40    14600.00
01481              10.40    14200.00
01482              10.40    14000.00
01483               9.20    14000.00
01484               9.20    13600.00
01485               8.40    13600.00
01486               8.80    13400.00
01487               8.40    13200.00
01488               7.60    13000.00
01489               7.20    12800.00
01490               7.60    12800.00
01491               6.80    12600.00
01492               6.40    12600.00
01493               7.20    12000.00
01494               6.80    12000.00
01495               6.00    11800.00
01496               6.00    11600.00
01497               6.00    11200.00
01498               5.60    11200.00
01499               4.80    11000.00
01500               5.20    10800.00
01501               5.60    10400.00
01502               4.40    10200.00
01503               4.80    10000.00
01504               4.40    10000.00
01505               4.00     9600.00
01506               4.00     9400.00
01507               3.60     9200.00
01508               4.00     9000.00
01509               3.60     8600.00
01510               3.60     8600.00
01511               3.60     8400.00
01512               2.80     8000.00
01513               2.80     7800.00
01514               2.80     7600.00
01515               2.80     7200.00
01516               2.80     7000.00
01517               2.80     6800.00
01518               2.00     6600.00
01519               2.00     6400.00
01520               2.00     6000.00
01521               2.00     5800.00
01522               2.00     5400.00
01523               1.20     5200.00
01524               1.20     4800.00
01525               1.20     4600.00
01526               0.80     4400.00
01527               1.20     4000.00
01528               1.20     3800.00
01529               0.80     3600.00
01530               1.20     3600.00
01531               0.80     3000.00
01532               0.80     2800.00
01533               0.80     2600.00
01534               0.40     2200.00
01535               0.40     2000.00
01536               0.40     1800.00
01537               0.40     1400.00
01538               0.00     1200.00
01539               0.40      800.00
01540               0.40      600.00
01541               0.40      400.00
01542              -0.40        0.00
01543               0.40     -200.00
01544              -0.40     -400.00
01545               2.00     -600.00
01546               0.40     -800.00
01547              -2.00    -1000.00
01548              -0.40    -1600.00
01549               0.80    -1600.00
01550              -1.20    -2000.00
01551               1.20    -2000.00
01552              30.00    -2600.00
01553              -2.80    -3200.00
01554             -50.00    -3400.00
01555               4.00    -3600.00
01556              16.80    -3600.00
01557             -21.60    -3600.00
01558              50.00    -4400.00
01559             -50.00    -4200.00
01560             -29.60    -4400.00
01561              50.00    -5200.00
01562             -50.00    -5000.00
01563             -44.40    -5600.00
01564              50.00    -6000.00
01565             -50.00    -5600.00
01566              -7.60    -6400.00
01567              23.20    -6400.00
01568             -13.60    -6800.00
01569              15.20    -7200.00
01570             -42.00    -7200.00
01571              26.00    -7800.00
01572               2.80    -8000.00
01573             -37.60    -8000.00
01574              21.60    -8400.00
01575              -1.20    -8400.00
01576              -1.60    -9000.00
01577             -29.20    -9000.00
01578              14.00    -9200.00
01579               8.80    -9600.00
01580             -38.80    -9600.00
01581              15.60   -10000.00
01582              -0.80   -10000.00
01583              -6.00   -10600.00
01584             -17.20   -10600.00
01585               3.60   -10800.00
01586               2.80   -11200.00
01587             -29.60   -11200.00
01588              10.40   -11400.00
01589              -4.00   -11600.00
01590             -15.20   -12000.00
01591              -4.40   -12200.00
01592              -0.80   -12200.00
01593             -11.60   -12400.00
01594             -12.00   -12600.00
01595              -2.00   -12800.00
01596              -7.60   -13000.00
01597             -10.40   -13200.00
01598              -8.80   -13200.00
01599              -3.60   -13600.00
01600             -13.60   -13600.00
01601              -9.60   -13800.00
01602              -7.20   -13800.00
01603             -10.80   -14000.00
01604             -12.00   -14200.00
01605              -7.20   -14400.00
01606              -9.20   -14600.00
01607             -16.40   -14800.00
01608              -9.20   -14800.00
01609             -10.80   -14800.00
01610             -15.20   -15200.00
01611             -13.20   -15200.00
01612             -10.00   -15400.00
01613             -15.60   -15400.00
01614             -16.80   -15400.00
01615             -12.00   -15600.00
01616             -17.20   -15800.00
01617             -18.40   -15800.00
01618             -15.20   -16000.00
01619             -16.40   -16000.00
01620             -19.60   -16200.00
01621             -19.60   -16200.00
01622             -18.40   -16200.00
01623             -21.60   -16400.00
01624             -23.60   -16400.00
01625             -21.60   -16400.00
01626             -22.00   -16400.00
01627             -25.60   -16600.00
01628             -26.00   -16400.00
01629             -25.20   -16600.00
01630             -28.40   -16800.00
01631             -30.00   -16600.00
01632             -28.00   -16800.00
01633             -29.60   -16800.00
01634             -33.20   -16800.00
01635             -32.00   -16800.00
01636             -31.60   -17000.00
01637             -34.40   -16800.00
01638             -34.40   -16800.00
01639             -32.80   -16800.00
01640             -34.00   -16800.00
01641             -34.40   -16800.00
01642             -31.60   -16800.00
01643             -30.80   -16600.00
01644             -30.00   -16800.00
01645             -28.40   -16600.00
01646             -26.40   -16600.00
01647             -25.20   -16600.00
01648             -24.80   -16600.00
01649             -23.60   -16400.00
01650             -22.00   -16400.00
01651             -22.00   -16400.00
01652             -20.40   -16400.00
01653             -20.00   -16400.00
01654             -19.60   -16200.00
01655             -18.40   -16200.00
01656             -18.40   -16000.00
01657             -17.20   -16000.00
01658             -16.40   -15800.00
01659             -16.80   -15600.00
01660             -15.20   -15600.00
01661             -15.20   -15600.00
01662             -15.60   -15400.00
01663             -13.60   -15200.00
01664             -14.40   -15200.00
01665             -13.20   -15200.00
01666             -12.40   -15000.00
01667             -12.40   -14800.00
01668             -12.00   -14600.00
01669             -12.00   -14600.00
01670             -11.20   -14600.00
01671             -10.80   -14200.00
01672             -10.40   -14000.00
01673             -10.80   -14000.00
01674              -9.20   -13800.00
01675              -9.20   -13600.00
01676             -10.80   -13600.00
01677              -7.60   -13200.00
01678              -8.00   -13000.00
01679              -9.60   -13000.00
01680              -7.60   -12800.00
01681              -7.20   -12600.00
01682              -8.40   -12400.00
01683              -7.60   -12400.00
01684              -6.40   -12000.00
01685              -6.80   -11600.00
01686              -7.20   -11600.00
01687              -6.00   -11400.00
01688              -6.80   -11200.00
01689              -6.80   -11000.00
01690              -5.60   -10800.00
01691              -5.20   -10600.00
01692              -5.20   -10400.00
01693              -5.60   -10000.00
01694              -4.40   -10000.00
01695              -5.60    -9800.00
01696              -5.60    -9600.00
01697              -4.40    -9400.00
01698              -4.40    -9000.00
01699              -4.40    -8800.00
01700              -3.60    -8600.00
01701              -4.00    -8400.00
01702              -4.00    -8000.00
01703              -3.60    -7800.00
01704              -4.00    -7600.00
01705              -4.00    -7400.00
01706              -3.20    -7200.00
01707              -4.00    -6800.00
01708              -3.20    -6800.00
01709              -2.80    -6400.00
01710              -2.80    -6200.00
01711              -2.80    -6000.00
01712              -2.40    -5600.00
01713              -2.40    -5200.00
01714              -3.60    -5200.00
01715              -2.40    -4600.00
01716              -2.40    -4400.00
01717              -2.40    -4200.00
01718              -2.00    -4000.00
01719              -1.60    -3800.00
01720              -1.20    -3600.00
01721              -2.40    -3200.00
01722              -2.00    -2800.00
01723              -2.00    -2800.00
01724              -1.20    -2400.00
01725              -2.00    -2000.00
01726              -0.40    -2000.00
01727              -0.80    -1600.00
01728              -1.20    -1200.00
01729              -0.80    -1000.00
01730              -0.40     -800.00
01731              -1.20     -400.00
01732              -0.80     -200.00
01733               0.80        0.00
01734              -0.40      400.00
01735               2.00      600.00
01736               2.00      800.00
01737              -2.00     1200.00
01738               0.80     1200.00
01739               2.40     1800.00
01740               0.40     1800.00
01741              -0.40     2000.00
01742               6.80     2400.00
01743              18.40     2800.00
01744               9.20     3000.00
01745             -37.60     3400.00
01746             -12.00     3600.00
01747              26.40     3600.00
01748             -20.40     3800.00
01749               0.40     4400.00
01750              50.00     4400.00
01751             -50.00     4800.00
01752              10.00     5200.00
01753              50.00     5400.00
01754             -50.00     5600.00
01755              -2.40     6000.00
01756              44.00     6000.00
01757             -18.40     6400.00
01758               2.00     6800.00
01759               0.40     6800.00
01760              14.80     7200.00
01761               0.80     7200.00
01762             -15.20     7600.00
01763              20.80     7800.00
01764               2.40     8200.00
01765              -8.80     8400.00
01766              10.40     8600.00
01767              15.20     9200.00
01768              -7.20     9000.00
01769             -10.00     9400.00
01770              24.40     9600.00
01771               2.00     9800.00
01772             -10.40    10000.00
01773              12.40    10200.00
01774              14.00    10600.00
01775              -3.60    10800.00
01776              -1.20    10800.00
01777              17.20    11200.00
01778              -0.40    11200.00
01779              -1.60    11600.00
01780              15.20    11800.00
01781               6.80    12000.00
01782               0.40    12000.00
01783               9.20    12400.00
01784              10.80    12400.00
01785               1.60    12800.00
01786               4.40    12800.00
01787              12.40    13200.00
01788               8.40    13200.00
01789               4.00    13400.00
01790              10.80    13600.00
01791              11.60    13800.00
01792               5.60    14000.00
01793               8.40    14000.00
01794              13.20    14200.00
01795               8.80    14600.00
01796               7.60    14400.00
01797              14.80    14600.00
01798              11.60    14800.00
01799               7.60    15000.00
01800              13.60    15000.00
01801              14.00    15000.00
01802              10.80    15200.00
01803              13.60    15400.00
01804              16.80    15600.00
01805              13.20    15600.00
01806              14.00    15800.00
01807              17.60    15800.00
01808              16.40    16000.00
01809              16.40    16000.00
01810              18.80    16000.00
01811              19.60    16200.00
01812              18.40    16400.00
01813              19.60    16400.00
01814              21.60    16400.00
01815              21.60    16400.00
01816              22.00    16400.00
01817              24.40    16600.00
01818              26.40    16600.00
01819              24.40    16800.00
01820              26.40    16600.00
01821              29.60    16800.00
01822              28.00    16600.00
01823              28.40    16600.00
01824              32.80    16800.00
01825              30.80    16800.00
01826              31.20    16800.00
01827              34.00    16600.00
01828              33.20    16800.00
01829              32.40    16800.00
01830              34.00    16800.00
01831              33.60    16600.00
01832              31.20    16800.00
01833              30.80    16800.00
01834              29.60    16800.00
01835              27.60    16600.00
01836              26.40    16600.00
01837              26.00    16600.00
01838              24.40    16400.00
01839              23.20    16600.00
01840              22.00    16600.00
01841              21.20    16400.00
01842              20.00    16400.00
01843              18.80    16400.00
01844              19.20    16200.00
01845              18.00    16200.00
01846              16.80    16000.00
01847              16.80    15800.00
01848              15.60    16000.00
01849              15.60    15800.00
01850              16.40    15800.00
01851              14.40    15600.00
01852              14.00    15600.00
01853              14.00    15600.00
01854              12.80    15200.00
01855              12.40    15200.00
01856              12.80    15000.00
01857              11.60    14800.00
01858              10.80    14800.00
01859              11.60    14800.00
01860              10.80    14600.00
01861              10.40    14200.00
01862              10.00    14200.00
01863              10.00    14000.00
01864               9.20    13800.00
01865               8.80    13800.00
01866               8.80    13600.00
01867               8.40    13400.00
01868               8.40    13200.00
01869               8.00    13000.00
01870               7.20    12800.00
01871               7.60    12600.00
01872               6.80    12400.00
01873               6.80    12400.00
01874               6.80    12000.00
01875               6.00    12000.00
01876               6.00    11800.00
01877               6.00    11600.00
01878               5.60    11200.00
01879               5.20    11200.00
01880               5.60    11000.00
01881               5.20    10800.00
01882               5.20    10400.00
01883               5.20    10200.00
01884               5.20    10200.00
01885               4.40    10000.00
01886               4.00     9600.00
01887               4.40     9200.00
01888               4.00     9200.00
01889               4.00     9000.00
01890               4.00     8800.00
01891               4.00     8600.00
01892               2.80     8400.00
01893               2.80     8000.00
01894               3.20     7800.00
01895               2.40     7600.00
01896               2.40     7000.00
01897               2.80     7200.00
01898               2.40     6800.00
01899               2.40     6400.00
01900               2.40     6400.00
01901               2.00     6000.00
01902               2.00     5800.00
01903               2.00     5400.00
01904               1.20     5200.00
01905               2.00     4800.00
01906               1.20     4800.00
01907               0.80     4400.00
01908               1.20     4000.00
01909               0.80     4000.00
01910               0.80     3600.00
01911               0.80     3200.00
01912               0.80     3000.00
01913               0.80     2800.00
01914               0.40     2600.00
01915               0.80     2200.00
01916               0.40     2000.00
01917               0.40     2000.00
01918               0.40     1600.00
01919               0.80     1200.00
01920              -0.40     1000.00
01921               0.40      600.00
01922               0.40      400.00
01923              -0.40        0.00
01924              -0.40     -200.00
01925               0.40     -400.00
01926               2.00     -800.00
01927              -0.40     -800.00
01928              -2.00    -1200.00
01929               0.40    -1600.00
01930               0.80    -1600.00
01931              -1.20    -2000.00
01932               1.20    -2200.00
01933              29.20    -2600.00
01934              -0.40    -3200.00
01935             -50.00    -3400.00
01936               0.80    -3600.00
01937              19.20    -3800.00
01938             -23.20    -3600.00
01939              50.00    -4200.00
01940             -48.80    -4200.00
01941             -37.60    -4400.00
01942              50.00    -5200.00
01943             -50.00    -5200.00
01944             -50.00    -5600.00
01945              50.00    -5800.00
01946             -50.00    -5800.00
01947             -14.00    -6400.00
01948              26.40    -6400.00
01949             -14.00    -6800.00
01950              16.40    -7200.00
01951             -41.20    -7200.00
01952              23.20    -7800.00
01953               7.20    -7600.00
01954             -40.40    -8000.00
01955              21.20    -8400.00
01956               0.00    -8400.00
01957              -1.20    -9000.00
01958             -28.00    -9000.00
01959              11.60    -9200.00
01960              12.00    -9600.00
01961             -40.00    -9600.00
01962              14.40   -10000.00
01963               0.80   -10000.00
01964              -6.80   -10600.00
01965             -17.20   -10600.00
01966               2.40   -10800.00
01967               4.40   -11000.00
01968             -30.80   -11200.00
01969               8.80   -11600.00
01970              -2.00   -11600.00
01971             -16.40   -11600.00
01972              -4.00   -12000.00
01973              -0.80   -12200.00
01974             -12.00   -12400.00
01975             -12.40   -12600.00
01976              -2.40   -12800.00
01977              -7.60   -13000.00
01978             -10.00   -13200.00
01979              -8.80   -13200.00
01980              -3.60   -13600.00
01981             -14.00   -13600.00
01982             -10.40   -13800.00
01983              -7.20   -14000.00
01984             -12.00   -14000.00
01985             -12.40   -14200.00
01986              -7.20   -14400.00
01987              -8.80   -14600.00
01988             -16.80   -14600.00
01989              -9.20   -14800.00
01990             -10.80   -15000.00
01991             -16.40   -15200.00
01992             -13.60   -15200.00
01993              -9.60   -15400.00
01994             -15.60   -15400.00
01995             -17.20   -15600.00
01996             -11.60   -15800.00
01997             -17.20   -15600.00
01998             -19.20   -15800.00
01999             -15.20   -16000.00
02000             -16.40   -16000.00
02001             -20.00   -16200.00
02002             -19.60   -16200.00
02003             -18.40   -16400.00
02004             -21.60   -16400.00
02005             -22.80   -16400.00
02006             -21.60   -16400.00
02007             -22.00   -16400.00
02008             -25.60   -16600.00
02009             -25.20   -16600.00
02010             -25.20   -16600.00
02011             -29.20   -16800.00
02012             -30.00   -16600.00
02013             -27.60   -16600.00
02014             -29.60   -16800.00
02015             -32.80   -17000.00
02016             -31.60   -16800.00
02017             -32.40   -16800.00
02018             -34.40   -16800.00
02019             -34.00   -16800.00
02020             -34.00   -16800.00
02021             -34.00   -16800.00
02022             -33.20   -16800.00
02023             -32.40   -16800.00
02024             -31.20   -16800.00
02025             -30.00   -16800.00
02026             -28.40   -16800.00
02027             -26.80   -16600.00
02028             -25.20   -16600.00
02029             -25.20   -16600.00
02030             -24.00   -16400.00
02031             -22.80   -16400.00
02032             -22.00   -16400.00
02033             -20.40   -16400.00
02034             -20.00   -16400.00
02035             -19.60   -16200.00
02036             -18.80   -16200.00
02037             -18.00   -16000.00
02038             -17.20   -16000.00
02039             -16.80   -15800.00
02040             -16.40   -15600.00
02041             -15.60   -15600.00
02042             -15.20   -15600.00
02043             -15.20   -15400.00
02044             -14.00   -15200.00
02045             -14.40   -15200.00
02046             -14.00   -15200.00
02047             -12.40   -14800.00
02048             -13.20   -14800.00
02049             -13.20   -14600.00
02050             -10.80   -14600.00
02051             -11.60   -14400.00
02052             -12.00   -14200.00
02053             -10.00   -14200.00
02054              -9.20   -14000.00
02055             -10.80   -13800.00
02056             -10.40   -13600.00
02057              -8.80   -13400.00
02058              -9.60   -13200.00
02059              -9.20   -13200.00
02060              -7.60   -13000.00
02061              -7.60   -12800.00
02062              -8.80   -12600.00
02063              -7.20   -12400.00
02064              -7.20   -12200.00
02065              -7.60   -12200.00
02066              -6.80   -12000.00
02067              -6.00   -11400.00
02068              -6.80   -11600.00
02069              -6.00   -11200.00
02070              -6.80   -11000.00
02071              -5.60   -10800.00
02072              -6.00   -10600.00
02073              -6.00   -10400.00
02074              -4.40   -10200.00
02075              -4.40    -9800.00
02076              -6.80    -9800.00
02077              -4.40    -9600.00
02078              -4.40    -9200.00
02079              -5.20    -9000.00
02080              -3.60    -9000.00
02081              -4.00    -8600.00
02082              -5.20    -8400.00
02083              -3.60    -8000.00
02084              -4.40    -8000.00
02085              -4.00    -7600.00
02086              -2.80    -7400.00
02087              -3.60    -7200.00
02088              -3.60    -6800.00
02089              -2.40    -6600.00
02090              -4.00    -6400.00
02091              -3.60    -6000.00
02092              -2.40    -6000.00
02093              -2.80    -5600.00
02094              -4.00    -5600.00
02095              -1.20    -5000.00
02096              -2.40    -4800.00
02097              -4.00    -4400.00
02098              -1.20    -4200.00
02099              -1.20    -4000.00
02100              -2.80    -3800.00
02101              -1.20    -3600.00
02102              -1.20    -3200.00
02103              -2.80    -3000.00
02104              -1.20    -2800.00
02105              -1.20    -2400.00
02106              -2.40    -2000.00
02107              -1.20    -2000.00
02108              -0.80    -1600.00
02109              -1.20    -1200.00
02110              -0.80    -1000.00
02111              -0.80     -800.00
02112              -1.20     -600.00
02113              -0.40     -200.00
02114               0.40        0.00
02115              -0.40      400.00
02116               1.20      600.00
02117               2.80      800.00
02118              -2.00     1000.00
02119               0.00     1400.00
02120               2.80     1600.00
02121               0.40     2000.00
02122              -0.80     2000.00
02123               4.80     2400.00
02124              18.80     2800.00
02125              11.20     3000.00
02126             -38.80     3400.00
02127             -13.20     3600.00
02128              28.00     3800.00
02129             -19.60     3800.00
02130              -4.00     4400.00
02131              50.00     4600.00
02132             -50.00     4800.00
02133               2.40     5200.00
02134              50.00     5400.00
02135             -50.00     5600.00
02136              -8.80     6000.00
02137              46.40     6000.00
02138             -16.80     6400.00
02139               0.00     6800.00
02140               0.80     6800.00
02141              13.60     7200.00
02142               2.40     7400.00
02143             -16.80     7600.00
02144              19.60     7800.00
02145               4.40     8200.00
02146              -8.40     8400.00
02147               9.60     8800.00
02148              15.60     8800.00
02149              -5.60     9200.00
02150             -10.80     9200.00
02151              23.60     9600.00
02152               4.00     9600.00
02153             -11.60    10200.00
02154              11.60    10200.00
02155              15.20    10400.00
02156              -2.80    10800.00
02157              -2.00    10800.00
02158              17.20    11000.00
02159               1.20    11200.00
02160              -2.40    11600.00
02161              15.20    11800.00
02162               7.20    12000.00
02163               0.40    12000.00
02164               7.20    12200.00
02165              10.80    12400.00
02166               2.40    12800.00
02167               3.60    12800.00
02168              13.60    13000.00
02169              10.00    13200.00
02170               4.00    13400.00
02171              10.80    13600.00
02172              12.00    13600.00
02173               4.40    13800.00
02174               7.20    14200.00
02175              12.80    14200.00
02176               7.60    14200.00
02177               6.80    14400.00
02178              15.20    14600.00
02179              13.20    14800.00
02180               8.40    14800.00
02181              14.80    15000.00
02182              14.80    15000.00
02183               9.20    15200.00
02184              12.00    15400.00
02185              16.40    15600.00
02186              12.80    15600.00
02187              13.60    15600.00
02188              18.00    15800.00
02189              17.20    16000.00
02190              17.60    16000.00
02191              18.80    16000.00
02192              18.80    16200.00
02193              18.00    16200.00
02194              18.00    16400.00
02195              20.40    16400.00
02196              21.60    16600.00
02197              22.00    16600.00
02198              26.00    16600.00
02199              26.00    16600.00
02200              25.20    16600.00
02201              26.40    16800.00
02202              28.00    16600.00
02203              27.60    16600.00
02204              29.20    16600.00
02205              31.20    16800.00
02206              31.60    16800.00
02207              32.00    16800.00
02208              33.20    16800.00
02209              34.00    16800.00
02210              33.20    16800.00
02211              34.00    16800.00
02212              33.20    16800.00
02213              31.60    16600.00
02214              29.60    16600.00
02215              28.40    16600.00
02216              28.40    16600.00
02217              26.40    16400.00
02218              25.20    16600.00
02219              25.60    16600.00
02220              23.60    16600.00
02221              21.60    16400.00
02222              21.20    16400.00
02223              20.00    16400.00
02224              18.40    16200.00
02225              18.80    16400.00
02226              18.00    16000.00
02227              17.60    16000.00
02228              16.80    16000.00
02229              16.40    15800.00
02230              15.60    15800.00
02231              15.60    15800.00
02232              13.60    15600.00
02233              13.20    15600.00
02234              14.00    15400.00
02235              14.00    15200.00
02236              10.80    15200.00
02237              14.80    15000.00
02238              12.40    15000.00
02239              10.40    14800.00
02240              10.80    14800.00
02241              11.60    14400.00
02242               8.80    14400.00
02243               8.80    14200.00
02244              11.60    14200.00
02245               9.20    14000.00
02246               7.60    13600.00
02247              10.40    13400.00
02248               8.80    13400.00
02249               7.20    13200.00
02250               8.40    13000.00
02251               7.60    12800.00
02252               6.80    12800.00
02253               6.80    12600.00
02254               7.20    12400.00
02255               6.80    12200.00
02256               6.40    12000.00
02257               6.80    11800.00
02258               6.00    11600.00
02259               6.00    11200.00
02260               5.60    11200.00
02261               4.40    10800.00
02262               5.20    10800.00
02263               5.20    10600.00
02264               4.80    10200.00
02265               5.20    10000.00
02266               5.20    10000.00
02267               5.20     9600.00
02268               4.40     9400.00
02269               4.00     9200.00
02270               4.00     9200.00
02271               3.60     8600.00
02272               3.20     8400.00
02273               3.60     8400.00
02274               4.00     8000.00
02275               2.80     7800.00
02276               3.60     7600.00
02277               3.20     7200.00
02278               2.80     7000.00
02279               2.40     6800.00
02280               2.00     6400.00
02281               2.40     6400.00
02282               2.00     6000.00
02283               2.00     5800.00
02284               2.00     5600.00
02285               2.00     5400.00
02286               2.00     4800.00
02287               2.00     4600.00
02288               2.00     4400.00
02289               1.20     4000.00
02290               0.40     3800.00
02291               1.20     3600.00
02292               0.80     3200.00
02293               0.40     3200.00
02294               1.20     3000.00
02295               0.80     2600.00
02296              -0.40     2200.00
02297               0.80     2200.00
02298               0.80     1800.00
02299              -0.80     1400.00
02300               0.40     1200.00
02301               0.40      800.00
02302              -1.20      800.00
02303              -0.40      400.00
02304               0.40        0.00
02305              -0.40     -200.00
02306              -0.40     -200.00
02307               2.40     -800.00
02308               0.40     -800.00
02309              -2.40    -1200.00
02310               0.00    -1400.00
02311               0.80    -1800.00
02312              -2.00    -2000.00
02313               1.20    -2200.00
02314              28.00    -2600.00
02315               3.60    -3000.00
02316             -50.00    -3200.00
02317              -2.80    -3600.00
02318              20.40    -3800.00
02319             -25.20    -3600.00
02320              50.00    -4200.00
02321             -40.80    -4200.00
02322             -47.20    -4200.00
02323              50.00    -5200.00
02324             -50.00    -5200.00
02325             -50.00    -5600.00
02326              50.00    -6000.00
02327             -50.00    -5800.00
02328             -21.20    -6400.00
02329              28.40    -6400.00
02330             -15.20    -6600.00
02331              18.00    -7200.00
02332             -40.80    -7200.00
02333              18.80    -7600.00
02334              12.00    -7800.00
02335             -42.40    -8000.00
02336              20.00    -8400.00
02337               0.80    -8400.00
02338              -1.20    -8800.00
02339             -28.00    -9000.00
02340               8.80    -9200.00
02341              15.60    -9600.00
02342             -40.80    -9600.00
02343              13.20   -10000.00
02344               2.00   -10000.00
02345              -7.60   -10400.00
02346             -15.20   -10600.00
02347               0.40   -10800.00
02348               6.80   -11200.00
02349             -30.00   -11200.00
02350               7.60   -11600.00
02351              -1.20   -11600.00
02352             -16.00   -11800.00
02353              -5.60   -12000.00
02354              -1.20   -12400.00
02355             -10.00   -12400.00
02356             -13.60   -12600.00
02357              -2.40   -12800.00
02358              -7.20   -13000.00
02359             -10.40   -13200.00
02360              -9.20   -13200.00
02361              -2.80   -13600.00
02362             -13.60   -13600.00
02363             -10.80   -13800.00
02364              -6.80   -14000.00
02365             -11.60   -14000.00
02366             -12.40   -14200.00
02367              -8.80   -14600.00
02368              -8.80   -14400.00
02369             -16.40   -14800.00
02370             -10.00   -14800.00
02371             -10.80   -15000.00
02372             -15.60   -15000.00
02373             -14.00   -15200.00
02374             -10.00   -15400.00
02375             -15.20   -15400.00
02376             -18.00   -15400.00
02377             -12.00   -15600.00
02378             -17.20   -15800.00
02379             -19.60   -15800.00
02380             -15.20   -16000.00
02381             -16.40   -16000.00
02382             -20.00   -16200.00
02383             -20.00   -16200.00
02384             -18.80   -16400.00
02385             -21.60   -16400.00
02386             -23.20   -16400.00
02387             -21.20   -16400.00
02388             -22.00   -16400.00
02389             -26.00   -16400.00
02390             -25.20   -16400.00
02391             -24.80   -16600.00
02392             -28.40   -16800.00
02393             -29.60   -16800.00
02394             -28.00   -16600.00
02395             -30.00   -16800.00
02396             -32.40   -16800.00
02397             -30.80   -16800.00
02398             -33.20   -16800.00
02399             -34.00   -16800.00
02400             -33.20   -16800.00
02401             -34.40   -16800.00
02402             -33.20   -16800.00
02403             -33.20   -16800.00
02404             -33.20   -16800.00
02405             -30.80   -16800.00
02406             -28.80   -16800.00
02407             -29.20   -16800.00
02408             -25.60   -16600.00
02409             -25.20   -16600.00
02410             -24.80   -16800.00
02411             -23.20   -16400.00
02412             -23.20   -16400.00
02413             -21.60   -16400.00
02414             -21.20   -16400.00
02415             -19.60   -16200.00
02416             -19.60   -16000.00
02417             -18.80   -16200.00
02418             -18.00   -16200.00
02419             -17.20   -16000.00
02420             -17.20   -15800.00
02421             -15.60   -15800.00
02422             -15.20   -15600.00
02423             -15.60   -15600.00
02424             -14.80   -15600.00
02425             -14.40   -15400.00
02426             -14.00   -15200.00
02427             -13.60   -15200.00
02428             -12.80   -15000.00
02429             -12.40   -14800.00
02430             -12.40   -14800.00
02431             -12.00   -14600.00
02432             -11.60   -14400.00
02433             -11.20   -14400.00
02434             -10.40   -14000.00
02435             -10.00   -14000.00
02436             -10.00   -13800.00
02437              -9.20   -13800.00
02438              -9.20   -13600.00
02439              -9.20   -13200.00
02440              -8.80   -13200.00
02441              -8.40   -13000.00
02442              -8.80   -12800.00
02443              -7.60   -12600.00
02444              -7.20   -12400.00
02445              -7.60   -12400.00
02446              -7.60   -12200.00
02447              -6.80   -12000.00
02448              -7.20   -11600.00
02449              -6.80   -11400.00
02450              -5.60   -11200.00
02451              -6.80   -11000.00
02452              -6.00   -10800.00
02453              -5.60   -10600.00
02454              -5.60   -10400.00
02455              -5.20   -10200.00
02456              -4.40   -10000.00
02457              -6.00    -9800.00
02458              -4.80    -9600.00
02459              -4.40    -9400.00
02460              -4.80    -9000.00
02461              -4.40    -9000.00
02462              -3.60    -8600.00
02463              -4.40    -8400.00
02464              -4.00    -8200.00
02465              -4.00    -8000.00
02466              -3.60    -7600.00
02467              -3.20    -7400.00
02468              -3.60    -7200.00
02469              -2.80    -6800.00
02470              -2.80    -6800.00
02471              -2.80    -6400.00
02472              -2.80    -6000.00
02473              -2.80    -6000.00
02474              -2.40    -5600.00
02475              -2.80    -5200.00
02476              -2.40    -5000.00
02477              -2.00    -4800.00
02478              -2.80    -4400.00
02479              -2.40    -4200.00
02480              -2.00    -4000.00
02481              -2.00    -3800.00
02482              -2.00    -3600.00
02483              -1.60    -3200.00
02484              -2.00    -3000.00
02485              -2.00    -2800.00
02486              -1.20    -2400.00
02487              -1.20    -2200.00
02488              -1.20    -1800.00
02489              -1.20    -1600.00
02490              -1.20    -1400.00
02491              -1.20    -1000.00
02492              -0.80     -800.00
02493              -0.80     -400.00
02494              -1.20     -200.00
02495              -0.40        0.00
02496              -0.40      400.00
02497               0.80      400.00
02498               2.40      800.00
02499              -1.20     1000.00
02500              -0.80     1200.00
02501               2.00     1800.00
02502               0.40     1600.00
02503              -0.40     2000.00
02504               4.40     2200.00
02505              17.60     2800.00
02506              13.20     3200.00
02507             -37.20     3400.00
02508             -17.20     3600.00
02509              29.20     3800.00
02510             -16.80     3800.00
02511              -9.60     4400.00
02512              50.00     4600.00
02513             -50.00     4600.00
02514              -6.00     5400.00
02515              50.00     5200.00
02516             -50.00     5600.00
02517             -14.80     6000.00
02518              47.20     6200.00
02519             -14.80     6400.00
02520              -1.20     6800.00
02521               0.40     6800.00
02522              13.20     7200.00
02523               5.20     7600.00
02524             -18.40     7600.00
02525              18.40     8000.00
02526               7.20     8200.00
02527              -8.80     8400.00
02528               7.60     8600.00
02529              16.40     8800.00
02530              -3.20     9200.00
02531             -13.20     9400.00
02532              22.80     9600.00
02533               7.20     9800.00
02534             -12.00    10000.00
02535              10.40    10400.00
02536              16.40    10600.00
02537              -1.20    10800.00
02538              -3.60    10800.00
02539              16.80    11000.00
02540               3.60    11200.00
02541              -4.00    11600.00
02542              14.80    11800.00
02543               8.40    12000.00
02544              -0.40    12000.00
02545               8.40    12200.00
02546              11.60    12400.00
02547               2.40    12600.00
02548               3.60    12800.00
02549              11.60    13000.00
02550               8.80    13200.00
02551               4.00    13400.00
02552               9.20    13600.00
02553              11.20    13600.00
02554               6.00    14000.00
02555               7.60    14000.00
02556              12.00    14200.00
02557              10.40    14200.00
02558               7.60    14400.00
02559              13.20    14800.00
02560              12.40    14800.00
02561               7.20    14800.00
02562              12.00    15000.00
02563              15.20    15200.00
02564              10.80    15200.00
02565              12.40    15600.00
02566              17.20    15400.00
02567              13.20    15600.00
02568              13.60    15800.00
02569              18.00    15800.00
02570              15.60    16000.00
02571              16.40    16000.00
02572              18.40    16000.00
02573              18.40    16000.00
02574              19.60    16400.00
02575              19.60    16400.00
02576              21.60    16400.00
02577              22.80    16400.00
02578              21.20    16400.00
02579              24.40    16400.00
02580              26.00    16600.00
02581              24.40    16800.00
02582              26.40    16800.00
02583              29.20    16600.00
02584              27.60    16800.00
02585              29.20    16600.00
02586              32.80    16800.00
02587              30.80    16800.00
02588              31.20    16800.00
02589              34.00    16800.00
02590              32.80    16800.00
02591              33.60    16800.00
02592              34.40    16800.00
02593              33.20    16800.00
02594              31.60    16800.00
02595              30.80    16600.00
02596              29.60    16800.00
02597              28.00    16800.00
02598              26.40    16600.00
02599              25.60    16600.00
02600              24.80    16600.00
02601              23.20    16600.00
02602              22.80    16400.00
02603              22.00    16400.00
02604              21.20    16600.00
02605              19.60    16200.00
02606              19.60    16400.00
02607              18.80    16000.00
02608              17.20    16000.00
02609              16.40    16000.00
02610              16.40    16000.00
02611              15.20    15800.00
02612              15.60    15800.00
02613              14.80    15600.00
02614              14.80    15600.00
02615              13.60    15600.00
02616              13.60    15200.00
02617              13.20    15200.00
02618              12.40    14800.00
02619              12.00    15000.00
02620              11.60    14800.00
02621              10.40    14600.00
02622              10.80    14600.00
02623              10.40    14400.00
02624               9.20    14200.00
02625              10.40    14000.00
02626              10.40    14000.00
02627               7.60    13600.00
02628               8.80    13400.00
02629               9.20    13400.00
02630               7.20    13200.00
02631               7.20    13200.00
02632               8.40    12800.00
02633               6.80    12600.00
02634               6.80    12600.00
02635               7.20    12400.00
02636               6.80    12200.00
02637               5.60    12000.00
02638               6.80    11800.00
02639               6.00    11600.00
02640               5.60    11400.00
02641               5.60    11200.00
02642               5.20    11000.00
02643               5.20    10800.00
02644               5.20    10400.00
02645               4.40    10400.00
02646               4.80    10200.00
02647               4.40    10000.00
02648               4.00     9600.00
02649               4.80     9400.00
02650               4.00     9200.00
02651               3.60     9000.00
02652               4.00     8600.00
02653               4.00     8600.00
02654               3.60     8400.00
02655               3.60     8000.00
02656               3.60     7800.00
02657               2.80     7600.00
02658               3.20     7200.00
02659               2.40     7200.00
02660               2.80     6800.00
02661               2.00     6600.00
02662               2.00     6400.00
02663               2.40     6000.00
02664               2.40     5800.00
02665               2.00     5600.00
02666               2.00     5200.00
02667               2.00     5000.00
02668               2.00     4800.00
02669               1.20     4400.00
02670               1.20     4400.00
02671               1.60     4000.00
02672               1.20     3600.00
02673               0.80     3400.00
02674               0.80     3200.00
02675               0.80     2800.00
02676              -0.40     2600.00
02677               1.20     2400.00
02678               0.80     2000.00
02679              -0.40     1800.00
02680               0.40     1600.00
02681               0.40     1400.00
02682              -0.80     1000.00
02683              -0.40      600.00
02684               0.40      400.00
02685              -0.80        0.00
02686              -0.80     -200.00
02687               0.40     -200.00
02688               1.60     -400.00
02689              -0.40    -1000.00
02690              -1.20    -1000.00
02691              -0.80    -1400.00
02692               0.40    -1800.00
02693              -1.20    -2000.00
02694               0.80    -2000.00
02695              25.20    -2600.00
02696               6.80    -3000.00
02697             -50.00    -3200.00
02698              -6.80    -3400.00
02699              24.00    -3600.00
02700             -26.40    -3600.00
02701              49.20    -4200.00
02702             -31.60    -4200.00
02703             -50.00    -4400.00
02704              50.00    -5200.00
02705             -50.00    -5000.00
02706             -50.00    -5600.00
02707              50.00    -6000.00
02708             -44.80    -5800.00
02709             -26.80    -6200.00
02710              31.60    -6400.00
02711             -15.60    -6600.00
02712              18.00    -7200.00
02713             -39.60    -7000.00
02714              15.20    -7600.00
02715              16.40    -7600.00
02716             -43.60    -7800.00
02717              18.40    -8400.00
02718               2.40    -8400.00
02719              -0.80    -9000.00
02720             -26.40    -9000.00
02721               5.20    -9200.00
02722              18.40    -9600.00
02723             -40.80    -9400.00
02724              10.80   -10000.00
02725               3.60   -10000.00
02726              -7.60   -10400.00
02727             -14.80   -10600.00
02728              -1.20   -10800.00
02729               8.40   -11000.00
02730             -30.00   -11200.00
02731               6.80   -11400.00
02732               0.40   -11600.00
02733             -16.00   -11800.00
02734              -5.60   -12000.00
02735              -0.40   -12200.00
02736              -9.60   -12400.00
02737             -13.60   -12600.00
02738              -2.00   -12800.00
02739              -6.80   -12800.00
02740             -10.80   -13200.00
02741              -8.80   -13200.00
02742              -3.60   -13400.00
02743             -13.20   -13600.00
02744              -9.60   -13800.00
02745              -7.20   -14000.00
02746             -12.00   -14200.00
02747             -10.80   -14200.00
02748              -9.20   -14400.00
02749              -7.60   -14400.00
02750             -16.80   -14800.00
02751             -10.40   -14800.00
02752             -10.00   -14800.00
02753             -16.40   -15200.00
02754             -14.00   -15200.00
02755              -9.20   -15200.00
02756             -14.80   -15400.00
02757             -18.00   -15600.00
02758             -11.60   -15800.00
02759             -16.80   -15800.00
02760             -20.00   -15800.00
02761             -14.80   -16000.00
02762             -16.00   -16000.00
02763             -20.00   -16000.00
02764             -20.40   -16200.00
02765             -18.80   -16400.00
02766             -21.20   -16400.00
02767             -23.60   -16400.00
02768             -21.60   -16400.00
02769             -20.40   -16400.00
02770             -26.40   -16800.00
02771             -26.00   -16600.00
02772             -24.40   -16800.00
02773             -29.20   -16800.00
02774             -30.00   -16800.00
02775             -27.20   -16800.00
02776             -29.60   -16800.00
02777             -33.20   -16800.00
02778             -31.20   -16800.00
02779             -32.40   -17000.00
02780             -34.40   -17000.00
02781             -33.20   -17000.00
02782             -33.20   -16800.00
02783             -34.00   -16800.00
02784             -34.00   -16800.00
02785             -31.60   -16800.00
02786             -30.80   -16800.00
02787             -30.40   -16800.00
02788             -28.00   -16600.00
02789             -25.20   -16600.00
02790             -25.20   -16600.00
02791             -25.20   -16400.00
02792             -22.80   -16400.00
02793             -22.80   -16400.00
02794             -22.00   -16400.00
02795             -20.00   -16400.00
02796             -19.60   -16200.00
02797             -20.00   -16200.00
02798             -18.40   -16200.00
02799             -17.20   -16000.00
02800             -18.00   -16000.00
02801             -16.80   -16000.00
02802             -15.60   -15600.00
02803             -16.40   -15600.00
02804             -14.80   -15600.00
02805             -14.00   -15400.00
02806             -15.60   -15400.00
02807             -13.60   -15200.00
02808             -12.40   -15000.00
02809             -13.60   -14800.00
02810             -12.40   -14800.00
02811             -12.00   -14800.00
02812             -12.40   -14400.00
02813             -11.60   -14400.00
02814             -10.40   -14400.00
02815             -11.60   -14000.00
02816             -10.40   -14000.00
02817              -9.60   -13800.00
02818             -10.40   -13600.00
02819             -10.00   -13400.00
02820              -9.20   -13200.00
02821              -8.80   -13200.00
02822              -8.40   -13000.00
02823              -8.00   -12800.00
02824              -7.60   -12600.00
02825              -7.60   -12400.00
02826              -7.60   -12200.00
02827              -7.60   -12000.00
02828              -7.20   -12000.00
02829              -6.40   -11600.00
02830              -6.80   -11400.00
02831              -6.80   -11200.00
02832              -6.80   -11000.00
02833              -6.00   -10800.00
02834              -5.60   -10600.00
02835              -5.60   -10400.00
02836              -5.60   -10200.00
02837              -4.40   -10000.00
02838              -5.20    -9800.00
02839              -6.00    -9600.00
02840              -4.00    -9200.00
02841              -4.40    -9000.00
02842              -5.20    -8800.00
02843              -4.00    -8800.00
02844              -4.00    -8400.00
02845              -4.40    -8200.00
02846              -4.00    -8000.00
02847              -3.60    -7600.00
02848              -4.00    -7400.00
02849              -3.60    -7200.00
02850              -2.80    -6800.00
02851              -3.60    -6600.00
02852              -2.80    -6400.00
02853              -2.40    -6200.00
02854              -2.80    -5800.00
02855              -2.40    -5600.00
02856              -2.40    -5200.00
02857              -2.40    -5200.00
02858              -2.00    -4800.00
02859              -2.40    -4600.00
02860              -2.40    -4400.00
02861              -2.00    -4000.00
02862              -1.20    -3800.00
02863              -2.00    -3400.00
02864              -2.00    -3400.00
02865              -1.20    -3000.00
02866              -2.00    -2800.00
02867              -1.20    -2400.00
02868              -0.40    -2400.00
02869              -1.20    -1800.00
02870              -1.60    -1800.00
02871               0.00    -1400.00
02872              -1.20    -1000.00
02873              -1.60     -800.00
02874              -0.40     -600.00
02875              -0.80     -200.00
02876              -1.20        0.00
02877               0.40        0.00
02878               1.20      600.00
02879               2.00      800.00
02880              -0.80     1000.00
02881               0.40     1200.00
02882               1.20     1600.00
02883               0.40     1800.00
02884               0.40     2000.00
02885               3.60     2400.00
02886              16.80     2800.00
02887              15.20     3000.00
02888             -36.40     3200.00
02889             -19.60     3600.00
02890              28.00     3800.00
02891             -14.00     3800.00
02892             -13.20     4200.00
02893              50.00     4400.00
02894             -46.80     4600.00
02895             -12.00     5200.00
02896              50.00     5200.00
02897             -50.00     5600.00
02898             -20.00     6000.00
02899              49.20     6000.00
02900             -13.60     6400.00
02901              -2.80     6800.00
02902               2.00     6800.00
02903              12.00     7200.00
02904               5.60     7400.00
02905             -18.40     7600.00
02906              16.80     7800.00
02907               7.60     8200.00
02908              -9.60     8400.00
02909               7.20     8600.00
02910              16.40     8800.00
02911              -2.40     9200.00
02912             -12.00     9200.00
02913              21.60     9600.00
02914               8.40     9800.00
02915             -12.40    10000.00
02916               9.60    10400.00
02917              16.80    10400.00
02918              -0.80    10800.00
02919              -4.40    11000.00
02920              16.80    11000.00
02921               4.00    11200.00
02922              -4.40    11600.00
02923              14.00    11800.00
02924              10.00    12000.00
02925              -0.40    12200.00
02926               7.20    12200.00
02927              12.40    12400.00
02928               3.20    12800.00
02929               3.20    12800.00
02930              13.20    13200.00
02931               9.60    13200.00
02932               3.60    13400.00
02933              10.00    13600.00
02934              11.60    13600.00
02935               5.60    14000.00
02936               7.60    14000.00
02937              12.80    14200.00
02938               9.20    14400.00
02939               7.20    14400.00
02940              13.60    14600.00
02941              12.40    14800.00
02942               7.20    14800.00
02943              13.20    15000.00
02944              15.20    15200.00
02945              10.00    15200.00
02946              13.20    15400.00
02947              17.20    15600.00
02948              13.20    15600.00
02949              13.60    15600.00
02950              18.00    15800.00
02951              15.20    15800.00
02952              15.60    16000.00
02953              18.80    16000.00
02954              19.60    16200.00
02955              18.40    16200.00
02956              19.60    16200.00
02957              21.60    16400.00
02958              21.60    16400.00
02959              21.20    16400.00
02960              24.80    16400.00
02961              26.00    16600.00
02962              24.40    16600.00
02963              26.80    16600.00
02964              29.20    16600.00
02965              27.60    16800.00
02966              29.20    16600.00
02967              32.40    16800.00
02968              30.80    16800.00
02969              31.20    16800.00
02970              32.80    16800.00
02971              32.80    16800.00
02972              32.80    16800.00
02973              34.00    16600.00
02974              34.00    16800.00
02975              32.40    16800.00
02976              30.80    16800.00
02977              29.60    16800.00
02978              28.40    16600.00
02979              26.80    16600.00
02980              25.20    16600.00
02981              24.40    16600.00
02982              23.60    16600.00
02983              22.00    16400.00
02984              21.60    16400.00
02985              20.40    16400.00
02986              19.60    16200.00
02987              19.60    16400.00
02988              18.40    16200.00
02989              17.20    16000.00
02990              17.20    16000.00
02991              16.80    16000.00
02992              15.60    15800.00
02993              16.40    15800.00
02994              15.20    15600.00
02995              14.00    15600.00
02996              13.60    15600.00
02997              13.60    15200.00
02998              13.20    15200.00
02999              12.40    15000.00
03000              12.00    14800.00
03001              11.60    14800.00
03002              10.80    14600.00
03003              10.80    14400.00
03004              10.80    14400.00
03005              10.40    14200.00
03006              10.00    14200.00
03007               9.60    14000.00
03008               9.20    13800.00
03009               8.40    13400.00
03010               8.40    13400.00
03011               8.40    13200.00
03012               7.60    13200.00
03013               7.60    12800.00
03014               7.60    12800.00
03015               6.80    12600.00
03016               6.80    12400.00
03017               6.80    12200.00
03018               6.00    12000.00
03019               5.60    11800.00
03020               5.60    11600.00
03021               6.00    11200.00
03022               5.20    11200.00
03023               4.80    10800.00
03024               5.60    10800.00
03025               5.20    10600.00
03026               4.40    10400.00
03027               4.40    10000.00
03028               4.40    10000.00
03029               4.00     9600.00
03030               4.00     9400.00
03031               4.00     9200.00
03032               3.60     9000.00
03033               3.60     8800.00
03034               3.60     8600.00
03035               3.60     8200.00
03036               2.80     8200.00
03037               2.80     7800.00
03038               3.60     7600.00
03039               2.80     7200.00
03040               2.80     7000.00
03041               2.80     6800.00
03042               2.40     6600.00
03043               2.00     6200.00
03044               2.00     6000.00
03045               2.00     5800.00
03046               2.00     5600.00
03047               2.40     5200.00
03048               1.20     5000.00
03049               2.40     4800.00
03050               2.80     4400.00
03051               0.40     4200.00
03052               2.00     4000.00
03053               2.40     3800.00
03054              -0.80     3400.00
03055               1.20     3200.00
03056               2.00     2800.00
03057              -0.80     2800.00
03058               0.80     2200.00
03059               1.20     2000.00
03060               0.40     1800.00
03061               0.40     1600.00
03062               1.20     1400.00
03063              -0.80      800.00
03064               0.80      600.00
03065              -0.40      400.00
03066              -0.80        0.00
03067               0.80     -200.00
03068              -0.40     -400.00
03069               0.80     -800.00
03070               2.00     -800.00
03071              -2.40    -1200.00
03072              -1.20    -1200.00
03073               1.20    -1600.00
03074              -0.80    -2000.00
03075              -1.20    -2000.00
03076              23.60    -2400.00
03077              10.40    -3200.00
03078             -50.00    -3400.00
03079             -10.40    -3600.00
03080              25.20    -3600.00
03081             -26.00    -3600.00
03082              46.00    -4200.00
03083             -23.60    -4200.00
03084             -50.00    -4400.00
03085              50.00    -5200.00
03086             -45.20    -5000.00
03087             -50.00    -5400.00
03088              50.00    -5800.00
03089             -38.80    -5800.00
03090             -32.40    -6400.00
03091              34.40    -6400.00
03092             -18.00    -6600.00
03093              19.60    -7200.00
03094             -37.60    -7200.00
03095               9.20    -7800.00
03096              21.20    -7800.00
03097             -44.00    -8000.00
03098              16.40    -8400.00
03099               4.00    -8200.00
03100              -0.80    -9000.00
03101             -25.20    -9000.00
03102               2.00    -9200.00
03103              21.20    -9600.00
03104             -40.80    -9600.00
03105               8.80   -10000.00
03106               5.60   -10000.00
03107              -8.00   -10400.00
03108             -14.00   -10600.00
03109              -2.40   -10800.00
03110              10.40   -11000.00
03111             -30.00   -11200.00
03112               4.40   -11600.00
03113               2.00   -11600.00
03114             -15.60   -11800.00
03115              -4.80   -12000.00
03116              -0.80   -12200.00
03117              -9.20   -12400.00
03118             -13.60   -12600.00
03119              -2.40   -12800.00
03120              -7.20   -13000.00
03121              -9.20   -13000.00
03122              -9.20   -13200.00
03123              -3.60   -13200.00
03124             -12.00   -13600.00
03125             -10.80   -13800.00
03126              -6.40   -14000.00
03127             -10.80   -14000.00
03128             -10.80   -14400.00
03129              -8.40   -14400.00
03130              -8.40   -14600.00
03131             -15.60   -14800.00
03132             -10.00   -14800.00
03133             -10.80   -14800.00
03134             -15.60   -15200.00
03135             -13.20   -15200.00
03136             -10.40   -15400.00
03137             -14.80   -15400.00
03138             -17.20   -15400.00
03139             -12.00   -15600.00
03140             -17.20   -15800.00
03141             -18.80   -16000.00
03142             -15.20   -16000.00
03143             -16.40   -16000.00
03144             -19.60   -16200.00
03145             -20.00   -16200.00
03146             -18.80   -16200.00
03147             -21.60   -16400.00
03148             -23.20   -16400.00
03149             -21.60   -16400.00
03150             -22.00   -16400.00
03151             -25.20   -16600.00
03152             -25.60   -16600.00
03153             -25.20   -16800.00
03154             -28.00   -16800.00
03155             -29.60   -16800.00
03156             -28.00   -16800.00
03157             -29.60   -16800.00
03158             -32.80   -16800.00
03159             -31.60   -16800.00
03160             -32.40   -16800.00
03161             -33.60   -16800.00
03162             -34.00   -16800.00
03163             -33.20   -16800.00
03164             -34.00   -16800.00
03165             -34.00   -16800.00
03166             -32.40   -16800.00
03167             -31.20   -16800.00
03168             -29.60   -16800.00
03169             -28.00   -16600.00
03170             -26.80   -16600.00
03171             -25.20   -16800.00
03172             -24.40   -16600.00
03173             -24.00   -16400.00
03174             -22.80   -16400.00
03175             -21.20   -16400.00
03176             -20.40   -16400.00
03177             -20.00   -16200.00
03178             -18.80   -16200.00
03179             -18.40   -16200.00
03180             -18.40   -16000.00
03181             -17.20   -16000.00
03182             -16.40   -16000.00
03183             -17.20   -15600.00
03184             -15.60   -15600.00
03185             -14.00   -15600.00
03186             -15.20   -15400.00
03187             -14.80   -15400.00
03188             -12.00   -15200.00
03189             -13.60   -15000.00
03190             -13.60   -14800.00
03191             -11.20   -14800.00
03192             -12.00   -14800.00
03193             -12.80   -14600.00
03194             -10.80   -14400.00
03195             -10.80   -14400.00
03196             -11.20   -14000.00
03197             -10.00   -13800.00
03198             -10.40   -13800.00
03199             -10.40   -13600.00
03200             -10.00   -13600.00
03201              -9.20   -13200.00
03202              -8.80   -13200.00
03203              -8.40   -13000.00
03204              -7.60   -12800.00
03205              -8.80   -12800.00
03206              -8.40   -12600.00
03207              -6.80   -12200.00
03208              -8.40   -12200.00
03209              -7.60   -12000.00
03210              -5.60   -11600.00
03211              -7.20   -11400.00
03212              -7.60   -11400.00
03213              -5.60   -11000.00
03214              -6.80   -10800.00
03215              -6.00   -10800.00
03216              -5.60   -10400.00
03217              -6.00   -10200.00
03218              -5.20   -10000.00
03219              -5.60    -9800.00
03220              -5.60    -9600.00
03221              -4.00    -9200.00
03222              -4.40    -9200.00
03223              -4.80    -9000.00
03224              -3.60    -8600.00
03225              -4.40    -8400.00
03226              -4.40    -8200.00
03227              -3.60    -8000.00
03228              -4.00    -7600.00
03229              -4.40    -7400.00
03230              -3.60    -7000.00
03231              -3.60    -6800.00
03232              -3.60    -6600.00
03233              -3.60    -6400.00
03234              -2.80    -6000.00
03235              -2.40    -5800.00
03236              -2.40    -5600.00
03237              -2.40    -5400.00
03238              -2.40    -5000.00
03239              -2.00    -4800.00
03240              -2.40    -4600.00
03241              -2.40    -4400.00
03242              -2.40    -4000.00
03243              -1.60    -4000.00
03244              -2.00    -3600.00
03245              -2.00    -3200.00
03246              -2.00    -3200.00
03247              -1.20    -2800.00
03248              -1.20    -2400.00
03249              -1.20    -2200.00
03250              -1.20    -2000.00
03251              -0.80    -1800.00
03252              -0.80    -1400.00
03253              -0.80    -1000.00
03254              -0.80    -1000.00
03255              -0.80     -600.00
03256              -0.40     -400.00
03257               0.40        0.00
03258              -0.40      200.00
03259               1.20      400.00
03260               2.40      600.00
03261              -1.20      800.00
03262              -0.80     1200.00
03263               2.00     1600.00
03264               0.80     2000.00
03265              -0.40     2000.00
03266               3.60     2400.00
03267              15.60     2600.00
03268              16.80     3000.00
03269             -34.40     3200.00
03270             -22.00     3600.00
03271              28.00     3600.00
03272             -10.80     3800.00
03273             -17.20     4000.00
03274              50.00     4400.00
03275             -40.40     4600.00
03276             -20.40     5200.00
03277              50.00     5200.00
03278             -47.20     5400.00
03279             -26.40     6000.00
03280              50.00     6000.00
03281             -11.60     6400.00
03282              -4.40     6800.00
03283               2.00     6800.00
03284              10.80     7200.00
03285               8.40     7400.00
03286             -20.00     7600.00
03287              16.00     7800.00
03288              10.40     8200.00
03289             -10.00     8400.00
03290               6.00     8600.00
03291              16.80     8800.00
03292              -1.20     9000.00
03293             -14.00     9400.00
03294              20.80     9400.00
03295               9.60    10000.00
03296             -12.40    10000.00
03297               8.80    10400.00
03298              17.20    10400.00
03299               0.00    10400.00
03300              -5.20    10800.00
03301              16.40    11200.00
03302               5.20    11200.00
03303              -4.80    11600.00
03304              14.40    11800.00
03305               9.60    12000.00
03306               0.40    12000.00
03307               7.20    12200.00
03308              12.40    12600.00
03309               2.80    12600.00
03310               3.60    12800.00
03311              12.40    12800.00
03312               9.60    13200.00
03313               4.00    13200.00
03314              10.40    13600.00
03315              11.60    13600.00
03316               6.00    13800.00
03317               8.40    14000.00
03318              13.20    14200.00
03319               8.80    14400.00
03320               7.20    14400.00
03321              14.80    14600.00
03322              12.00    14800.00
03323               7.20    14800.00
03324              13.60    15000.00
03325              14.80    15200.00
03326              10.00    15200.00
03327              13.20    15200.00
03328              17.60    15400.00
03329              13.20    15600.00
03330              13.20    15600.00
03331              18.00    15800.00
03332              15.60    15800.00
03333              15.20    16000.00
03334              18.40    16000.00
03335              19.20    16000.00
03336              18.40    16200.00
03337              18.80    16400.00
03338              21.60    16600.00
03339              21.20    16600.00
03340              21.60    16400.00
03341              24.40    16600.00
03342              25.20    16600.00
03343              24.40    16600.00
03344              26.80    16600.00
03345              29.20    16600.00
03346              27.20    16600.00
03347              28.00    16800.00
03348              32.00    16800.00
03349              31.60    16800.00
03350              31.20    16800.00
03351              32.80    16800.00
03352              33.20    16800.00
03353              32.40    16800.00
03354              33.20    16800.00
03355              34.00    16800.00
03356              32.40    16800.00
03357              30.80    16800.00
03358              30.00    16600.00
03359              27.60    16600.00
03360              26.40    16600.00
03361              25.60    16600.00
03362              24.40    16600.00
03363              24.40    16400.00
03364              24.00    16600.00
03365              20.80    16400.00
03366              19.60    16400.00
03367              20.00    16200.00
03368              19.60    16200.00
03369              17.20    16000.00
03370              18.40    16000.00
03371              18.00    16000.00
03372              15.60    16000.00
03373              15.60    15800.00
03374              16.80    15800.00
03375              14.40    15600.00
03376              14.00    15600.00
03377              14.80    15400.00
03378              13.20    15200.00
03379              13.20    15200.00
03380              12.40    15000.00
03381              11.60    14800.00
03382              12.00    14800.00
03383              10.80    14800.00
03384              10.40    14600.00
03385              11.60    14400.00
03386              10.80    14000.00
03387               8.80    14200.00
03388              10.40    14000.00
03389              10.00    14000.00
03390               7.60    13600.00
03391               8.40    13400.00
03392               8.80    13200.00
03393               7.20    13200.00
03394               7.20    12800.00
03395               8.40    12800.00
03396               6.40    12600.00
03397               6.00    12400.00
03398               6.80    12200.00
03399               6.00    12000.00
03400               5.60    11800.00
03401               6.00    11600.00
03402               6.00    11400.00
03403               5.20    11200.00
03404               4.80    11000.00
03405               5.20    10800.00
03406               5.20    10600.00
03407               4.40    10200.00
03408               5.20    10200.00
03409               4.40    10000.00
03410               4.00     9800.00
03411               4.00     9400.00
03412               3.60     9200.00
03413               3.60     9000.00
03414               3.60     8800.00
03415               4.00     8600.00
03416               3.20     8400.00
03417               2.80     8000.00
03418               3.60     7800.00
03419               2.40     7600.00
03420               2.80     7200.00
03421               2.40     7000.00
03422               2.40     6800.00
03423               2.80     6800.00
03424               2.00     6400.00
03425               2.00     6000.00
03426               2.80     5800.00
03427               0.80     5600.00
03428               2.40     5400.00
03429               2.40     4800.00
03430               1.20     4800.00
03431               1.20     4400.00
03432               2.00     4200.00
03433               0.80     3800.00
03434               0.40     3800.00
03435               2.00     3600.00
03436               0.80     3200.00
03437               0.80     3000.00
03438               1.20     2800.00
03439               0.40     2400.00
03440               0.80     2200.00
03441               1.20     1600.00
03442              -0.40     1600.00
03443              -0.40     1400.00
03444               0.80     1200.00
03445              -0.40      800.00
03446              -0.80      400.00
03447               0.80        0.00
03448               0.40     -200.00
03449              -0.40     -400.00
03450               2.00     -600.00
03451               2.00     -800.00
03452              -2.00    -1200.00
03453              -1.20    -1200.00
03454               0.80    -1800.00
03455              -0.80    -2000.00
03456              -1.20    -2000.00
03457              22.80    -2400.00
03458              13.60    -3000.00
03459             -50.00    -3400.00
03460             -13.60    -3600.00
03461              26.80    -3600.00
03462             -28.00    -3400.00
03463              44.00    -4200.00
03464             -13.20    -4200.00
03465             -50.00    -4400.00
03466              50.00    -5200.00
03467             -30.80    -5200.00
03468             -50.00    -5200.00
03469              50.00    -6000.00
03470             -29.20    -5600.00
03471             -39.60    -6000.00
03472              36.40    -6400.00
03473             -16.80    -6800.00
03474              18.00    -7200.00
03475             -36.00    -7000.00
03476               6.00    -7600.00
03477              23.60    -8000.00
03478             -45.20    -8000.00
03479              14.80    -8400.00
03480               5.20    -8400.00
03481              -1.60    -8800.00
03482             -23.20    -9000.00
03483              -1.20    -9200.00
03484              24.40    -9600.00
03485             -40.00    -9600.00
03486               6.40   -10000.00
03487               6.00   -10000.00
03488              -8.80   -10400.00
03489             -12.80   -10600.00
03490              -4.80   -10800.00
03491              10.80   -11000.00
03492             -29.60   -11200.00
03493               2.40   -11400.00
03494               3.60   -11600.00
03495             -16.40   -11600.00
03496              -5.60   -12000.00
03497              -0.40   -12200.00
03498              -7.60   -12400.00
03499             -14.00   -12800.00
03500              -2.80   -12800.00
03501              -6.00   -13000.00
03502             -10.00   -13000.00
03503             -10.40   -13200.00
03504              -2.80   -13400.00
03505             -11.60   -13600.00
03506             -12.00   -13800.00
03507              -5.60   -14000.00
03508             -10.80   -14200.00
03509             -12.40   -14000.00
03510              -8.40   -14400.00
03511              -7.20   -14400.00
03512             -16.40   -14600.00
03513             -10.80   -14800.00
03514              -9.20   -15000.00
03515             -15.20   -15000.00
03516             -14.40   -15200.00
03517              -9.60   -15200.00
03518             -14.00   -15400.00
03519             -18.40   -15600.00
03520             -12.00   -15600.00
03521             -15.60   -15600.00
03522             -19.60   -15600.00
03523             -16.40   -16000.00
03524             -15.60   -16000.00
03525             -19.60   -16200.00
03526             -20.00   -16200.00
03527             -18.00   -16400.00
03528             -21.20   -16400.00
03529             -23.60   -16400.00
03530             -21.20   -16200.00
03531             -22.00   -16600.00
03532             -24.80   -16600.00
03533             -25.60   -16800.00
03534             -25.60   -16800.00
03535             -28.00   -16800.00
03536             -30.00   -16800.00
03537             -29.20   -16800.00
03538             -29.60   -16800.00
03539             -32.00   -16800.00
03540             -31.20   -16800.00
03541             -32.40   -16800.00
03542             -34.80   -16800.00
03543             -33.20   -16800.00
03544             -34.00   -17000.00
03545             -34.80   -16800.00
03546             -33.20   -16800.00
03547             -31.60   -16800.00
03548             -31.60   -16800.00
03549             -30.00   -16800.00
03550             -28.00   -16800.00
03551             -28.00   -16800.00
03552             -26.00   -16600.00
03553             -23.60   -16600.00
03554             -23.60   -16400.00
03555             -22.80   -16600.00
03556             -22.00   -16400.00
03557             -20.80   -16400.00
03558             -20.00   -16200.00
03559             -19.20   -16200.00
03560             -18.40   -16200.00
03561             -18.00   -16200.00
03562             -17.60   -16000.00
03563             -17.20   -15800.00
03564             -15.60   -15800.00
03565             -16.00   -15600.00
03566             -15.60   -15400.00
03567             -14.80   -15400.00
03568             -14.40   -15200.00
03569             -14.00   -15200.00
03570             -13.20   -15200.00
03571             -12.40   -14800.00
03572             -13.20   -14800.00
03573             -12.40   -14800.00
03574             -11.60   -14600.00
03575             -11.60   -14400.00
03576             -11.20   -14400.00
03577             -10.00   -14000.00
03578             -10.00   -14000.00
03579             -10.40   -14000.00
03580              -9.60   -13600.00
03581              -8.80   -13600.00
03582              -9.60   -13400.00
03583              -8.80   -13200.00
03584              -7.60   -13000.00
03585              -8.40   -12800.00
03586              -8.40   -12600.00
03587              -7.60   -12400.00
03588              -7.60   -12200.00
03589              -7.60   -12200.00
03590              -7.20   -12000.00
03591              -6.00   -11800.00
03592              -7.20   -11600.00
03593              -7.20   -11400.00
03594              -6.00   -11000.00
03595              -6.00   -10800.00
03596              -6.80   -10800.00
03597              -5.60   -10400.00
03598              -5.60   -10400.00
03599              -5.20   -10000.00
03600              -5.60   -10000.00
03601              -6.00    -9600.00
03602              -4.40    -9400.00
03603              -5.20    -9000.00
03604              -4.80    -9000.00
03605              -4.00    -8800.00
03606              -4.40    -8400.00
03607              -4.40    -8200.00
03608              -3.60    -8000.00
03609              -4.40    -7600.00
03610              -4.00    -7400.00
03611              -3.60    -7200.00
03612              -2.80    -6800.00
03613              -3.20    -6600.00
03614              -2.80    -6600.00
03615              -2.80    -6000.00
03616              -2.40    -6000.00
03617              -3.60    -5600.00
03618              -2.40    -5200.00
03619              -2.00    -5200.00
03620              -2.80    -5000.00
03621              -2.40    -4600.00
03622              -2.00    -4400.00
03623              -2.40    -4200.00
03624              -2.40    -3600.00
03625              -1.20    -3600.00
03626              -1.20    -3200.00
03627              -2.40    -3000.00
03628              -2.00    -2800.00
03629               0.00    -2600.00
03630              -1.20    -2200.00
03631              -2.00    -2000.00
03632               0.40    -1600.00
03633              -1.20    -1400.00
03634              -1.60    -1200.00
03635               0.40    -1000.00
03636              -0.80     -600.00
03637              -2.00     -200.00
03638               0.40        0.00
03639               0.80      200.00
03640               0.40      600.00
03641               3.60      600.00
03642              -0.40      800.00
03643              -1.20     1200.00
03644               2.00     1400.00
03645               0.80     1800.00
03646               0.40     2000.00
03647               2.80     2200.00
03648              15.60     2800.00
03649              18.80     3000.00
03650             -32.80     3200.00
03651             -24.80     3600.00
03652              27.20     3800.00
03653              -7.60     3800.00
03654             -20.00     4200.00
03655              50.00     4400.00
03656             -34.40     4400.00
03657             -27.60     5200.00
03658              50.00     5400.00
03659             -40.40     5400.00
03660             -31.60     6000.00
03661              50.00     6000.00
03662              -9.20     6400.00
03663              -6.00     6600.00
03664               2.00     6800.00
03665              10.40     7200.00
03666              10.40     7200.00
03667             -20.40     7600.00
03668              14.00     7800.00
03669              12.40     8200.00
03670             -10.80     8600.00
03671               4.40     8600.00
03672              16.80     8800.00
03673               0.40     9200.00
03674             -15.20     9200.00
03675              19.60     9600.00
03676              11.60     9600.00
03677             -13.60    10000.00
03678               7.20    10200.00
03679              18.00    10400.00
03680               0.80    10600.00
03681              -6.00    10800.00
03682              16.00    11000.00
03683               6.80    11200.00
03684              -6.00    11600.00
03685              13.60    11800.00
03686              10.80    11800.00
03687              -0.40    12200.00
03688               6.40    12400.00
03689              12.40    12400.00
03690               4.00    12600.00
03691               2.40    12800.00
03692              12.00    13000.00
03693              10.80    13200.00
03694               3.60    13400.00
03695               8.40    13400.00
03696              13.60    13600.00
03697               6.80    14000.00
03698               6.00    14000.00
03699              13.60    14200.00
03700              10.80    14400.00
03701               5.60    14400.00
03702              13.60    14600.00
03703              14.80    14800.00
03704               7.20    14800.00
03705              11.60    15000.00
03706              16.00    15200.00
03707              10.40    15200.00
03708              12.00    15400.00
03709              17.20    15400.00
03710              13.60    15600.00
03711              12.80    15600.00
03712              18.00    15800.00
03713              16.40    15800.00
03714              14.80    16000.00
03715              18.40    16000.00
03716              19.60    16200.00
03717              18.00    16200.00
03718              18.80    16400.00
03719              21.60    16400.00
03720              21.20    16400.00
03721              21.20    16600.00
03722              24.40    16400.00
03723              26.00    16600.00
03724              24.40    16600.00
03725              26.40    16600.00
03726              28.40    16800.00
03727              27.60    16800.00
03728              29.20    16800.00
03729              31.20    16800.00
03730              31.20    16800.00
03731              30.80    16800.00
03732              32.80    16800.00
03733              32.80    16800.00
03734              32.80    16800.00
03735              33.20    16800.00
03736              34.00    16800.00
03737              31.60    16800.00
03738              30.80    16800.00
03739              29.60    16800.00
03740              28.00    16800.00
03741              26.80    16600.00
03742              25.60    16600.00
03743              24.80    16600.00
03744              24.00    16600.00
03745              22.40    16600.00
03746              21.60    16400.00
03747              21.20    16400.00
03748              19.60    16400.00
03749              18.80    16400.00
03750              18.00    16000.00
03751              17.60    16200.00
03752              16.80    16000.00
03753              16.40    16000.00
03754              16.40    16000.00
03755              16.80    15800.00
03756              13.60    15600.00
03757              14.80    15600.00
03758              15.20    15400.00
03759              12.40    15200.00
03760              12.40    15200.00
03761              13.60    15000.00
03762              11.60    15000.00
03763              11.60    14800.00
03764              12.00    14600.00
03765              10.80    14600.00
03766              10.00    14400.00
03767              10.80    14200.00
03768              10.00    14200.00
03769               8.80    14000.00
03770               9.20    14000.00
03771               8.80    13600.00
03772               8.40    13400.00
03773               8.40    13200.00
03774               8.40    13200.00
03775               8.00    12800.00
03776               7.20    12800.00
03777               7.20    12600.00
03778               6.80    12400.00
03779               6.80    12400.00
03780               6.00    12000.00
03781               6.00    11800.00
03782               6.00    11600.00
03783               5.60    11200.00
03784               5.20    11200.00
03785               5.60    11000.00
03786               5.20    10800.00
03787               5.20    10800.00
03788               5.20    10400.00
03789               5.20    10200.00
03790               4.40     9800.00
03791               4.40     9600.00
03792               4.00     9600.00
03793               4.00     9200.00
03794               3.60     9000.00
03795               2.80     8800.00
03796               2.80     8600.00
03797               3.60     8400.00
03798               2.80     8000.00
03799               3.60     7800.00
03800               2.80     7600.00
03801               2.40     7200.00
03802               2.40     7000.00
03803               2.40     6800.00
03804               2.00     6600.00
03805               2.40     6400.00
03806               2.00     6000.00
03807               2.40     5800.00
03808               2.00     5600.00
03809               2.00     5400.00
03810               2.00     4800.00
03811               1.20     4600.00
03812               1.20     4400.00
03813               1.20     4400.00
03814               0.80     4000.00
03815               1.20     3800.00
03816               1.20     3600.00
03817               0.40     3200.00
03818               1.20     3000.00
03819               0.80     2600.00
03820               0.40     2400.00
03821               0.80     2200.00
03822               0.80     1800.00
03823               0.40     1600.00
03824               0.40     1200.00
03825               0.40      800.00
03826               0.40      800.00
03827              -0.80      400.00
03828               0.80        0.00
03829              -0.40     -200.00
03830              -0.40     -400.00
03831               2.00     -600.00
03832               1.20     -800.00
03833              -2.00    -1200.00
03834              -0.80    -1400.00
03835               0.80    -1600.00
03836              -0.80    -2000.00
03837              -0.40    -2000.00
03838              21.60    -2400.00
03839              16.40    -3000.00
03840             -50.00    -3400.00
03841             -16.80    -3600.00
03842              28.00    -3800.00
03843             -28.00    -3600.00
03844              40.80    -4000.00
03845              -4.80    -4400.00
03846             -50.00    -4400.00
03847              50.00    -5200.00
03848             -18.40    -5200.00
03849             -50.00    -5200.00
03850              50.00    -5800.00
03851             -20.40    -5800.00
03852             -45.60    -6400.00
03853              38.40    -6400.00
03854             -16.80    -6800.00
03855              17.20    -7200.00
03856             -33.60    -7200.00
03857               0.80    -7600.00
03858              27.60    -7800.00
03859             -45.20    -7800.00
03860              12.40    -8400.00
03861               7.20    -8400.00
03862              -1.20    -8800.00
03863             -22.00    -9000.00
03864              -5.20    -9000.00
03865              26.00    -9600.00
03866             -39.20    -9600.00
03867               3.60   -10000.00
03868               8.40   -10000.00
03869              -8.80   -10400.00
03870             -12.40   -10600.00
03871              -6.00   -10600.00
03872              12.00   -11000.00
03873             -29.20   -11200.00
03874               0.80   -11400.00
03875               5.20   -11600.00
03876             -16.40   -12000.00
03877              -6.40   -12000.00
03878              -1.20   -12200.00
03879              -7.60   -12400.00
03880             -14.80   -12800.00
03881              -2.80   -12800.00
03882              -5.60   -13000.00
03883              -9.60   -13000.00
03884             -10.80   -13200.00
03885              -2.80   -13400.00
03886             -11.20   -13600.00
03887             -13.20   -13800.00
03888              -5.60   -14000.00
03889             -10.40   -14000.00
03890             -12.00   -14200.00
03891              -8.80   -14400.00
03892              -7.20   -14600.00
03893             -16.40   -14800.00
03894             -10.40   -14800.00
03895             -10.00   -14800.00
03896             -15.20   -15000.00
03897             -14.00   -15200.00
03898             -10.00   -15200.00
03899             -13.20   -15400.00
03900             -18.40   -15600.00
03901             -12.00   -15600.00
03902             -15.60   -15800.00
03903             -19.60   -16000.00
03904             -15.60   -16000.00
03905             -15.20   -16000.00
03906             -19.60   -16200.00
03907             -20.40   -16200.00
03908             -18.40   -16400.00
03909             -20.40   -16400.00
03910             -23.60   -16400.00
03911             -21.60   -16400.00
03912             -21.60   -16600.00
03913             -25.20   -16600.00
03914             -26.00   -16600.00
03915             -24.80   -16800.00
03916             -28.00   -16800.00
03917             -30.00   -16800.00
03918             -28.00   -16800.00
03919             -29.20   -16800.00
03920             -32.80   -16800.00
03921             -31.60   -17000.00
03922             -32.80   -16800.00
03923             -34.40   -16800.00
03924             -33.20   -16800.00
03925             -34.00   -16800.00
03926             -34.00   -16800.00
03927             -33.20   -16800.00
03928             -32.80   -16800.00
03929             -31.20   -16800.00
03930             -30.00   -16800.00
03931             -29.20   -16600.00
03932             -26.80   -16800.00
03933             -25.20   -16600.00
03934             -24.80   -16800.00
03935             -23.60   -16400.00
03936             -23.20   -16400.00
03937             -22.00   -16400.00
03938             -21.20   -16400.00
03939             -20.40   -16200.00
03940             -19.60   -16200.00
03941             -18.40   -16200.00
03942             -18.40   -16000.00
03943             -17.60   -16000.00
03944             -16.80   -16000.00
03945             -16.00   -15800.00
03946             -16.40   -15600.00
03947             -15.60   -15600.00
03948             -14.00   -15400.00
03949             -14.40   -15400.00
03950             -14.80   -15200.00
03951             -12.40   -15200.00
03952             -12.40   -15000.00
03953             -13.60   -14800.00
03954             -11.60   -14800.00
03955             -10.80   -14600.00
03956             -12.40   -14400.00
03957             -10.80   -14400.00
03958              -9.20   -14000.00
03959             -10.40   -14000.00
03960             -10.80   -13800.00
03961              -8.80   -13600.00
03962              -9.20   -13600.00
03963              -9.20   -13400.00
03964              -8.80   -13200.00
03965              -7.60   -13000.00
03966              -8.80   -12800.00
03967              -7.60   -12800.00
03968              -7.60   -12600.00
03969              -8.00   -12400.00
03970              -7.60   -12200.00
03971              -6.80   -12000.00
03972              -6.80   -11600.00
03973              -6.80   -11600.00
03974              -6.80   -11200.00
03975              -6.00   -11000.00
03976              -6.00   -11000.00
03977              -5.60   -10600.00
03978              -5.60   -10400.00
03979              -5.60   -10200.00
03980              -5.20   -10000.00
03981              -5.20    -9800.00
03982              -6.00    -9600.00
03983              -4.40    -9400.00
03984              -4.80    -9200.00
03985              -5.20    -8800.00
03986              -3.60    -8800.00
03987              -4.00    -8400.00
03988              -4.40    -8200.00
03989              -3.60    -8000.00
03990              -4.00    -7600.00
03991              -4.00    -7400.00
03992              -2.80    -7200.00
03993              -3.60    -7000.00
03994              -3.60    -6600.00
03995              -3.60    -6400.00
03996              -3.20    -6000.00
03997              -2.40    -6000.00
03998              -2.80    -5600.00
03999              -2.80    -5400.00
04000              -2.40    -5200.00
04001              -2.40    -4800.00
04002              -2.80    -4400.00
04003              -1.20    -4400.00
04004              -2.40    -4000.00
04005              -1.20    -3800.00
04006              -1.20    -3600.00
04007              -2.40    -3400.00
04008              -1.20    -3000.00
04009              -1.20    -2800.00
04010              -2.80    -2600.00
04011              -1.20    -2000.00
04012               0.40    -2000.00
04013              -2.40    -1600.00
04014              -1.20    -1600.00
04015               0.80    -1200.00
04016              -2.00     -800.00
04017              -1.20     -800.00
04018               0.80     -200.00
04019              -0.80     -200.00
04020              -1.20      400.00
04021               2.40      600.00
04022               2.80      800.00
04023              -1.20      800.00
04024               0.80     1400.00
04025               2.00     1400.00
04026              -0.40     2000.00
04027               0.40     2000.00
04028               2.80     2400.00
04029              13.60     2800.00
04030              20.40     3000.00
04031             -30.00     3400.00
04032             -26.80     3600.00
04033              26.40     3600.00
04034              -4.80     3800.00
04035             -23.20     4400.00
04036              50.00     4400.00
04037             -27.60     4600.00
04038             -34.40     5200.00
04039              50.00     5200.00
04040             -33.20     5400.00
04041             -38.40     6000.00
04042              50.00     6000.00
04043              -7.60     6200.00
04044              -8.40     6600.00
04045               3.60     6800.00
04046               9.20     7200.00
04047              10.40     7200.00
04048             -20.40     7600.00
04049              13.20     7600.00
04050              13.20     8000.00
04051             -11.60     8400.00
04052               4.40     8600.00
04053              16.80     8800.00
04054               2.00     9000.00
04055             -15.60     9200.00
04056              17.20     9600.00
04057              12.80     9800.00
04058             -13.20    10000.00
04059               6.00    10200.00
04060              17.20    10400.00
04061               2.00    10800.00
04062              -6.80    10800.00
04063              14.80    11000.00
04064               6.80    11200.00
04065              -6.00    11600.00
04066              13.20    11800.00
04067              10.80    12000.00
04068              -0.40    12000.00
04069               5.60    12400.00
04070              12.80    12400.00
04071               4.00    12600.00
04072               2.00    12800.00
04073              11.60    13200.00
04074              10.40    13200.00
04075               3.60    13200.00
04076               8.40    13600.00
04077              12.40    13600.00
04078               6.00    14000.00
04079               6.80    14000.00
04080              13.20    14200.00
04081              10.40    14200.00
04082               7.20    14600.00
04083              13.20    14600.00
04084              13.20    14800.00
04085               7.20    14800.00
04086              12.40    15000.00
04087              15.20    15200.00
04088              10.80    15200.00
04089              12.40    15400.00
04090              17.20    15400.00
04091              14.00    15600.00
04092              12.80    15600.00
04093              17.20    16000.00
04094              16.40    15800.00
04095              15.20    16000.00
04096              18.40    16000.00
04097              19.60    16000.00
04098              18.40    16200.00
04099              19.60    16400.00
04100              21.20    16200.00
04101              22.00    16400.00
04102              21.20    16400.00
04103              24.40    16800.00
04104              26.00    16600.00
04105              24.40    16600.00
04106              26.00    16600.00
04107              28.40    16600.00
04108              28.00    16600.00
04109              28.40    16800.00
04110              31.60    16800.00
04111              31.20    16800.00
04112              31.20    16800.00
04113              32.80    16800.00
04114              33.20    16800.00
04115              32.80    16800.00
04116              33.60    16800.00
04117              33.20    16600.00
04118              32.40    16800.00
04119              30.80    16600.00
04120              29.60    16800.00
04121              28.40    16600.00
04122              26.40    16600.00
04123              26.00    16600.00
04124              24.00    16600.00
04125              23.20    16400.00
04126              23.20    16600.00
04127              20.40    16400.00
04128              21.20    16400.00
04129              19.60    16400.00
04130              19.60    16200.00
04131              18.40    16000.00
04132              17.20    16200.00
04133              18.00    16000.00
04134              16.40    16000.00
04135              16.40    16000.00
04136              16.00    15600.00
04137              14.00    15800.00
04138              15.20    15800.00
04139              13.20    15600.00
04140              13.20    15400.00
04141              13.60    15200.00
04142              12.00    15200.00
04143              12.00    15000.00
04144              12.00    14800.00
04145              11.60    14600.00
04146              10.80    14600.00
04147              10.80    14400.00
04148              10.40    14200.00
04149              10.00    14200.00
04150              10.00    13800.00
04151               9.20    13800.00
04152               8.40    13600.00
04153               8.80    13400.00
04154               8.40    13200.00
04155               8.00    13200.00
04156               7.60    13000.00
04157               8.40    12600.00
04158               7.20    12600.00
04159               6.80    12400.00
04160               7.20    12200.00
04161               6.80    12000.00
04162               6.00    11800.00
04163               6.80    11600.00
04164               6.40    11400.00
04165               5.20    11200.00
04166               5.20    11000.00
04167               5.60    10800.00
04168               5.20    10600.00
04169               4.40    10400.00
04170               5.60    10200.00
04171               5.20    10000.00
04172               3.60     9600.00
04173               4.40     9400.00
04174               4.00     9200.00
04175               3.60     9200.00
04176               3.60     8800.00
04177               3.60     8600.00
04178               3.60     8400.00
04179               2.80     8000.00
04180               2.40     7800.00
04181               2.80     7600.00
04182               3.60     7400.00
04183               2.40     7000.00
04184               2.40     6800.00
04185               2.80     6400.00
04186               2.00     6400.00
04187               1.20     6000.00
04188               2.80     5800.00
04189               2.00     5400.00
04190               1.20     5200.00
04191               2.40     5200.00
04192               2.00     4800.00
04193               1.20     4400.00
04194               0.80     4000.00
04195               0.80     3800.00
04196               1.20     3600.00
04197               1.20     3400.00
04198               0.80     3200.00
04199               1.20     2800.00
04200               0.40     2800.00
04201               0.40     2400.00
04202               0.80     2200.00
04203               0.80     1800.00
04204               0.40     1600.00
04205               0.40     1400.00
04206               0.40      800.00
04207               0.40      800.00
04208               0.00      400.00
04209              -0.40        0.00
04210               0.40        0.00
04211               0.00     -400.00
04212               1.20     -600.00
04213               1.60     -800.00
04214              -2.00    -1000.00
04215              -1.20    -1400.00
04216               0.80    -1600.00
04217              -0.80    -1800.00
04218              -0.80    -2000.00
04219              20.00    -2400.00
04220              19.60    -3000.00
04221             -48.80    -3400.00
04222             -20.40    -3400.00
04223              28.80    -3800.00
04224             -26.80    -3600.00
04225              37.20    -4200.00
04226               4.00    -4400.00
04227             -50.00    -4200.00
04228              50.00    -5200.00
04229              -4.40    -5000.00
04230             -50.00    -5200.00
04231              50.00    -6000.00
04232             -10.80    -5600.00
04233             -50.00    -6200.00
04234              39.20    -6600.00
04235             -15.60    -6400.00
04236              16.80    -7200.00
04237             -31.20    -7200.00
04238              -3.60    -7600.00
04239              31.20    -8000.00
04240             -44.80    -7600.00
04241              10.00    -8400.00
04242               8.00    -8400.00
04243              -1.60    -8800.00
04244             -20.80    -9000.00
04245              -8.80    -9000.00
04246              28.40    -9600.00
04247             -38.00    -9600.00
04248               0.00   -10000.00
04249              10.00   -10000.00
04250              -9.20   -10400.00
04251             -11.60   -10800.00
04252              -7.60   -10600.00
04253              13.60   -11000.00
04254             -28.40   -11200.00
04255              -1.20   -11400.00
04256               6.40   -11600.00
04257             -16.40   -12000.00
04258              -7.60   -12000.00
04259              -2.00   -12200.00
04260              -6.00   -12400.00
04261             -15.20   -12400.00
04262              -4.40   -12800.00
04263              -5.20   -13000.00
04264              -9.20   -13000.00
04265             -11.60   -13400.00
04266              -2.80   -13400.00
04267             -10.00   -13600.00
04268             -13.60   -13800.00
04269              -6.00   -14000.00
04270             -10.00   -14000.00
04271             -13.20   -14400.00
04272              -9.60   -14400.00
04273              -6.00   -14400.00
04274             -15.60   -14600.00
04275             -12.40   -14800.00
04276              -8.40   -15000.00
04277             -14.80   -15000.00
04278             -15.60   -15200.00
04279             -10.00   -15200.00
04280             -12.40   -15400.00
04281             -18.40   -15400.00
04282             -12.40   -15600.00
04283             -14.00   -15600.00
04284             -19.20   -16000.00
04285             -16.80   -16000.00
04286             -15.20   -16000.00
04287             -18.40   -16200.00
04288             -20.40   -16200.00
04289             -18.80   -16400.00
04290             -19.60   -16400.00
04291             -23.60   -16400.00
04292             -22.00   -16400.00
04293             -21.20   -16400.00
04294             -24.80   -16400.00
04295             -26.80   -16600.00
04296             -25.20   -16600.00
04297             -26.80   -16800.00
04298             -29.60   -16800.00
04299             -29.20   -16600.00
04300             -28.40   -16800.00
04301             -31.60   -16800.00
04302             -33.20   -16800.00
04303             -32.40   -16800.00
04304             -34.00   -16800.00
04305             -34.40   -16800.00
04306             -34.00   -16800.00
04307             -32.40   -16800.00
04308             -34.40   -16800.00
04309             -32.80   -16800.00
04310             -31.20   -16800.00
04311             -30.80   -16800.00
04312             -29.20   -16800.00
04313             -26.40   -16400.00
04314             -26.40   -16600.00
04315             -24.80   -16400.00
04316             -23.20   -16600.00
04317             -24.00   -16400.00
04318             -21.60   -16400.00
04319             -21.20   -16400.00
04320             -20.40   -16200.00
04321             -18.80   -16200.00
04322             -18.80   -16200.00
04323             -18.40   -16200.00
04324             -18.40   -16000.00
04325             -16.40   -16000.00
04326             -15.60   -15600.00
04327             -17.20   -15600.00
04328             -15.20   -15600.00
04329             -13.60   -15600.00
04330             -15.60   -15400.00
04331             -14.00   -15200.00
04332             -12.00   -15200.00
04333             -13.60   -14800.00
04334             -13.20   -14800.00
04335             -11.20   -14600.00
04336             -12.00   -14800.00
04337             -12.40   -14400.00
04338             -10.80   -14400.00
04339             -10.00   -14000.00
04340             -10.80   -14000.00
04341              -8.80   -13800.00
04342             -10.00   -13600.00
04343             -10.00   -13600.00
04344              -8.40   -13200.00
04345              -9.20   -13000.00
04346              -8.80   -13200.00
04347              -6.80   -12800.00
04348              -8.80   -12800.00
04349              -8.40   -12600.00
04350              -7.20   -12400.00
04351              -7.20   -12200.00
04352              -7.20   -12000.00
04353              -6.00   -11600.00
04354              -6.00   -11600.00
04355              -7.20   -11000.00
04356              -6.80   -11200.00
04357              -5.20   -10800.00
04358              -6.00   -10800.00
04359              -5.60   -10400.00
04360              -4.40   -10200.00
04361              -4.80   -10000.00
04362              -5.60    -9800.00
04363              -5.60    -9600.00
04364              -4.40    -9400.00
04365              -4.80    -9200.00
04366              -5.20    -8800.00
04367              -4.00    -8800.00
04368              -3.60    -8400.00
04369              -5.20    -8200.00
04370              -4.40    -8000.00
04371              -2.80    -7600.00
04372              -4.00    -7400.00
04373              -3.60    -7200.00
04374              -2.80    -7000.00
04375              -3.60    -6800.00
04376              -4.00    -6400.00
04377              -2.80    -6200.00
04378              -2.80    -6000.00
04379              -3.60    -5600.00
04380              -2.40    -5400.00
04381              -2.40    -5200.00
04382              -2.80    -4800.00
04383              -2.40    -4600.00
04384              -2.40    -4400.00
04385              -2.40    -4200.00
04386              -1.20    -3800.00
04387              -2.00    -3600.00
04388              -2.00    -3400.00
04389              -1.60    -3200.00
04390              -2.00    -2800.00
04391              -2.00    -2400.00
04392              -1.20    -2400.00
04393              -1.20    -2000.00
04394              -1.20    -1800.00
04395              -0.80    -1400.00
04396              -1.20    -1200.00
04397              -1.60     -800.00
04398              -0.40     -600.00
04399              -0.40     -400.00
04400              -0.80     -200.00
04401              -0.40      200.00
04402               0.80      400.00
04403               2.40      600.00
04404              -0.80      800.00
04405              -0.80     1200.00
04406               1.60     1400.00
04407               1.20     1800.00
04408               0.40     2000.00
04409               2.40     2200.00
04410              13.60     2800.00
04411              20.40     3000.00
04412             -29.20     3200.00
04413             -28.40     3600.00
04414              25.20     3800.00
04415              -1.20     3800.00
04416             -26.00     4200.00
04417              50.00     4600.00
04418             -20.40     4600.00
04419             -40.80     5400.00
04420              50.00     5400.00
04421             -25.20     5400.00
04422             -43.60     6000.00
04423              50.00     6000.00
04424              -4.00     6200.00
04425              -9.60     6400.00
04426               4.00     6800.00
04427               8.40     7200.00
04428              12.40     7400.00
04429             -20.40     7600.00
04430              11.20     7800.00
04431              14.80     8000.00
04432             -10.80     8400.00
04433               3.20     8400.00
04434              16.80     8800.00
04435               4.00     9000.00
04436             -15.60     9200.00
04437              15.60     9600.00
04438              14.80     9600.00
04439             -12.80    10000.00
04440               5.20    10200.00
04441              18.00    10400.00
04442               2.80    10600.00
04443              -7.20    10800.00
04444              14.00    11000.00
04445               8.40    11200.00
04446              -6.00    11600.00
04447              11.60    11800.00
04448              11.60    11800.00
04449               0.40    12000.00
04450               5.20    12400.00
04451              13.20    12600.00
04452               4.40    12600.00
04453               2.00    12800.00
04454              10.80    13000.00
04455              10.80    13200.00
04456               3.60    13200.00
04457               7.60    13600.00
04458              12.80    13600.00
04459               6.80    14000.00
04460               6.80    14000.00
04461              12.40    14200.00
04462              10.40    14400.00
04463               6.80    14600.00
04464              13.20    14800.00
04465              13.60    14800.00
04466               7.20    14800.00
04467              11.60    14800.00
04468              15.20    15200.00
04469              11.20    15200.00
04470              12.00    15400.00
04471              16.80    15600.00
04472              14.80    15600.00
04473              12.40    15800.00
04474              16.80    15800.00
04475              16.80    16000.00
04476              16.00    16000.00
04477              18.00    16000.00
04478              18.80    16200.00
04479              19.60    16400.00
04480              19.20    16400.00
04481              20.40    16400.00
04482              23.20    16400.00
04483              21.20    16600.00
04484              23.20    16600.00
04485              26.40    16600.00
04486              24.80    16600.00
04487              25.20    16800.00
04488              29.20    16800.00
04489              28.40    16800.00
04490              28.00    16800.00
04491              32.40    16800.00
04492              31.60    16800.00
04493              30.00    16800.00
04494              33.60    16800.00
04495              34.00    16800.00
04496              32.40    16800.00
04497              34.80    16600.00
04498              34.40    16800.00
04499              31.20    16600.00
04500              31.20    16800.00
04501              30.00    16800.00
04502              27.20    16600.00
04503              27.60    16600.00
04504              26.40    16600.00
04505              24.00    16800.00
04506              23.60    16600.00
04507              22.80    16600.00
04508              20.40    16400.00
04509              21.20    16400.00
04510              20.40    16400.00
04511              18.00    16200.00
04512              18.80    16200.00
04513              18.40    16000.00
04514              16.80    16000.00
04515              16.80    16000.00
04516              15.60    15800.00
04517              15.60    15800.00
04518              15.20    15600.00
04519              13.60    15600.00
04520              14.00    15600.00
04521              13.60    15400.00
04522              11.60    15200.00
04523              13.20    15000.00
04524              13.60    15000.00
04525              10.40    14800.00
04526              11.60    14600.00
04527              12.00    14600.00
04528              10.00    14400.00
04529              10.00    14400.00
04530              10.40    14200.00
04531               9.60    13800.00
04532               8.40    13800.00
04533               9.60    13600.00
04534               9.20    13600.00
04535               7.20    13400.00
04536               8.00    13200.00
04537               8.40    13200.00
04538               6.80    12800.00
04539               6.80    12800.00
04540               8.40    12600.00
04541               6.80    12200.00
04542               6.80    12200.00
04543               7.20    11800.00
04544               6.00    11600.00
04545               5.60    11600.00
04546               8.40    11200.00
04547               2.40    11200.00
04548               4.40    10800.00
04549              11.60    10600.00
04550              -9.60    10400.00
04551              15.20    10000.00
04552               2.00    10200.00
04553               6.80     9800.00
04554              10.40     9600.00
04555               1.20     9400.00
04556               2.40     9200.00
04557               3.60     8800.00
04558               2.80     8600.00
04559              -3.60     8400.00
04560               4.40     8000.00
04561               9.20     8000.00
04562               3.60     7800.00
04563               2.40     7400.00
04564               8.40     7000.00
04565              -0.80     6800.00
04566              -2.40     6600.00
04567               1.20     6400.00
04568              -1.60     6000.00
04569               4.80     6000.00
04570               5.20     5600.00
04571               0.40     5400.00
04572               5.20     5200.00
04573               4.40     4800.00
04574              -3.60     4400.00
04575               0.00     4200.00
04576               0.80     4000.00
04577               0.80     3800.00
04578              -1.20     3400.00
04579               2.00     3200.00
04580               3.60     3000.00
04581              -0.80     2800.00
04582               1.20     2400.00
04583               1.60     2200.00
04584              -1.20     1800.00
04585              -1.20     1600.00
04586               2.00     1400.00
04587              -2.00     1000.00
04588              -0.80      800.00
04589               1.60      400.00
04590              -0.40      400.00
04591               0.40        0.00
04592               2.00     -400.00
04593               0.80     -600.00
04594              -0.40     -800.00
04595               0.40    -1000.00
04596              -3.60    -1400.00
04597              -0.40    -1600.00
04598               0.40    -1800.00
04599              -1.20    -2000.00
04600              18.00    -2400.00
04601              23.20    -2800.00
04602             -46.80    -3200.00
04603             -24.80    -3600.00
04604              29.20    -3600.00
04605             -26.40    -3600.00
04606              32.40    -4000.00
04607              12.00    -4400.00
04608             -50.00    -4200.00
04609              50.00    -5000.00
04610               9.60    -5200.00
04611             -50.00    -5200.00
04612              50.00    -6000.00
04613              -1.20    -5800.00
04614             -50.00    -6200.00
04615              39.60    -6400.00
04616             -14.80    -6600.00
04617              16.40    -7200.00
04618             -26.80    -7200.00
04619              -7.20    -7400.00
04620              34.40    -7800.00
04621             -43.60    -7600.00
04622               6.80    -8400.00
04623               8.80    -8400.00
04624              -1.20    -8800.00
04625             -19.60    -9000.00
04626             -12.00    -9200.00
04627              30.80    -9600.00
04628             -36.40    -9600.00
04629              -2.80   -10000.00
04630              11.20   -10000.00
04631              -9.20   -10400.00
04632             -10.40   -10600.00
04633             -10.00   -10800.00
04634              14.80   -11200.00
04635             -28.00   -11000.00
04636              -4.00   -11400.00
04637               8.40   -11600.00
04638             -16.40   -11800.00
04639              -7.60   -12000.00
04640              -1.20   -12000.00
04641              -5.20   -12400.00
04642             -16.40   -12400.00
04643              -5.20   -12800.00
04644              -5.20   -13000.00
04645             -10.00   -13000.00
04646             -10.80   -13200.00
04647              -4.00   -13400.00
04648              -9.20   -13600.00
04649             -12.80   -13800.00
04650              -6.80   -14000.00
04651             -10.40   -14200.00
04652             -12.00   -14200.00
04653             -11.20   -14400.00
04654              -6.80   -14400.00
04655             -14.00   -14600.00
04656             -12.40   -14800.00
04657              -9.20   -15000.00
04658             -14.40   -14800.00
04659             -15.20   -15200.00
04660             -10.80   -15400.00
04661             -12.80   -15400.00
04662             -18.40   -15400.00
04663             -12.80   -15600.00
04664             -14.80   -15600.00
04665             -18.80   -15800.00
04666             -15.60   -16000.00
04667             -15.60   -16000.00
04668             -18.40   -16200.00
04669             -20.40   -16200.00
04670             -18.80   -16400.00
04671             -20.40   -16400.00
04672             -23.20   -16400.00
04673             -21.60   -16400.00
04674             -21.20   -16400.00
04675             -24.80   -16400.00
04676             -26.00   -16600.00
04677             -25.20   -16800.00
04678             -27.60   -16800.00
04679             -30.00   -16400.00
04680             -28.80   -16800.00
04681             -28.40   -16800.00
04682             -31.60   -16800.00
04683             -31.60   -16800.00
04684             -32.40   -16800.00
04685             -34.00   -16800.00
04686             -34.00   -16600.00
04687             -33.60   -16800.00
04688             -34.00   -16800.00
04689             -34.00   -16800.00
04690             -32.80   -16800.00
04691             -31.60   -16800.00
04692             -30.00   -16800.00
04693             -28.00   -16800.00
04694             -27.60   -16600.00
04695             -26.00   -16800.00
04696             -24.40   -16600.00
04697             -24.80   -16600.00
04698             -23.20   -16400.00
04699             -21.20   -16400.00
04700             -21.60   -16400.00
04701             -20.40   -16200.00
04702             -19.20   -16400.00
04703             -18.80   -16200.00
04704             -18.40   -16000.00
04705             -18.00   -16000.00
04706             -16.80   -16000.00
04707             -16.40   -15600.00
04708             -16.40   -15600.00
04709             -15.60   -15600.00
04710             -14.40   -15400.00
04711             -14.80   -15400.00
04712             -14.40   -15200.00
04713             -13.20   -15200.00
04714             -13.20   -15200.00
04715             -13.20   -14800.00
04716             -12.40   -14800.00
04717             -12.00   -14600.00
04718             -12.00   -14400.00
04719             -11.60   -14400.00
04720             -10.40   -14000.00
04721             -10.00   -14000.00
04722             -10.40   -13800.00
04723             -10.00   -13600.00
04724              -9.20   -13600.00
04725              -9.20   -13400.00
04726              -8.80   -13200.00
04727              -8.40   -13200.00
04728              -7.60   -13000.00
04729              -8.00   -12800.00
04730              -7.60   -12600.00
04731              -7.60   -12200.00
04732              -7.60   -12000.00
04733              -7.20   -12200.00
04734              -6.80   -11600.00
04735              -6.40   -11400.00
04736              -6.80   -11200.00
04737              -6.80   -11000.00
04738              -5.60   -10800.00
04739              -5.60   -10600.00
04740              -5.60   -10400.00
04741              -5.20   -10200.00
04742              -4.40   -10000.00
04743              -5.60    -9800.00
04744              -5.60    -9600.00
04745              -4.40    -9400.00
04746              -5.20    -9200.00
04747              -4.40    -8800.00
04748              -4.00    -8800.00
04749              -4.40    -8400.00
04750              -4.00    -8200.00
04751              -3.60    -8000.00
04752              -4.00    -7600.00
04753              -4.00    -7400.00
04754              -2.80    -7200.00
04755              -4.00    -6800.00
04756              -2.80    -6800.00
04757              -3.60    -6400.00
04758              -3.60    -6400.00
04759              -2.80    -6000.00
04760              -2.40    -5600.00
04761              -2.80    -5400.00
04762              -2.40    -5200.00
04763              -2.00    -5000.00
04764              -2.80    -4600.00
04765              -2.40    -4400.00
04766              -2.00    -4200.00
04767              -2.00    -3800.00
04768              -2.80    -3600.00
04769              -2.00    -3400.00
04770              -1.20    -3200.00
04771              -2.00    -2800.00
04772              -2.40    -2600.00
04773              -1.20    -2400.00
04774              -1.20    -2000.00
04775              -1.20    -1600.00
04776              -1.20    -1600.00
04777              -0.80    -1200.00
04778              -1.20     -800.00
04779              -1.20     -600.00
04780               0.40     -400.00
04781              -0.80        0.00
04782              -0.80        0.00
04783               0.80      400.00
04784               2.80      600.00
04785              -0.80     1000.00
04786              -1.20     1200.00
04787               2.00     1400.00
04788               1.20     1800.00
04789              -0.40     2000.00
04790               2.00     2200.00
04791              13.60     2800.00
04792              21.20     3000.00
04793             -26.40     3200.00
04794             -30.00     3600.00
04795              23.20     3800.00
04796               0.80     3800.00
04797             -28.00     4200.00
04798              50.00     4400.00
04799             -14.40     4600.00
04800             -46.00     5200.00
04801              50.00     5200.00
04802             -18.00     5600.00
04803             -48.80     5800.00
04804              50.00     5800.00
04805              -1.20     6200.00
04806             -11.60     6600.00
04807               5.20     6800.00
04808               6.80     7200.00
04809              13.60     7400.00
04810             -19.60     7600.00
04811               9.60     7800.00
04812              15.60     8200.00
04813             -10.80     8400.00
04814               2.40     8600.00
04815              16.40     9000.00
04816               5.20     9000.00
04817             -16.00     9200.00
04818              14.00     9400.00
04819              15.60     9800.00
04820             -12.40    10000.00
04821               4.00    10200.00
04822              17.60    10400.00
04823               4.00    10600.00
04824              -7.60    10800.00
04825              12.40    11000.00
04826              10.00    11200.00
04827              -6.80    11600.00
04828              11.20    11800.00
04829              12.00    12000.00
04830               0.40    12000.00
04831               4.40    12200.00
04832              12.40    12400.00
04833               5.20    12600.00
04834               1.20    12800.00
04835              10.40    13000.00
04836              11.60    13200.00
04837               4.00    13400.00
04838               7.20    13600.00
04839              13.20    13600.00
04840               6.80    14000.00
04841               6.00    13800.00
04842              12.00    14200.00
04843              10.40    14400.00
04844               6.80    14600.00
04845              12.40    14800.00
04846              13.60    14800.00
04847               7.60    14800.00
04848              11.60    15000.00
04849              15.20    15000.00
04850              10.80    15200.00
04851              11.60    15200.00
04852              17.20    15400.00
04853              14.80    15600.00
04854              12.00    15800.00
04855              17.20    15800.00
04856              16.80    16000.00
04857              14.80    15800.00
04858              18.00    16200.00
04859              20.00    16000.00
04860              18.40    16200.00
04861              18.80    16400.00
04862              21.60    16400.00
04863              21.60    16400.00
04864              21.20    16600.00
04865              24.40    16600.00
04866              26.00    16600.00
04867              24.40    16600.00
04868              26.40    16600.00
04869              28.40    16600.00
04870              28.00    16800.00
04871              29.20    16800.00
04872              31.20    16800.00
04873              31.60    16800.00
04874              30.80    16800.00
04875              33.20    16800.00
04876              34.00    17000.00
04877              32.80    16800.00
04878              34.00    16800.00
04879              34.40    16800.00
04880              32.40    16800.00
04881              31.20    16800.00
04882              30.80    16800.00
04883              28.40    16600.00
04884              26.40    16600.00
04885              26.40    16600.00
04886              24.80    16600.00
04887              23.20    16600.00
04888              22.80    16400.00
04889              21.20    16400.00
04890              20.80    16400.00
04891              20.00    16400.00
04892              18.80    16400.00
04893              18.40    16200.00
04894              18.00    16000.00
04895              17.20    16000.00
04896              17.20    16000.00
04897              15.60    16000.00
04898              15.60    15800.00
04899              15.60    15600.00
04900              13.20    15600.00
04901              14.00    15400.00
04902              14.80    15400.00
04903              11.60    15200.00
04904              11.60    15000.00
04905              13.20    14800.00
04906              11.60    14800.00
04907              10.40    14800.00
04908              11.60    14600.00
04909              10.80    14400.00
04910               9.20    14200.00
04911              10.40    14000.00
04912              10.00    14000.00
04913               8.40    13600.00
04914               8.80    13600.00
04915               8.80    13600.00
04916               8.40    13200.00
04917               8.00    13200.00
04918               8.40    13000.00
04919               7.60    12800.00
04920               6.80    12600.00
04921               6.80    12400.00
04922               6.80    12200.00
04923               6.00    12000.00
04924               6.40    11800.00
04925               6.00    11600.00
04926               5.60    11400.00
04927               5.60    11200.00
04928               6.00    11000.00
04929               5.20    10800.00
04930               5.60    10600.00
04931               5.20    10400.00
04932               3.60    10200.00
04933               4.80    10000.00
04934               5.60    10000.00
04935               2.40     9600.00
04936               4.80     9400.00
04937               5.20     9200.00
04938               2.00     8800.00
04939               4.40     8600.00
04940               3.60     8400.00
04941               2.80     8000.00
04942               3.20     8000.00
04943               4.40     7600.00
04944               2.00     7200.00
04945               3.20     7000.00
04946               3.60     7000.00
04947               0.80     6600.00
04948               3.20     6400.00
04949               2.80     6200.00
04950               0.40     6000.00
04951               3.60     5600.00
04952               1.20     5400.00
04953               1.60     4800.00
04954               2.40     4800.00
04955               1.20     4600.00
04956               0.80     4200.00
04957               0.40     4000.00
04958               2.00     3800.00
04959               0.80     3200.00
04960               0.40     3200.00
04961               0.80     3000.00
04962               2.00     2800.00
04963              -0.40     2400.00
04964              -0.80     2200.00
04965               2.40     1800.00
04966              -0.40     1600.00
04967              -1.20     1400.00
04968               2.40     1000.00
04969               0.40      600.00
04970              -2.40      600.00
04971               1.20      200.00
04972               0.40     -200.00
04973              -2.00     -400.00
04974               2.00     -600.00
04975               2.80     -800.00
04976              -3.60    -1000.00
04977              -1.60    -1200.00
04978               1.20    -1600.00
04979              -1.20    -2000.00
04980              -2.00    -2000.00
04981              16.80    -2400.00
04982              24.40    -3000.00
04983             -46.00    -3200.00
04984             -28.00    -3600.00
04985              29.60    -3600.00
04986             -23.60    -3600.00
04987              29.20    -4000.00
04988              20.00    -4400.00
04989             -50.00    -4200.00
04990              50.00    -4800.00
04991              21.60    -5200.00
04992             -50.00    -5200.00
04993              50.00    -5800.00
04994               8.40    -5600.00
04995             -50.00    -6200.00
04996              40.40    -6400.00
04997             -13.60    -6400.00
04998              13.20    -7200.00
04999             -24.40    -7000.00
05000             -12.00    -7600.00
