Unit:(mV)
                     CH1         CH2
Frequency              ? 262.033 kHz
00001               0.60     1200.00
00002               0.40     1000.00
00003               0.60      800.00
00004               0.60      800.00
00005               0.20      600.00
00006               0.20      600.00
00007               0.40      400.00
00008               0.40      400.00
00009              -0.40      200.00
00010              -0.40        0.00
00011               0.20        0.00
00012               0.00        0.00
00013              -0.20     -200.00
00014              -0.20     -200.00
00015               0.40     -400.00
00016              -0.60     -400.00
00017              -1.20     -600.00
00018              -0.40     -800.00
00019              -0.40     -800.00
00020               1.00    -1000.00
00021              17.40    -1000.00
00022              -2.80    -1200.00
00023             -25.00    -1400.00
00024               1.40    -1000.00
00025              25.00    -1400.00
00026              -4.20    -2000.00
00027             -25.00    -1600.00
00028              25.00    -1600.00
00029              25.00    -1800.00
00030             -25.00    -2400.00
00031             -25.00    -1800.00
00032              25.00    -2400.00
00033              25.00    -2600.00
00034             -25.00    -2400.00
00035             -25.00    -2400.00
00036              25.00    -2800.00
00037               1.00    -2800.00
00038             -25.00    -2600.00
00039              25.00    -3200.00
00040              25.00    -3000.00
00041             -25.00    -2800.00
00042              25.00    -3200.00
00043              25.00    -3400.00
00044             -25.00    -3200.00
00045             -10.00    -3600.00
00046              25.00    -3600.00
00047             -21.00    -3400.00
00048             -25.00    -3800.00
00049               8.40    -4000.00
00050              25.00    -3800.00
00051             -19.60    -4000.00
00052             -25.00    -4000.00
00053              25.00    -4200.00
00054              25.00    -4400.00
00055             -25.00    -4400.00
00056               5.80    -4400.00
00057              25.00    -4600.00
00058             -25.00    -4400.00
00059             -25.00    -4800.00
00060              25.00    -4800.00
00061             -16.00    -4600.00
00062             -25.00    -5200.00
00063              21.80    -5000.00
00064              12.60    -5000.00
00065             -25.00    -5200.00
00066              -4.60    -5400.00
00067              22.80    -5200.00
00068             -25.00    -5400.00
00069             -18.00    -5600.00
00070              20.20    -5600.00
00071             -18.00    -5600.00
00072             -23.00    -5600.00
00073              13.80    -5600.00
00074              -8.20    -5600.00
00075             -25.00    -5800.00
00076               2.60    -6000.00
00077               1.00    -6000.00
00078             -22.80    -6000.00
00079             -10.20    -6000.00
00080               7.00    -6000.00
00081             -15.60    -6000.00
00082             -21.40    -6400.00
00083               5.20    -6000.00
00084              -6.00    -6200.00
00085             -25.00    -6400.00
00086              -3.80    -6200.00
00087               2.60    -6400.00
00088             -21.40    -6400.00
00089             -15.40    -6400.00
00090               2.60    -6600.00
00091             -12.60    -6600.00
00092             -22.00    -6400.00
00093              -3.80    -6400.00
00094              -4.40    -6600.00
00095             -20.20    -6600.00
00096             -13.20    -6600.00
00097              -3.00    -6600.00
00098             -14.20    -6600.00
00099             -18.80    -6600.00
00100              -7.40    -6600.00
00101              -7.80    -6600.00
00102             -18.60    -6600.00
00103             -13.40    -6800.00
00104              -6.80    -6800.00
00105             -14.00    -6600.00
00106             -17.20    -6800.00
00107              -9.60    -6600.00
00108             -10.00    -6600.00
00109             -16.60    -6600.00
00110             -14.20    -6600.00
00111              -9.40    -6600.00
00112             -13.40    -6600.00
00113             -15.60    -6600.00
00114             -11.00    -6800.00
00115             -10.80    -6800.00
00116             -14.00    -6600.00
00117             -13.40    -6400.00
00118             -10.60    -6600.00
00119             -10.80    -6400.00
00120             -13.20    -6600.00
00121             -11.40    -6600.00
00122              -9.40    -6400.00
00123             -11.20    -6400.00
00124             -12.40    -6400.00
00125              -9.80    -6400.00
00126              -8.60    -6400.00
00127             -11.60    -6400.00
00128             -10.60    -6200.00
00129              -7.60    -6200.00
00130              -9.40    -6400.00
00131             -11.60    -6200.00
00132              -8.40    -6200.00
00133              -7.20    -6000.00
00134              -9.80    -6000.00
00135              -9.40    -6000.00
00136              -7.00    -6000.00
00137              -7.60    -5800.00
00138              -9.40    -5800.00
00139              -7.80    -5800.00
00140              -5.80    -5800.00
00141              -8.20    -5800.00
00142              -8.60    -5600.00
00143              -6.00    -5600.00
00144              -6.20    -5600.00
00145              -8.40    -5400.00
00146              -6.20    -5200.00
00147              -5.00    -5200.00
00148              -7.40    -5200.00
00149              -7.00    -5200.00
00150              -4.80    -5000.00
00151              -5.80    -5000.00
00152              -7.40    -4800.00
00153              -4.80    -4600.00
00154              -4.40    -4600.00
00155              -6.00    -4600.00
00156              -6.20    -4600.00
00157              -4.20    -4600.00
00158              -5.20    -4400.00
00159              -5.60    -4200.00
00160              -4.60    -4400.00
00161              -4.40    -4200.00
00162              -5.00    -4200.00
00163              -4.40    -4200.00
00164              -4.20    -4000.00
00165              -3.80    -4000.00
00166              -4.40    -4000.00
00167              -4.00    -3600.00
00168              -3.60    -3600.00
00169              -3.60    -3600.00
00170              -4.20    -3400.00
00171              -3.80    -3400.00
00172              -2.80    -3200.00
00173              -3.00    -3200.00
00174              -3.80    -3000.00
00175              -2.60    -3000.00
00176              -2.80    -2800.00
00177              -4.00    -2800.00
00178              -2.80    -2600.00
00179              -2.00    -2600.00
00180              -2.80    -2400.00
00181              -3.00    -2400.00
00182              -2.00    -2400.00
00183              -2.00    -2200.00
00184              -2.80    -2000.00
00185              -2.60    -2000.00
00186              -1.40    -1800.00
00187              -2.00    -1800.00
00188              -2.80    -1600.00
00189              -1.60    -1600.00
00190              -1.40    -1400.00
00191              -2.20    -1400.00
00192              -1.40    -1200.00
00193              -1.00    -1000.00
00194              -1.20    -1000.00
00195              -1.20     -800.00
00196              -1.20     -800.00
00197              -1.20     -800.00
00198              -0.80     -600.00
00199              -1.00     -400.00
00200              -1.00     -200.00
00201              -0.20     -400.00
00202              -0.40     -200.00
00203              -0.40      200.00
00204               0.20        0.00
00205               0.40      200.00
00206               0.60      200.00
00207              -0.40      400.00
00208               0.20      400.00
00209               0.60      600.00
00210               0.40      800.00
00211               2.00      800.00
00212              11.00     1200.00
00213              10.00     1200.00
00214             -25.00     1200.00
00215             -25.00     1200.00
00216              25.00     1400.00
00217              25.00     1800.00
00218             -25.00     1600.00
00219             -25.00     1800.00
00220              25.00     2000.00
00221              25.00     2000.00
00222             -25.00     1800.00
00223              16.40     2200.00
00224              25.00     2400.00
00225             -25.00     2200.00
00226             -25.00     2600.00
00227              25.00     2400.00
00228              25.00     2600.00
00229             -25.00     3000.00
00230              25.00     2800.00
00231              25.00     3000.00
00232             -25.00     3000.00
00233             -25.00     3200.00
00234              25.00     3000.00
00235             -13.40     3200.00
00236             -25.00     3600.00
00237              25.00     3200.00
00238              25.00     3400.00
00239             -25.00     3800.00
00240             -15.00     3800.00
00241              25.00     3800.00
00242              11.40     4000.00
00243             -25.00     4000.00
00244              17.20     4000.00
00245              25.00     4200.00
00246             -25.00     4400.00
00247             -21.00     4400.00
00248              25.00     4400.00
00249               5.20     4600.00
00250             -25.00     4600.00
00251              25.00     4600.00
00252              25.00     4800.00
00253             -25.00     4800.00
00254               1.20     4800.00
00255              25.00     5200.00
00256             -11.60     5200.00
00257             -17.00     5200.00
00258              25.00     5200.00
00259               9.40     5200.00
00260             -19.40     5400.00
00261              19.60     5400.00
00262              20.80     5600.00
00263             -13.80     5600.00
00264               8.00     5600.00
00265              24.60     5600.00
00266              -3.60     5600.00
00267              -1.40     5800.00
00268              22.40     6000.00
00269               7.60     6000.00
00270              -5.40     6000.00
00271              16.60     6000.00
00272              16.20     6000.00
00273              -3.60     6000.00
00274               8.20     6200.00
00275              20.60     6200.00
00276               2.80     6200.00
00277               2.20     6400.00
00278              19.80     6400.00
00279              11.00     6400.00
00280               0.20     6400.00
00281              13.80     6400.00
00282              17.00     6400.00
00283               3.40     6400.00
00284               8.40     6400.00
00285              18.20     6400.00
00286              10.00     6400.00
00287               5.20     6400.00
00288              14.80     6600.00
00289              15.40     6400.00
00290               6.60     6600.00
00291              10.60     6400.00
00292              17.00     6600.00
00293              10.80     6600.00
00294               8.00     6600.00
00295              15.40     6800.00
00296              14.60     6600.00
00297               8.60     6600.00
00298              12.40     6600.00
00299              15.60     6600.00
00300              11.00     6800.00
00301              10.20     6600.00
00302              14.40     6600.00
00303              13.20     6600.00
00304              10.20     6600.00
00305              12.20     6400.00
00306              13.00     6400.00
00307              11.40     6400.00
00308              10.60     6600.00
00309              11.80     6400.00
00310              11.60     6400.00
00311              10.60     6400.00
00312              10.20     6400.00
00313              11.00     6400.00
00314              10.20     6400.00
00315               8.80     6400.00
00316               9.80     6400.00
00317              10.20     6200.00
00318               9.20     6200.00
00319               8.60     6200.00
00320               9.80     6200.00
00321               9.60     6000.00
00322               7.60     6000.00
00323               7.60     6000.00
00324               8.60     6000.00
00325               9.00     6000.00
00326               6.60     6000.00
00327               8.20     5800.00
00328               8.20     5800.00
00329               6.20     5600.00
00330               6.60     5600.00
00331               8.20     5600.00
00332               6.80     5600.00
00333               6.60     5600.00
00334               6.80     5600.00
00335               6.80     5400.00
00336               6.00     5400.00
00337               5.80     5200.00
00338               6.60     5000.00
00339               6.00     5200.00
00340               5.20     4800.00
00341               5.80     5000.00
00342               6.00     4600.00
00343               4.60     4800.00
00344               4.60     4800.00
00345               6.00     4600.00
00346               4.80     4400.00
00347               4.20     4400.00
00348               4.60     4400.00
00349               4.80     4400.00
00350               4.20     4200.00
00351               4.40     4200.00
00352               4.40     4000.00
00353               4.20     4000.00
00354               3.60     3800.00
00355               4.20     3800.00
00356               3.60     3800.00
00357               3.40     3600.00
00358               3.60     3600.00
00359               3.00     3600.00
00360               3.60     3400.00
00361               3.20     3400.00
00362               2.60     3200.00
00363               2.60     3200.00
00364               3.40     3000.00
00365               2.20     2800.00
00366               2.20     2800.00
00367               3.00     2800.00
00368               2.00     2400.00
00369               1.80     2600.00
00370               2.20     2400.00
00371               2.00     2200.00
00372               1.60     2200.00
00373               1.40     2000.00
00374               1.80     2000.00
00375               1.40     1800.00
00376               1.20     1800.00
00377               1.20     1800.00
00378               1.40     1600.00
00379               1.00     1400.00
00380               0.60     1200.00
00381               1.00     1400.00
00382               1.00     1200.00
00383               0.40     1000.00
00384               0.40      800.00
00385               0.60      800.00
00386               0.40      600.00
00387               0.00      600.00
00388               0.20      400.00
00389               0.40      400.00
00390              -0.20      400.00
00391              -0.60        0.00
00392              -0.60        0.00
00393               0.20        0.00
00394              -0.20     -200.00
00395              -0.60     -200.00
00396               0.40     -400.00
00397               0.60     -400.00
00398              -1.60     -400.00
00399              -1.00     -600.00
00400               0.20     -800.00
00401              -0.80     -800.00
00402               5.40    -1000.00
00403              18.60    -1200.00
00404             -24.60    -1600.00
00405             -25.00    -1200.00
00406              25.00    -1200.00
00407              25.00    -1600.00
00408             -25.00    -1800.00
00409             -25.00    -1400.00
00410              25.00    -1800.00
00411              25.00    -2000.00
00412             -25.00    -2400.00
00413             -25.00    -1800.00
00414              25.00    -2400.00
00415              25.00    -2600.00
00416             -25.00    -2000.00
00417              25.00    -2600.00
00418              25.00    -2800.00
00419             -25.00    -2600.00
00420             -25.00    -2800.00
00421              25.00    -3000.00
00422             -14.20    -3200.00
00423             -25.00    -3000.00
00424              25.00    -3400.00
00425              25.00    -3400.00
00426             -25.00    -3400.00
00427              25.00    -3600.00
00428              25.00    -3600.00
00429             -25.00    -3600.00
00430             -25.00    -3800.00
00431              25.00    -4000.00
00432              25.00    -3800.00
00433             -25.00    -4200.00
00434             -25.00    -4400.00
00435              25.00    -4200.00
00436             -16.20    -4200.00
00437             -25.00    -4400.00
00438              25.00    -4400.00
00439              23.60    -4400.00
00440             -25.00    -4600.00
00441              13.60    -4800.00
00442              25.00    -4600.00
00443             -25.00    -5000.00
00444             -21.20    -5000.00
00445              25.00    -5200.00
00446             -12.00    -5000.00
00447             -25.00    -5200.00
00448              16.20    -5200.00
00449               7.20    -5200.00
00450             -25.00    -5400.00
00451               2.60    -5600.00
00452              12.40    -5600.00
00453             -25.00    -5600.00
00454              -6.00    -5600.00
00455              12.20    -5800.00
00456             -21.80    -5600.00
00457             -15.80    -6000.00
00458               7.80    -6000.00
00459              -9.80    -5800.00
00460             -22.80    -6000.00
00461               0.40    -6000.00
00462               1.20    -6200.00
00463             -23.20    -6000.00
00464             -10.80    -6400.00
00465               5.80    -6400.00
00466             -17.20    -6200.00
00467             -19.80    -6400.00
00468               2.60    -6400.00
00469              -6.20    -6400.00
00470             -23.40    -6400.00
00471              -7.60    -6400.00
00472               0.60    -6600.00
00473             -19.00    -6400.00
00474             -16.80    -6600.00
00475              -0.20    -6400.00
00476             -10.00    -6400.00
00477             -21.20    -6600.00
00478              -8.20    -6600.00
00479              -4.60    -6600.00
00480             -18.00    -6600.00
00481             -15.80    -6600.00
00482              -4.60    -6600.00
00483             -11.60    -6800.00
00484             -19.40    -6800.00
00485              -9.80    -6600.00
00486              -7.80    -6600.00
00487             -17.20    -6800.00
00488             -14.20    -6600.00
00489              -8.20    -6600.00
00490             -12.40    -6600.00
00491             -17.00    -6800.00
00492             -11.40    -6800.00
00493              -9.60    -6800.00
00494             -15.60    -6600.00
00495             -14.00    -6800.00
00496              -9.60    -6600.00
00497             -12.20    -6600.00
00498             -14.60    -6600.00
00499             -11.80    -6600.00
00500             -10.20    -6600.00
00501             -11.80    -6600.00
00502             -12.60    -6600.00
00503             -10.80    -6400.00
00504              -9.40    -6600.00
00505             -11.80    -6400.00
00506             -11.80    -6600.00
00507              -8.60    -6400.00
00508              -9.80    -6400.00
00509             -11.80    -6400.00
00510              -9.00    -6400.00
00511              -8.20    -6000.00
00512             -11.60    -6400.00
00513              -9.40    -6200.00
00514              -7.40    -6200.00
00515              -9.20    -6000.00
00516              -9.80    -6000.00
00517              -7.60    -6000.00
00518              -7.80    -6000.00
00519              -9.80    -6000.00
00520              -7.80    -5800.00
00521              -6.00    -5800.00
00522              -8.20    -5800.00
00523              -8.60    -5600.00
00524              -6.20    -5600.00
00525              -7.40    -5600.00
00526              -7.80    -5400.00
00527              -6.00    -5400.00
00528              -6.20    -5600.00
00529              -7.40    -5200.00
00530              -6.60    -5200.00
00531              -5.00    -5200.00
00532              -6.00    -5000.00
00533              -7.00    -5000.00
00534              -5.80    -4600.00
00535              -4.40    -4800.00
00536              -6.00    -4600.00
00537              -6.80    -4600.00
00538              -3.80    -4400.00
00539              -3.40    -4400.00
00540              -7.60    -4400.00
00541              -4.60    -4400.00
00542              -2.80    -4400.00
00543              -5.20    -4000.00
00544              -6.00    -4000.00
00545              -3.40    -4000.00
00546              -3.60    -4000.00
00547              -5.00    -3800.00
00548              -4.60    -3600.00
00549              -3.40    -3600.00
00550              -3.00    -3600.00
00551              -4.00    -3400.00
00552              -4.00    -3200.00
00553              -2.80    -3200.00
00554              -2.80    -3200.00
00555              -3.80    -3200.00
00556              -3.60    -3200.00
00557              -2.00    -3000.00
00558              -2.80    -2800.00
00559              -3.80    -2800.00
00560              -2.20    -2400.00
00561              -1.60    -2400.00
00562              -3.60    -2600.00
00563              -3.00    -2200.00
00564              -1.20    -2400.00
00565              -1.80    -2000.00
00566              -3.20    -2000.00
00567              -2.00    -2000.00
00568              -1.20    -1800.00
00569              -2.20    -1800.00
00570              -2.40    -1600.00
00571              -1.00    -1600.00
00572              -1.40    -1400.00
00573              -2.20    -1000.00
00574              -1.40    -1200.00
00575              -0.60    -1000.00
00576              -1.40     -800.00
00577              -1.80     -800.00
00578              -1.00     -800.00
00579              -0.60     -600.00
00580              -1.20     -400.00
00581              -1.00     -400.00
00582              -0.20     -200.00
00583              -0.80     -200.00
00584              -0.20        0.00
00585               0.20     -200.00
00586              -0.60      200.00
00587               0.40      400.00
00588               1.00      400.00
00589              -0.60      400.00
00590              -0.20      800.00
00591               1.00      600.00
00592               0.40      800.00
00593               3.80      800.00
00594              15.00     1200.00
00595              -1.40     1200.00
00596             -25.00     1200.00
00597             -13.00     1400.00
00598              25.00     1400.00
00599              15.40     1800.00
00600             -25.00     1600.00
00601              10.80     2000.00
00602              25.00     2000.00
00603             -25.00     1800.00
00604             -25.00     2000.00
00605              25.00     2200.00
00606              25.00     2200.00
00607             -25.00     2400.00
00608              -8.60     2600.00
00609              25.00     2800.00
00610             -25.00     2400.00
00611             -25.00     3000.00
00612              25.00     2800.00
00613              25.00     2800.00
00614             -25.00     3200.00
00615              25.00     3200.00
00616              25.00     3200.00
00617             -25.00     3200.00
00618             -25.00     3600.00
00619              25.00     3400.00
00620               6.20     3600.00
00621             -25.00     3800.00
00622              22.20     3800.00
00623              25.00     4000.00
00624             -22.20     4000.00
00625             -25.00     4000.00
00626              25.00     4000.00
00627              25.00     4400.00
00628             -25.00     4400.00
00629              13.00     4400.00
00630              25.00     4600.00
00631             -25.00     4800.00
00632             -21.20     4600.00
00633              25.00     4800.00
00634               4.60     4800.00
00635             -25.00     4800.00
00636              25.00     5000.00
00637              25.00     5000.00
00638             -25.00     5200.00
00639               5.20     5200.00
00640              25.00     5200.00
00641             -10.80     5400.00
00642              -7.00     5400.00
00643              25.00     5400.00
00644               4.80     5600.00
00645             -11.20     5600.00
00646              19.80     5600.00
00647              15.80     5600.00
00648              -9.20     5800.00
00649              10.00     5800.00
00650              20.60     6000.00
00651              -1.20     6000.00
00652               1.20     6000.00
00653              21.00     6000.00
00654               8.00     6000.00
00655              -2.40     6000.00
00656              15.60     6200.00
00657              15.40     6200.00
00658              -0.40     6200.00
00659               8.60     6200.00
00660              19.60     6200.00
00661               5.20     6400.00
00662               3.40     6400.00
00663              18.00     6400.00
00664              12.20     6400.00
00665               2.00     6400.00
00666              13.20     6400.00
00667              17.00     6400.00
00668               6.00     6400.00
00669               8.40     6600.00
00670              17.00     6600.00
00671              11.60     6600.00
00672               6.20     6600.00
00673              14.40     6800.00
00674              15.40     6600.00
00675               8.40     6600.00
00676              10.40     6600.00
00677              16.60     6600.00
00678              12.20     6400.00
00679               8.60     6600.00
00680              14.60     6400.00
00681              15.00     6800.00
00682               9.80     6600.00
00683              11.40     6400.00
00684              14.80     6600.00
00685              12.40     6800.00
00686              10.40     6600.00
00687              12.60     6400.00
00688              13.80     6600.00
00689              10.60     6400.00
00690              10.60     6600.00
00691              12.80     6400.00
00692              11.40     6400.00
00693               9.40     6400.00
00694              10.60     6400.00
00695              11.60     6400.00
00696               9.80     6400.00
00697               9.20     6400.00
00698              10.00     6200.00
00699              10.20     6200.00
00700               9.00     6200.00
00701               8.20     6200.00
00702               9.80     6200.00
00703               9.80     6000.00
00704               7.40     6000.00
00705               8.60     6000.00
00706               9.20     6000.00
00707               6.80     6000.00
00708               6.80     6000.00
00709               9.00     5600.00
00710               7.60     5800.00
00711               5.80     5600.00
00712               7.60     5800.00
00713               7.80     5600.00
00714               6.00     5600.00
00715               5.40     5400.00
00716               7.00     5600.00
00717               7.40     5400.00
00718               5.80     5400.00
00719               3.60     5200.00
00720              10.00     5200.00
00721               2.60     5000.00
00722               2.20     5000.00
00723              10.60     4800.00
00724               3.80     4800.00
00725               7.40     4800.00
00726               6.20     4600.00
00727               4.40     4600.00
00728               0.80     4400.00
00729               6.20     4400.00
00730               3.00     4400.00
00731               2.60     4400.00
00732               7.60     4200.00
00733               6.80     4200.00
00734               2.20     4000.00
00735               5.40     3800.00
00736               4.80     3800.00
00737              -0.60     3800.00
00738               3.80     3600.00
00739               2.60     3600.00
00740               3.60     3600.00
00741               6.00     3600.00
00742               3.80     3400.00
00743               3.40     3400.00
00744               2.80     3200.00
00745               1.40     3000.00
00746               1.00     3000.00
00747               2.60     2800.00
00748               3.00     2800.00
00749               3.80     2800.00
00750               1.80     2600.00
00751               3.60     2400.00
00752               3.00     2400.00
00753              -0.20     2200.00
00754               2.00     2200.00
00755               2.60     2200.00
00756               0.60     2000.00
00757               1.20     2000.00
00758               2.60     1800.00
00759               1.20     1600.00
00760               1.80     1600.00
00761               1.00     1600.00
00762               0.20     1200.00
00763               1.00     1400.00
00764               1.00     1200.00
00765              -0.20     1000.00
00766               1.20      800.00
00767               1.20      800.00
00768              -0.40      600.00
00769              -0.20      800.00
00770               1.00      600.00
00771               0.40      400.00
00772              -0.60      400.00
00773              -0.60      200.00
00774              -0.20        0.00
00775              -0.20     -200.00
00776              -0.60     -200.00
00777               0.20     -200.00
00778               0.40     -400.00
00779              -0.60     -400.00
00780              -1.00     -400.00
00781              -1.00     -800.00
00782              -0.60     -600.00
00783              -0.40    -1000.00
00784              13.20    -1000.00
00785               8.20    -1400.00
00786             -25.00    -1600.00
00787             -25.00    -1000.00
00788              25.00    -1400.00
00789              25.00    -1600.00
00790             -25.00    -1800.00
00791             -18.00    -1400.00
00792              25.00    -2000.00
00793              -3.60    -2400.00
00794             -25.00    -1800.00
00795              25.00    -2200.00
00796              25.00    -2400.00
00797             -25.00    -2400.00
00798             -25.00    -2000.00
00799              25.00    -2600.00
00800              25.00    -2800.00
00801             -25.00    -2400.00
00802              25.00    -3000.00
00803              25.00    -3200.00
00804             -25.00    -2800.00
00805             -18.60    -3200.00
00806              25.00    -3400.00
00807             -25.00    -3400.00
00808             -25.00    -3400.00
00809              25.00    -3600.00
00810               9.20    -3600.00
00811             -25.00    -3800.00
00812              -8.40    -4000.00
00813              25.00    -4000.00
00814               5.60    -4000.00
00815             -25.00    -4000.00
00816              14.00    -4200.00
00817              25.00    -4200.00
00818             -25.00    -4400.00
00819             -25.00    -4400.00
00820              25.00    -4600.00
00821             -25.00    -4400.00
00822             -25.00    -4600.00
00823              25.00    -4800.00
00824               6.00    -4800.00
00825             -25.00    -5000.00
00826               7.60    -5000.00
00827              23.80    -5000.00
00828             -25.00    -5000.00
00829             -18.80    -5200.00
00830              25.00    -5200.00
00831             -16.20    -5400.00
00832             -25.00    -5600.00
00833              17.20    -5600.00
00834              -6.00    -5600.00
00835             -25.00    -5600.00
00836               8.40    -5800.00
00837               0.40    -5600.00
00838             -25.00    -5800.00
00839              -3.40    -5800.00
00840               5.00    -6000.00
00841             -19.60    -5800.00
00842             -15.80    -6000.00
00843               6.80    -6000.00
00844              -9.20    -6000.00
00845             -24.40    -6200.00
00846               0.40    -6200.00
00847              -0.40    -6200.00
00848             -24.60    -6200.00
00849             -10.20    -6400.00
00850               4.60    -6400.00
00851             -17.00    -6400.00
00852             -19.80    -6400.00
00853               0.20    -6400.00
00854              -7.40    -6400.00
00855             -22.60    -6600.00
00856              -8.60    -6400.00
00857              -1.20    -6400.00
00858             -17.40    -6600.00
00859             -16.40    -6800.00
00860              -4.20    -6600.00
00861             -10.40    -6600.00
00862             -19.80    -6600.00
00863             -10.20    -6600.00
00864              -5.60    -6800.00
00865             -16.40    -6600.00
00866             -16.40    -6600.00
00867              -7.00    -6600.00
00868             -11.60    -6600.00
00869             -17.80    -6600.00
00870             -11.60    -6600.00
00871              -8.60    -6800.00
00872             -15.00    -6800.00
00873             -15.60    -6600.00
00874              -9.80    -6800.00
00875             -11.60    -6600.00
00876             -15.60    -6800.00
00877             -12.40    -6400.00
00878             -10.00    -6800.00
00879             -13.00    -6600.00
00880             -14.20    -6800.00
00881             -10.80    -6600.00
00882             -10.20    -6600.00
00883             -13.00    -6600.00
00884             -12.40    -6600.00
00885              -9.00    -6600.00
00886             -10.60    -6400.00
00887             -12.60    -6400.00
00888             -10.00    -6400.00
00889              -8.40    -6400.00
00890             -11.40    -6400.00
00891             -11.00    -6400.00
00892              -8.20    -6200.00
00893              -8.80    -6400.00
00894             -11.20    -6200.00
00895              -9.00    -6000.00
00896              -7.00    -6000.00
00897              -9.40    -6000.00
00898             -10.20    -6000.00
00899              -7.40    -6000.00
00900              -7.60    -5800.00
00901              -9.80    -5800.00
00902              -8.20    -5800.00
00903              -6.20    -5800.00
00904              -8.00    -5800.00
00905              -8.60    -5600.00
00906              -6.20    -5600.00
00907              -6.20    -5600.00
00908              -8.20    -5400.00
00909              -7.60    -5200.00
00910              -5.20    -5200.00
00911              -6.80    -5200.00
00912              -8.20    -5200.00
00913              -5.40    -5000.00
00914              -5.20    -5000.00
00915              -7.40    -4600.00
00916              -6.20    -4600.00
00917              -4.40    -4800.00
00918              -6.00    -4600.00
00919              -6.60    -4800.00
00920              -4.20    -4400.00
00921              -4.20    -4600.00
00922              -6.60    -4400.00
00923              -5.00    -4200.00
00924              -3.80    -4200.00
00925              -5.00    -4200.00
00926              -5.20    -4000.00
00927              -3.80    -4000.00
00928              -3.80    -4000.00
00929              -4.40    -3800.00
00930              -4.20    -3600.00
00931              -3.80    -3600.00
00932              -3.40    -3600.00
00933              -4.20    -3400.00
00934              -3.80    -3400.00
00935              -2.80    -3200.00
00936              -3.00    -3200.00
00937              -4.20    -3000.00
00938              -2.40    -3000.00
00939              -2.60    -2600.00
00940              -3.80    -2800.00
00941              -3.00    -2600.00
00942              -2.20    -2600.00
00943              -2.60    -2400.00
00944              -3.00    -2400.00
00945              -2.20    -2400.00
00946              -2.00    -2000.00
00947              -2.40    -2200.00
00948              -2.60    -1800.00
00949              -1.40    -1800.00
00950              -1.80    -1600.00
00951              -2.20    -1600.00
00952              -1.80    -1600.00
00953              -1.00    -1400.00
00954              -1.60    -1200.00
00955              -1.40    -1200.00
00956              -1.20    -1200.00
00957              -1.20    -1000.00
00958              -1.20     -800.00
00959              -1.80     -800.00
00960              -1.00     -600.00
00961              -0.60     -600.00
00962              -1.20     -400.00
00963              -0.60     -400.00
00964              -0.20     -200.00
00965              -0.40        0.00
00966              -0.40        0.00
00967              -0.20        0.00
00968               0.20      400.00
00969               1.00      200.00
00970              -0.20      400.00
00971              -0.40      600.00
00972               0.80      600.00
00973               0.40      600.00
00974               1.00      800.00
00975               7.80     1000.00
00976              14.60     1200.00
00977             -16.40     1200.00
00978             -25.00     1000.00
00979              25.00     1400.00
00980              25.00     1600.00
00981             -25.00     1800.00
00982             -25.00     1800.00
00983              25.00     1800.00
00984              25.00     2000.00
00985             -25.00     1800.00
00986             -25.00     2200.00
00987              25.00     2200.00
00988              16.40     2200.00
00989             -25.00     2600.00
00990              25.00     2400.00
00991              25.00     2600.00
00992             -25.00     2600.00
00993              -4.40     2800.00
00994              25.00     3000.00
00995             -25.00     3000.00
00996             -25.00     3400.00
00997              25.00     3000.00
00998              25.00     3200.00
00999             -25.00     3600.00
01000              25.00     3200.00
01001              25.00     3400.00
01002             -25.00     3800.00
01003             -25.00     3800.00
01004              25.00     3800.00
01005              25.00     4000.00
01006             -25.00     3800.00
01007              -3.60     4000.00
01008              25.00     4200.00
01009              -7.80     4200.00
01010             -25.00     4400.00
01011              25.00     4400.00
01012              25.00     4600.00
01013             -25.00     4600.00
01014              11.80     4600.00
01015              25.00     4800.00
01016             -22.00     5000.00
01017             -17.20     4800.00
01018              25.00     5000.00
01019               6.80     5000.00
01020             -25.00     5200.00
01021              23.00     5200.00
01022              22.80     5200.00
01023             -18.00     5400.00
01024               7.40     5400.00
01025              25.00     5600.00
01026              -6.60     5600.00
01027               0.20     5600.00
01028              23.60     5600.00
01029               4.60     5600.00
01030              -5.60     5600.00
01031              17.20     6000.00
01032              13.40     6000.00
01033              -4.20     6000.00
01034              10.00     6000.00
01035              19.00     6000.00
01036               1.40     6200.00
01037               2.60     6200.00
01038              19.60     6200.00
01039               8.00     6200.00
01040              -0.60     6200.00
01041              16.20     6200.00
01042              15.60     6200.00
01043               0.60     6400.00
01044               9.20     6400.00
01045              19.00     6400.00
01046               6.00     6400.00
01047               5.00     6400.00
01048              17.20     6400.00
01049              13.00     6600.00
01050               4.60     6400.00
01051              12.20     6600.00
01052              16.40     6600.00
01053               7.80     6600.00
01054               8.20     6400.00
01055              16.40     6600.00
01056              13.00     6800.00
01057               7.80     6600.00
01058              13.20     6800.00
01059              14.80     6400.00
01060              10.20     6800.00
01061              11.00     6600.00
01062              14.80     6600.00
01063              13.00     6600.00
01064              10.60     6600.00
01065              12.60     6600.00
01066              13.40     6600.00
01067              11.60     6400.00
01068              11.20     6400.00
01069              12.80     6600.00
01070              13.00     6400.00
01071              10.60     6600.00
01072              10.80     6400.00
01073              11.80     6400.00
01074              11.20     6400.00
01075              10.00     6400.00
01076              10.80     6400.00
01077              11.40     6200.00
01078               9.80     6400.00
01079               9.00     6200.00
01080              10.60     6400.00
01081              10.00     6200.00
01082               8.00     6200.00
01083               8.40     6200.00
01084              10.00     6200.00
01085               9.00     6000.00
01086               8.00     6000.00
01087               8.40     6000.00
01088               9.00     6000.00
01089               6.80     6000.00
01090               6.80     5800.00
01091               8.40     5800.00
01092               8.00     5800.00
01093               5.80     5600.00
01094               7.40     5600.00
01095               7.40     5600.00
01096               6.00     5600.00
01097               6.20     5400.00
01098               7.00     5400.00
01099               6.00     5200.00
01100               5.20     5200.00
01101               6.20     5200.00
01102               6.60     5200.00
01103               4.80     5000.00
01104               4.60     4800.00
01105               6.40     4800.00
01106               5.20     4800.00
01107               4.20     4600.00
01108               5.40     4600.00
01109               5.60     4600.00
01110               3.60     4400.00
01111               4.20     4400.00
01112               4.60     4400.00
01113               4.20     4200.00
01114               3.60     4000.00
01115               4.60     4000.00
01116               4.40     4000.00
01117               3.00     4000.00
01118               3.60     3800.00
01119               4.40     3800.00
01120               2.60     3600.00
01121               2.60     3600.00
01122               4.60     3600.00
01123               3.20     3600.00
01124               1.80     3400.00
01125               3.40     3200.00
01126               3.60     3200.00
01127               2.00     3000.00
01128               2.00     3000.00
01129               3.60     3000.00
01130               2.60     2800.00
01131               1.40     2800.00
01132               2.40     2600.00
01133               2.80     2600.00
01134               1.80     2200.00
01135               1.80     2400.00
01136               2.60     2200.00
01137               1.40     2000.00
01138               1.80     2000.00
01139               2.00     1800.00
01140               0.80     1600.00
01141               1.40     1800.00
01142               1.20     1600.00
01143               1.40     1400.00
01144               1.40     1400.00
01145               0.20     1200.00
01146               1.20     1200.00
01147               1.80      800.00
01148              -0.40      800.00
01149              -0.60      800.00
01150               2.00      600.00
01151               0.40      400.00
01152              -1.20      400.00
01153               1.00      400.00
01154               0.60      200.00
01155              -1.80        0.00
01156              -0.60        0.00
01157               1.00        0.00
01158               0.20     -200.00
01159              -1.20     -200.00
01160               0.40     -400.00
01161               0.20     -400.00
01162              -1.40     -600.00
01163              -2.00     -800.00
01164               0.20     -800.00
01165               3.80    -1000.00
01166              17.60    -1200.00
01167             -11.60    -1600.00
01168             -25.00    -1400.00
01169              23.60    -1200.00
01170              25.00    -1400.00
01171             -24.20    -2000.00
01172             -25.00    -1600.00
01173              25.00    -1600.00
01174              25.00    -2000.00
01175             -25.00    -2400.00
01176             -25.00    -1800.00
01177              25.00    -2400.00
01178              25.00    -2600.00
01179             -25.00    -2200.00
01180              18.60    -2600.00
01181              25.00    -2800.00
01182             -25.00    -2800.00
01183             -25.00    -2600.00
01184              25.00    -3200.00
01185              25.00    -3200.00
01186             -25.00    -2800.00
01187              25.00    -3400.00
01188              25.00    -3400.00
01189             -25.00    -3400.00
01190              18.60    -3600.00
01191              25.00    -3600.00
01192             -25.00    -3600.00
01193             -25.00    -3800.00
01194              15.80    -4000.00
01195              25.00    -4000.00
01196             -25.00    -4200.00
01197             -25.00    -4200.00
01198              25.00    -4200.00
01199              21.20    -4200.00
01200             -25.00    -4400.00
01201              23.00    -4600.00
01202              25.00    -4400.00
01203             -25.00    -4600.00
01204             -13.60    -5000.00
01205              25.00    -4600.00
01206             -25.00    -4600.00
01207             -25.00    -5000.00
01208              25.00    -5000.00
01209               3.60    -5200.00
01210             -25.00    -5200.00
01211               4.20    -5200.00
01212              18.00    -5200.00
01213             -25.00    -5200.00
01214              -9.20    -5400.00
01215              18.20    -5600.00
01216             -24.60    -5600.00
01217             -15.80    -5800.00
01218              14.00    -5600.00
01219             -14.20    -5800.00
01220             -21.40    -5800.00
01221               5.60    -6000.00
01222              -3.60    -5800.00
01223             -23.40    -6000.00
01224              -6.00    -6000.00
01225               5.20    -6000.00
01226             -19.00    -6000.00
01227             -17.40    -6200.00
01228               5.80    -6400.00
01229             -10.20    -6400.00
01230             -23.80    -6400.00
01231              -1.80    -6400.00
01232              -0.20    -6600.00
01233             -22.80    -6400.00
01234             -13.80    -6400.00
01235               3.00    -6400.00
01236             -15.00    -6600.00
01237             -21.80    -6600.00
01238              -1.80    -6600.00
01239              -6.20    -6600.00
01240             -22.00    -6600.00
01241             -10.80    -6600.00
01242              -3.40    -6600.00
01243             -16.40    -6600.00
01244             -17.40    -6600.00
01245              -6.00    -6600.00
01246              -9.60    -6600.00
01247             -18.80    -6800.00
01248             -12.00    -6600.00
01249              -7.40    -6600.00
01250             -15.40    -6800.00
01251             -16.40    -6600.00
01252              -9.20    -6600.00
01253             -11.00    -6600.00
01254             -16.60    -6600.00
01255             -13.20    -6600.00
01256              -9.80    -6600.00
01257             -13.80    -6600.00
01258             -15.00    -6800.00
01259             -11.00    -6600.00
01260             -10.80    -6600.00
01261             -13.80    -6600.00
01262             -13.40    -6600.00
01263              -9.80    -6600.00
01264             -10.80    -6600.00
01265             -13.40    -6600.00
01266             -11.20    -6400.00
01267              -9.20    -6400.00
01268             -11.80    -6400.00
01269             -12.20    -6400.00
01270              -9.00    -6400.00
01271              -9.20    -6600.00
01272             -11.40    -6400.00
01273             -10.00    -6400.00
01274              -7.80    -6200.00
01275              -9.40    -6200.00
01276             -11.00    -6000.00
01277              -7.80    -6000.00
01278              -7.40    -6000.00
01279             -10.60    -6000.00
01280              -9.00    -6000.00
01281              -6.60    -5800.00
01282              -8.60    -6000.00
01283              -9.80    -5800.00
01284              -6.20    -5800.00
01285              -7.00    -5600.00
01286              -8.60    -5600.00
01287              -7.00    -5600.00
01288              -6.20    -5600.00
01289              -7.60    -5600.00
01290              -7.60    -5200.00
01291              -6.80    -5600.00
01292              -5.00    -5200.00
01293              -7.80    -5200.00
01294              -6.80    -5000.00
01295              -5.40    -5000.00
01296              -5.40    -5000.00
01297              -7.60    -5000.00
01298              -5.60    -4600.00
01299              -2.80    -4600.00
01300              -7.80    -4600.00
01301              -7.00    -4600.00
01302              -2.00    -4400.00
01303              -7.00    -4400.00
01304              -7.00    -4400.00
01305              -2.80    -4200.00
01306              -3.20    -4200.00
01307              -7.40    -4200.00
01308              -3.60    -4000.00
01309              -2.80    -4000.00
01310              -5.40    -3800.00
01311              -4.60    -3600.00
01312              -3.40    -3800.00
01313              -3.80    -3600.00
01314              -4.40    -3600.00
01315              -3.80    -3400.00
01316              -3.60    -3200.00
01317              -3.40    -3200.00
01318              -3.60    -3200.00
01319              -3.00    -3000.00
01320              -2.00    -2800.00
01321              -3.40    -2800.00
01322              -3.60    -2600.00
01323              -2.60    -2600.00
01324              -3.00    -2400.00
01325              -3.00    -2400.00
01326              -2.80    -2400.00
01327              -2.00    -2000.00
01328              -2.00    -2000.00
01329              -2.20    -2000.00
01330              -2.00    -1800.00
01331              -1.40    -1800.00
01332              -2.00    -1600.00
01333              -2.20    -1600.00
01334              -1.40    -1600.00
01335              -1.00    -1400.00
01336              -1.80    -1200.00
01337              -2.00    -1200.00
01338              -0.40    -1000.00
01339              -0.60     -800.00
01340              -1.80     -800.00
01341              -0.60     -800.00
01342              -0.40     -600.00
01343              -1.00     -400.00
01344              -0.60     -400.00
01345              -0.60     -400.00
01346              -1.20     -200.00
01347               0.00     -200.00
01348               0.20        0.00
01349              -0.60        0.00
01350               0.40        0.00
01351               1.20      400.00
01352              -0.60      400.00
01353              -0.20      400.00
01354               1.20      600.00
01355               0.60      800.00
01356               2.60      800.00
01357              13.00     1200.00
01358               5.80     1200.00
01359             -25.00     1200.00
01360             -25.00     1200.00
01361              25.00     1200.00
01362              25.00     1800.00
01363             -25.00     1400.00
01364             -25.00     2000.00
01365              25.00     1800.00
01366              25.00     2000.00
01367             -25.00     2000.00
01368              25.00     2200.00
01369              25.00     2400.00
01370             -25.00     2200.00
01371             -25.00     2600.00
01372              25.00     2600.00
01373              21.40     2400.00
01374             -25.00     3000.00
01375              25.00     2800.00
01376              25.00     3000.00
01377             -25.00     3200.00
01378               7.60     3000.00
01379              25.00     3200.00
01380             -25.00     3200.00
01381             -25.00     3600.00
01382              25.00     3200.00
01383              25.00     3600.00
01384             -25.00     3800.00
01385              -1.00     3800.00
01386              25.00     3800.00
01387              -0.20     4000.00
01388             -25.00     4000.00
01389              25.00     4000.00
01390              25.00     4200.00
01391             -25.00     4400.00
01392              -9.20     4400.00
01393              25.00     4400.00
01394              -6.20     4600.00
01395             -25.00     4600.00
01396              25.00     4600.00
01397              23.00     4800.00
01398             -25.00     4800.00
01399              12.60     4800.00
01400              25.00     5000.00
01401             -18.20     5200.00
01402              -8.60     5200.00
01403              25.00     5200.00
01404               1.00     5400.00
01405             -14.60     5400.00
01406              23.80     5400.00
01407              14.00     5600.00
01408             -12.60     5600.00
01409              13.20     5600.00
01410              21.00     5800.00
01411              -5.80     5600.00
01412               3.00     5800.00
01413              21.20     5800.00
01414               4.20     6000.00
01415              -2.60     6000.00
01416              17.80     6000.00
01417              13.00     6000.00
01418              -2.80     6200.00
01419              10.60     6200.00
01420              18.20     6200.00
01421               1.20     6000.00
01422               4.40     6200.00
01423              19.80     6200.00
01424               8.60     6400.00
01425               1.40     6400.00
01426              15.20     6400.00
01427              15.00     6400.00
01428               2.80     6400.00
01429               9.40     6400.00
01430              18.00     6400.00
01431               8.40     6400.00
01432               6.20     6400.00
01433              15.40     6400.00
01434              13.40     6400.00
01435               6.00     6400.00
01436              11.80     6600.00
01437              16.20     6600.00
01438               9.80     6600.00
01439               9.20     6400.00
01440              15.60     6600.00
01441              13.20     6400.00
01442               8.60     6800.00
01443              13.20     6400.00
01444              15.20     6600.00
01445              10.80     6800.00
01446              10.60     6800.00
01447              14.80     6600.00
01448              13.00     6600.00
01449              10.00     6600.00
01450              12.40     6400.00
01451              13.20     6600.00
01452              10.80     6600.00
01453              10.60     6400.00
01454              12.20     6400.00
01455              11.80     6400.00
01456              10.00     6400.00
01457              10.20     6400.00
01458              11.40     6400.00
01459              10.20     6400.00
01460               9.00     6400.00
01461              10.00     6200.00
01462              10.60     6400.00
01463               8.60     6200.00
01464               8.80     6200.00
01465              10.00     6200.00
01466               9.40     6200.00
01467               7.00     6000.00
01468               7.80     6000.00
01469               9.00     6000.00
01470               8.60     6000.00
01471               6.20     6000.00
01472               8.60     6000.00
01473               8.60     5800.00
01474               6.20     5800.00
01475               6.60     5600.00
01476               8.40     5600.00
01477               6.80     5600.00
01478               5.80     5400.00
01479               6.80     5600.00
01480               7.00     5200.00
01481               5.80     5400.00
01482               5.20     5200.00
01483               6.20     5200.00
01484               5.80     5000.00
01485               5.20     5000.00
01486               5.40     5000.00
01487               5.40     4800.00
01488               5.20     4800.00
01489               4.40     4600.00
01490               5.00     4600.00
01491               5.20     4400.00
01492               3.60     4400.00
01493               4.40     4400.00
01494               5.20     4400.00
01495               4.00     4200.00
01496               3.80     4000.00
01497               4.40     4000.00
01498               3.80     4000.00
01499               2.80     3800.00
01500               3.40     3800.00
01501               4.20     3800.00
01502               3.40     3600.00
01503               2.80     3600.00
01504               3.80     3400.00
01505               3.60     3400.00
01506               2.20     3200.00
01507               2.60     3200.00
01508               3.40     3000.00
01509               2.60     3000.00
01510               2.60     2800.00
01511               2.80     2800.00
01512               2.60     2800.00
01513               2.20     2800.00
01514               1.80     2400.00
01515               2.00     2400.00
01516               2.40     2400.00
01517               2.20     2200.00
01518               1.20     2000.00
01519               2.60     2000.00
01520               2.00     2000.00
01521               0.40     1600.00
01522               1.40     1800.00
01523               2.00     1800.00
01524               1.00     1400.00
01525               1.00     1400.00
01526               1.20     1200.00
01527               1.00     1200.00
01528               0.60     1000.00
01529               0.40      800.00
01530               0.60      800.00
01531               1.20      600.00
01532               0.20      800.00
01533               0.20      400.00
01534               1.00      400.00
01535              -0.20      200.00
01536               0.40        0.00
01537              -0.20        0.00
01538              -0.20        0.00
01539               0.20     -200.00
01540              -0.60     -200.00
01541               0.60     -400.00
01542               0.60     -400.00
01543              -2.00     -600.00
01544              -1.20     -600.00
01545               0.40     -800.00
01546              -1.40    -1000.00
01547               8.20     -800.00
01548              16.60    -1200.00
01549             -25.00    -1600.00
01550             -25.00    -1200.00
01551              25.00    -1200.00
01552              25.00    -1600.00
01553             -25.00    -2000.00
01554             -25.00    -1400.00
01555              25.00    -1800.00
01556              25.00    -2200.00
01557             -25.00    -1800.00
01558               4.40    -2000.00
01559              25.00    -2400.00
01560              -9.80    -2800.00
01561             -25.00    -2000.00
01562              25.00    -2600.00
01563              25.00    -3000.00
01564             -25.00    -2600.00
01565               5.80    -3000.00
01566              25.00    -3200.00
01567             -25.00    -3200.00
01568             -25.00    -3000.00
01569              25.00    -3400.00
01570              -8.20    -3400.00
01571             -25.00    -3400.00
01572              25.00    -3600.00
01573              25.00    -3600.00
01574             -25.00    -3600.00
01575             -24.80    -4000.00
01576              25.00    -4000.00
01577              25.00    -4000.00
01578             -25.00    -4200.00
01579             -14.80    -4200.00
01580              25.00    -4200.00
01581             -25.00    -4200.00
01582             -25.00    -4400.00
01583              25.00    -4400.00
01584               5.00    -4400.00
01585             -25.00    -4600.00
01586              25.00    -4800.00
01587              25.00    -4600.00
01588             -25.00    -5000.00
01589              -9.40    -5000.00
01590              25.00    -5000.00
01591             -20.60    -5000.00
01592             -25.00    -5400.00
01593              21.20    -5200.00
01594              -2.00    -5200.00
01595             -25.00    -5400.00
01596               9.80    -5600.00
01597               5.40    -5600.00
01598             -25.00    -5600.00
01599               1.40    -5600.00
01600               8.00    -5600.00
01601             -25.00    -5800.00
01602             -10.00    -6000.00
01603               7.40    -6000.00
01604             -15.00    -6000.00
01605             -19.80    -6000.00
01606               4.00    -6000.00
01607              -3.60    -6000.00
01608             -24.60    -6000.00
01609              -6.00    -6400.00
01610               4.40    -6400.00
01611             -21.20    -6200.00
01612             -16.60    -6400.00
01613               5.00    -6400.00
01614             -10.60    -6400.00
01615             -23.60    -6400.00
01616              -3.40    -6600.00
01617              -2.00    -6600.00
01618             -22.80    -6400.00
01619             -13.40    -6400.00
01620               0.60    -6600.00
01621             -14.60    -6400.00
01622             -20.00    -6600.00
01623              -5.40    -6600.00
01624              -7.00    -6600.00
01625             -20.20    -6600.00
01626             -13.40    -6600.00
01627              -4.20    -6600.00
01628             -14.00    -6800.00
01629             -19.00    -6600.00
01630              -8.40    -6800.00
01631              -9.40    -6600.00
01632             -18.40    -6600.00
01633             -13.80    -6600.00
01634              -8.20    -6800.00
01635             -13.20    -6600.00
01636             -16.60    -6800.00
01637             -11.00    -6800.00
01638             -10.60    -6600.00
01639             -15.20    -6600.00
01640             -14.20    -6600.00
01641             -10.40    -6600.00
01642             -11.00    -6600.00
01643             -14.40    -6600.00
01644             -12.60    -6600.00
01645              -9.20    -6600.00
01646             -11.80    -6600.00
01647             -13.80    -6400.00
01648             -10.00    -6600.00
01649              -9.20    -6400.00
01650             -12.20    -6400.00
01651             -11.60    -6400.00
01652              -8.60    -6400.00
01653              -9.60    -6400.00
01654             -12.00    -6400.00
01655              -9.40    -6400.00
01656              -7.20    -6200.00
01657             -10.00    -6400.00
01658             -10.60    -6000.00
01659              -7.60    -6200.00
01660              -7.80    -6000.00
01661             -10.20    -6000.00
01662              -8.60    -6000.00
01663              -6.20    -6000.00
01664              -8.60    -5800.00
01665              -9.20    -6000.00
01666              -6.60    -5800.00
01667              -6.40    -5600.00
01668              -9.20    -5800.00
01669              -7.60    -5600.00
01670              -5.20    -5400.00
01671              -7.60    -5600.00
01672              -8.40    -5600.00
01673              -4.60    -5200.00
01674              -5.80    -5200.00
01675              -8.60    -5200.00
01676              -6.60    -5000.00
01677              -4.40    -5000.00
01678              -6.60    -5000.00
01679              -7.00    -4600.00
01680              -4.40    -4800.00
01681              -5.40    -4600.00
01682              -7.00    -4800.00
01683              -4.80    -4600.00
01684              -3.80    -4400.00
01685              -6.80    -4400.00
01686              -5.20    -4400.00
01687              -4.40    -4400.00
01688              -3.40    -4200.00
01689              -5.20    -4000.00
01690              -5.40    -4000.00
01691              -4.20    -4000.00
01692              -4.20    -4000.00
01693              -4.60    -3600.00
01694              -3.00    -3600.00
01695              -3.80    -3600.00
01696              -4.80    -3400.00
01697              -3.80    -3400.00
01698              -3.60    -3400.00
01699              -3.40    -3200.00
01700              -3.40    -3200.00
01701              -3.00    -2800.00
01702              -2.20    -3000.00
01703              -2.80    -2800.00
01704              -3.60    -2800.00
01705              -3.20    -2600.00
01706              -2.40    -2400.00
01707              -2.40    -2400.00
01708              -2.20    -2400.00
01709              -1.40    -2200.00
01710              -2.60    -2000.00
01711              -2.80    -2000.00
01712              -1.80    -1800.00
01713              -1.20    -1600.00
01714              -2.20    -1600.00
01715              -1.60    -1600.00
01716              -0.60    -1400.00
01717              -1.80    -1400.00
01718              -2.20    -1200.00
01719              -1.20    -1000.00
01720              -1.00    -1000.00
01721              -0.80    -1000.00
01722              -0.60     -800.00
01723              -1.20     -600.00
01724              -0.40     -400.00
01725              -0.20     -400.00
01726              -1.40     -400.00
01727              -0.40     -400.00
01728               0.20        0.00
01729              -0.40        0.00
01730              -0.20        0.00
01731               0.40      200.00
01732               1.20      400.00
01733               0.20      400.00
01734              -0.60      600.00
01735               1.00      400.00
01736               1.00      600.00
01737               0.80      800.00
01738               5.20      800.00
01739              16.60     1200.00
01740              -8.00     1200.00
01741             -25.00     1200.00
01742               3.60     1400.00
01743              25.00     1600.00
01744              -2.20     1800.00
01745             -25.00     1400.00
01746              25.00     2000.00
01747              25.00     2000.00
01748             -25.00     1800.00
01749             -25.00     2200.00
01750              25.00     2200.00
01751              25.00     2200.00
01752             -25.00     2400.00
01753              25.00     2400.00
01754              25.00     2800.00
01755             -25.00     2600.00
01756             -25.00     3000.00
01757              25.00     2800.00
01758               7.40     2800.00
01759             -25.00     3400.00
01760              25.00     3000.00
01761              25.00     3200.00
01762             -25.00     3200.00
01763              -3.80     3600.00
01764              25.00     3600.00
01765             -13.80     3600.00
01766             -25.00     3800.00
01767              25.00     3800.00
01768              25.00     4000.00
01769             -25.00     4000.00
01770             -22.00     4000.00
01771              25.00     4000.00
01772              13.20     4400.00
01773             -25.00     4400.00
01774              24.40     4400.00
01775              25.00     4600.00
01776             -25.00     4600.00
01777              -8.00     4600.00
01778              25.00     4800.00
01779              -7.00     5000.00
01780             -25.00     4800.00
01781              25.00     5000.00
01782              21.00     5200.00
01783             -25.00     5400.00
01784              12.40     5200.00
01785              25.00     5400.00
01786             -16.60     5400.00
01787              -2.20     5400.00
01788              25.00     5600.00
01789              -2.00     5600.00
01790              -5.80     5600.00
01791              23.80     5600.00
01792              11.80     5600.00
01793              -7.40     5800.00
01794              12.20     5800.00
01795              16.60     6000.00
01796              -4.20     6000.00
01797               4.80     6200.00
01798              21.20     6000.00
01799               5.40     6000.00
01800               0.60     6000.00
01801              19.40     6200.00
01802              10.60     6200.00
01803              -2.00     6200.00
01804              12.20     6200.00
01805              16.40     6200.00
01806               2.20     6400.00
01807               7.60     6400.00
01808              19.00     6400.00
01809               9.40     6400.00
01810               4.20     6400.00
01811              14.60     6400.00
01812              13.80     6400.00
01813               5.40     6400.00
01814               9.80     6400.00
01815              15.80     6600.00
01816              11.00     6600.00
01817               7.80     6400.00
01818              14.20     6400.00
01819              14.80     6600.00
01820               7.60     6600.00
01821              10.60     6600.00
01822              16.20     6600.00
01823              10.20     6400.00
01824               9.00     6600.00
01825              15.20     6400.00
01826              14.20     6400.00
01827               9.60     6600.00
01828              12.20     6600.00
01829              14.60     6400.00
01830              11.20     6400.00
01831              10.20     6600.00
01832              13.80     6600.00
01833              12.60     6600.00
01834               9.80     6400.00
01835              11.00     6600.00
01836              12.40     6600.00
01837              10.60     6400.00
01838              10.00     6400.00
01839              10.80     6400.00
01840              11.40     6400.00
01841               9.20     6200.00
01842               9.20     6400.00
01843              10.80     6200.00
01844               9.80     6200.00
01845               8.40     6200.00
01846               8.80     6200.00
01847              10.00     6200.00
01848               8.40     6200.00
01849               8.20     6000.00
01850               9.00     6000.00
01851               8.80     6000.00
01852               6.80     6000.00
01853               7.40     5800.00
01854               8.40     5800.00
01855               7.40     5600.00
01856               6.60     5800.00
01857               8.20     5600.00
01858               8.20     5600.00
01859               5.80     5600.00
01860               6.20     5400.00
01861               7.60     5600.00
01862               6.00     5200.00
01863               5.80     5400.00
01864               7.00     5200.00
01865               6.40     5200.00
01866               5.20     5000.00
01867               5.60     5000.00
01868               6.00     4800.00
01869               4.60     4800.00
01870               4.60     4800.00
01871               5.40     4600.00
01872               5.20     4600.00
01873               4.40     4600.00
01874               4.60     4400.00
01875               4.60     4400.00
01876               4.20     4400.00
01877               3.80     4200.00
01878               4.20     4200.00
01879               4.20     4000.00
01880               3.60     4000.00
01881               3.60     3800.00
01882               3.80     3800.00
01883               3.60     3800.00
01884               3.00     3600.00
01885               3.00     3600.00
01886               3.40     3600.00
01887               3.00     3400.00
01888               2.80     3200.00
01889               3.60     3000.00
01890               2.60     3000.00
01891               1.00     3000.00
01892               3.00     2800.00
01893               3.80     2800.00
01894               2.20     2600.00
01895               1.40     2600.00
01896               2.40     2400.00
01897               2.00     2400.00
01898               0.60     2200.00
01899               1.80     2200.00
01900               3.00     2000.00
01901               1.40     2000.00
01902               0.80     1800.00
01903               2.20     1800.00
01904               1.40     1600.00
01905               0.40     1800.00
01906               0.60     1400.00
01907               2.40     1400.00
01908               2.20     1400.00
01909              -0.60     1000.00
01910              -0.40     1000.00
01911               1.80      800.00
01912               0.40      800.00
01913              -0.20      600.00
01914               1.40      600.00
01915               1.20      400.00
01916              -0.60      400.00
01917              -0.40      200.00
01918               0.20      400.00
01919              -0.40        0.00
01920               0.20     -200.00
01921               0.40     -200.00
01922               0.40     -200.00
01923               0.40     -400.00
01924              -0.60     -400.00
01925              -1.40     -400.00
01926              -0.60     -800.00
01927              -0.60     -600.00
01928               0.60     -800.00
01929              16.40    -1000.00
01930               2.00    -1400.00
01931             -25.00    -1600.00
01932             -12.20    -1000.00
01933              25.00    -1600.00
01934               7.60    -1800.00
01935             -25.00    -1600.00
01936              21.80    -1600.00
01937              25.00    -2000.00
01938             -25.00    -2400.00
01939             -25.00    -1800.00
01940              25.00    -2400.00
01941              25.00    -2400.00
01942             -25.00    -2200.00
01943             -25.00    -2400.00
01944              25.00    -2800.00
01945              25.00    -2800.00
01946             -25.00    -2600.00
01947              25.00    -3000.00
01948              25.00    -3200.00
01949             -25.00    -2800.00
01950              25.00    -3400.00
01951              25.00    -3400.00
01952             -25.00    -3400.00
01953             -25.00    -3600.00
01954              25.00    -3800.00
01955             -10.20    -3600.00
01956             -25.00    -4000.00
01957              -0.40    -4000.00
01958              25.00    -4000.00
01959              -6.60    -4000.00
01960             -25.00    -4200.00
01961              25.00    -4200.00
01962              25.00    -4200.00
01963             -25.00    -4400.00
01964              -9.00    -4400.00
01965              25.00    -4400.00
01966             -25.00    -4400.00
01967             -25.00    -5000.00
01968              25.00    -4600.00
01969              -7.00    -4600.00
01970             -25.00    -5000.00
01971              16.80    -5000.00
01972              17.20    -5000.00
01973             -25.00    -5000.00
01974              -9.40    -5200.00
01975              23.40    -5200.00
01976             -23.80    -5400.00
01977             -21.20    -5400.00
01978              18.80    -5600.00
01979             -14.00    -5200.00
01980             -24.20    -5600.00
01981              11.80    -5600.00
01982              -5.80    -5600.00
01983             -25.00    -5600.00
01984               0.60    -6000.00
01985               1.20    -6000.00
01986             -21.20    -6000.00
01987             -11.60    -6000.00
01988               6.60    -6000.00
01989             -13.20    -6000.00
01990             -21.80    -6200.00
01991               2.80    -6200.00
01992              -4.40    -6400.00
01993             -24.40    -6200.00
01994              -6.20    -6400.00
01995               2.80    -6400.00
01996             -19.00    -6400.00
01997             -17.20    -6400.00
01998               1.20    -6600.00
01999             -10.20    -6400.00
02000             -22.60    -6600.00
02001              -5.80    -6600.00
02002              -3.00    -6400.00
02003             -19.80    -6600.00
02004             -14.80    -6800.00
02005              -3.60    -6400.00
02006             -12.60    -6800.00
02007             -19.40    -6600.00
02008              -8.40    -6600.00
02009              -7.00    -6800.00
02010             -17.80    -6600.00
02011             -15.00    -6800.00
02012              -7.00    -6800.00
02013             -13.20    -6600.00
02014             -17.40    -6800.00
02015             -10.60    -6800.00
02016              -9.40    -6800.00
02017             -15.80    -6800.00
02018             -14.80    -6800.00
02019             -10.20    -6600.00
02020             -12.60    -6600.00
02021             -15.80    -6800.00
02022             -12.20    -6600.00
02023             -10.20    -6600.00
02024             -13.60    -6600.00
02025             -14.00    -6600.00
02026             -10.60    -6400.00
02027             -10.60    -6400.00
02028             -13.20    -6600.00
02029             -12.00    -6400.00
02030              -9.20    -6600.00
02031             -10.80    -6400.00
02032             -12.20    -6400.00
02033             -10.00    -6600.00
02034              -8.80    -6400.00
02035             -11.00    -6400.00
02036             -10.80    -6200.00
02037              -7.60    -6200.00
02038              -9.00    -6400.00
02039             -11.60    -6400.00
02040              -8.40    -6000.00
02041              -6.80    -6000.00
02042              -9.80    -6000.00
02043              -9.80    -6000.00
02044              -6.60    -5800.00
02045              -7.80    -6000.00
02046              -9.80    -5800.00
02047              -7.40    -5800.00
02048              -6.20    -5600.00
02049              -8.40    -5600.00
02050              -8.20    -5600.00
02051              -6.00    -5600.00
02052              -6.40    -5600.00
02053              -8.00    -5600.00
02054              -6.80    -5200.00
02055              -5.20    -5200.00
02056              -6.80    -5200.00
02057              -7.00    -5200.00
02058              -5.60    -5000.00
02059              -5.00    -5000.00
02060              -7.40    -5000.00
02061              -6.00    -4600.00
02062              -4.00    -4600.00
02063              -6.00    -4600.00
02064              -7.00    -4600.00
02065              -4.20    -4600.00
02066              -4.60    -4400.00
02067              -6.60    -4400.00
02068              -4.60    -4200.00
02069              -3.40    -4200.00
02070              -5.40    -4200.00
02071              -5.00    -4000.00
02072              -3.60    -4000.00
02073              -4.20    -4000.00
02074              -4.60    -3600.00
02075              -4.20    -3800.00
02076              -3.60    -3600.00
02077              -3.80    -3600.00
02078              -4.60    -3400.00
02079              -3.80    -3200.00
02080              -2.80    -3200.00
02081              -3.60    -3200.00
02082              -3.80    -3000.00
02083              -2.60    -2800.00
02084              -3.40    -2800.00
02085              -3.60    -2600.00
02086              -2.80    -2800.00
02087              -2.40    -2600.00
02088              -3.00    -2400.00
02089              -2.60    -2400.00
02090              -2.00    -2400.00
02091              -2.20    -2200.00
02092              -2.60    -2000.00
02093              -2.00    -2000.00
02094              -1.80    -1800.00
02095              -2.00    -1800.00
02096              -2.20    -1600.00
02097              -1.40    -1600.00
02098              -1.40    -1600.00
02099              -1.80    -1400.00
02100              -2.00    -1200.00
02101              -1.20    -1000.00
02102              -0.60    -1000.00
02103              -1.20     -800.00
02104              -1.20     -800.00
02105              -0.60     -800.00
02106              -0.40     -600.00
02107              -1.40     -400.00
02108              -1.00     -400.00
02109               0.20     -200.00
02110              -0.40     -200.00
02111               0.00     -200.00
02112               0.40        0.00
02113               0.20        0.00
02114               1.00      400.00
02115              -0.20      400.00
02116               0.20      400.00
02117               0.80      600.00
02118               0.40      600.00
02119               2.00      800.00
02120               9.80     1200.00
02121              11.80     1400.00
02122             -23.00     1200.00
02123             -25.00     1200.00
02124              25.00     1400.00
02125              25.00     1800.00
02126             -25.00     1600.00
02127             -25.00     1800.00
02128              25.00     1800.00
02129              25.00     2000.00
02130             -25.00     2000.00
02131              -5.80     2200.00
02132              25.00     2400.00
02133             -25.00     2200.00
02134             -25.00     2600.00
02135              25.00     2400.00
02136              25.00     2400.00
02137             -25.00     2800.00
02138              25.00     2800.00
02139              25.00     2800.00
02140             -25.00     3000.00
02141             -25.00     3200.00
02142              25.00     3200.00
02143               3.00     3200.00
02144             -25.00     3600.00
02145              25.00     3400.00
02146              25.00     3600.00
02147             -25.00     3800.00
02148             -22.60     3800.00
02149              25.00     4000.00
02150              19.80     4000.00
02151             -25.00     4000.00
02152               8.20     4000.00
02153              25.00     4400.00
02154             -21.40     4400.00
02155             -25.00     4400.00
02156              25.00     4400.00
02157              13.80     4600.00
02158             -25.00     4600.00
02159              25.00     4800.00
02160              25.00     4800.00
02161             -25.00     4800.00
02162              -5.20     5000.00
02163              25.00     5200.00
02164              -5.60     5200.00
02165             -19.60     5200.00
02166              25.00     5200.00
02167              13.40     5400.00
02168             -18.80     5400.00
02169              16.20     5400.00
02170              22.20     5600.00
02171             -11.80     5600.00
02172               5.80     5600.00
02173              24.20     5600.00
02174              -1.00     5800.00
02175              -2.00     5600.00
02176              20.40     5800.00
02177               9.20     6000.00
02178              -4.00     6000.00
02179              14.20     6000.00
02180              16.40     6200.00
02181              -1.00     6000.00
02182               6.60     6200.00
02183              19.20     6000.00
02184               5.20     6200.00
02185               2.00     6200.00
02186              17.40     6200.00
02187              12.60     6400.00
02188               1.20     6400.00
02189              12.20     6400.00
02190              17.00     6400.00
02191               5.00     6400.00
02192               6.80     6400.00
02193              17.00     6400.00
02194              11.40     6400.00
02195               5.40     6400.00
02196              13.40     6400.00
02197              15.60     6600.00
02198               7.60     6600.00
02199               9.80     6600.00
02200              16.40     6600.00
02201              11.60     6400.00
02202               7.80     6600.00
02203              14.40     6600.00
02204              14.60     6400.00
02205               9.00     6400.00
02206              11.60     6600.00
02207              15.60     6600.00
02208              11.60     6600.00
02209              10.00     6600.00
02210              14.00     6400.00
02211              13.40     6400.00
02212              10.20     6600.00
02213              11.80     6400.00
02214              13.40     6400.00
02215              11.60     6400.00
02216              10.20     6600.00
02217              11.60     6400.00
02218              12.20     6400.00
02219              10.60     6400.00
02220               9.80     6400.00
02221              11.40     6400.00
02222              11.00     6400.00
02223               9.00     6400.00
02224               9.80     6400.00
02225              10.60     6200.00
02226               9.40     6200.00
02227               8.60     6200.00
02228               9.80     6200.00
02229               9.40     6200.00
02230               7.60     6200.00
02231               7.80     6000.00
02232               9.00     6000.00
02233               8.80     6000.00
02234               6.80     6000.00
02235               8.40     5800.00
02236               8.20     5800.00
02237               6.60     5600.00
02238               7.00     5800.00
02239               7.80     5600.00
02240               6.80     5600.00
02241               6.80     5600.00
02242               6.60     5400.00
02243               6.80     5400.00
02244               6.60     5400.00
02245               5.80     5200.00
02246               6.60     5200.00
02247               6.60     5000.00
02248               5.20     5000.00
02249               5.20     4800.00
02250               6.20     4800.00
02251               5.20     4800.00
02252               4.20     4600.00
02253               6.00     4400.00
02254               5.40     4600.00
02255               3.60     4600.00
02256               5.00     4600.00
02257               5.20     4400.00
02258               4.00     4400.00
02259               3.60     4200.00
02260               4.60     4000.00
02261               4.40     4000.00
02262               3.00     3800.00
02263               3.60     3800.00
02264               4.20     3800.00
02265               3.20     3600.00
02266               2.80     3600.00
02267               3.40     3600.00
02268               3.60     3400.00
02269               2.60     3200.00
02270               2.60     3000.00
02271               3.00     3000.00
02272               2.80     3000.00
02273               2.00     2800.00
02274               2.60     3000.00
02275               2.60     2800.00
02276               2.00     2800.00
02277               1.80     2400.00
02278               2.00     2400.00
02279               2.00     2400.00
02280               1.40     2200.00
02281               1.60     2200.00
02282               1.80     2000.00
02283               1.40     2000.00
02284               1.00     2000.00
02285               1.60     1800.00
02286               1.20     1800.00
02287               1.00     1600.00
02288               1.20     1400.00
02289               1.00     1400.00
02290               1.00     1200.00
02291               0.80     1000.00
02292               0.40      800.00
02293               0.60     1000.00
02294               0.60      600.00
02295               0.20      600.00
02296               0.20      400.00
02297               0.60      400.00
02298               0.40      400.00
02299              -0.20      200.00
02300              -0.40        0.00
02301               0.20        0.00
02302               0.00        0.00
02303              -0.20     -200.00
02304               0.20     -200.00
02305               0.40     -400.00
02306              -1.00     -400.00
02307              -1.00     -400.00
02308              -0.20     -800.00
02309              -0.60     -800.00
02310               4.40    -1000.00
02311              18.80    -1200.00
02312             -19.80    -1600.00
02313             -25.00    -1000.00
02314              25.00    -1200.00
02315              25.00    -1600.00
02316             -25.00    -1800.00
02317             -25.00    -1200.00
02318              25.00    -1800.00
02319              25.00    -2000.00
02320             -25.00    -2200.00
02321             -25.00    -2000.00
02322              25.00    -2400.00
02323              25.00    -2600.00
02324             -25.00    -2000.00
02325              25.00    -2600.00
02326              25.00    -2800.00
02327             -25.00    -2600.00
02328             -25.00    -2800.00
02329              25.00    -3200.00
02330               8.20    -3200.00
02331             -25.00    -3000.00
02332              25.00    -3400.00
02333              25.00    -3400.00
02334             -25.00    -3200.00
02335              25.00    -3600.00
02336              25.00    -3600.00
02337             -25.00    -3600.00
02338             -25.00    -3800.00
02339              23.40    -4000.00
02340              25.00    -4000.00
02341             -25.00    -4200.00
02342             -25.00    -4200.00
02343              25.00    -4200.00
02344              -0.40    -4400.00
02345             -25.00    -4400.00
02346              25.00    -4600.00
02347              25.00    -4400.00
02348             -25.00    -4600.00
02349               3.60    -4800.00
02350              25.00    -4800.00
02351             -25.00    -5000.00
02352             -25.00    -5000.00
02353              25.00    -5000.00
02354              -7.00    -5000.00
02355             -25.00    -5200.00
02356              11.80    -5200.00
02357               9.80    -5400.00
02358             -25.00    -5400.00
02359              -1.20    -5600.00
02360              13.40    -5600.00
02361             -25.00    -5600.00
02362              -8.40    -5600.00
02363              12.20    -5800.00
02364             -19.60    -5600.00
02365             -16.40    -5800.00
02366               7.00    -5800.00
02367              -8.60    -5800.00
02368             -21.80    -6000.00
02369              -1.80    -6000.00
02370               2.20    -6000.00
02371             -21.20    -6000.00
02372             -13.40    -6200.00
02373               6.40    -6200.00
02374             -14.00    -6400.00
02375             -22.40    -6400.00
02376               1.40    -6400.00
02377              -3.40    -6400.00
02378             -23.60    -6400.00
02379              -9.80    -6400.00
02380               2.00    -6400.00
02381             -17.40    -6400.00
02382             -18.60    -6600.00
02383              -0.60    -6400.00
02384              -8.80    -6600.00
02385             -21.40    -6400.00
02386              -8.60    -6400.00
02387              -4.00    -6600.00
02388             -17.20    -6600.00
02389             -16.60    -6600.00
02390              -5.40    -6800.00
02391             -10.80    -6600.00
02392             -19.00    -6600.00
02393             -10.80    -6800.00
02394              -7.60    -6600.00
02395             -16.60    -6800.00
02396             -15.00    -6600.00
02397              -8.60    -6600.00
02398             -12.40    -6800.00
02399             -17.00    -6800.00
02400             -12.00    -6600.00
02401             -10.20    -6600.00
02402             -14.80    -6600.00
02403             -14.80    -6600.00
02404             -10.20    -6600.00
02405             -11.60    -6600.00
02406             -15.00    -6600.00
02407             -11.60    -6800.00
02408              -9.40    -6600.00
02409             -12.80    -6600.00
02410             -12.80    -6400.00
02411              -9.40    -6600.00
02412             -10.60    -6400.00
02413             -13.20    -6400.00
02414             -10.40    -6400.00
02415              -8.40    -6400.00
02416             -10.80    -6200.00
02417             -11.40    -6400.00
02418              -8.00    -6000.00
02419              -9.40    -6400.00
02420             -11.20    -6200.00
02421              -7.80    -6200.00
02422              -8.20    -6000.00
02423             -10.20    -6000.00
02424              -9.00    -6000.00
02425              -6.60    -6000.00
02426              -8.20    -6000.00
02427              -9.80    -5800.00
02428              -7.00    -5800.00
02429              -6.80    -5800.00
02430              -8.20    -5800.00
02431              -7.80    -5600.00
02432              -6.60    -5600.00
02433              -6.80    -5600.00
02434              -7.60    -5400.00
02435              -7.40    -5400.00
02436              -5.80    -5200.00
02437              -5.60    -5200.00
02438              -7.80    -5200.00
02439              -6.20    -5000.00
02440              -4.60    -5000.00
02441              -6.40    -5000.00
02442              -7.60    -4800.00
02443              -4.40    -4600.00
02444              -3.80    -4600.00
02445              -6.40    -4600.00
02446              -5.80    -4600.00
02447              -3.20    -4400.00
02448              -5.80    -4400.00
02449              -6.20    -4400.00
02450              -4.40    -4200.00
02451              -3.60    -4200.00
02452              -5.60    -4200.00
02453              -4.40    -4000.00
02454              -3.60    -4000.00
02455              -3.40    -4000.00
02456              -5.00    -3600.00
02457              -5.40    -3600.00
02458              -2.20    -3600.00
02459              -3.00    -3600.00
02460              -5.80    -3200.00
02461              -3.00    -3400.00
02462              -2.20    -3200.00
02463              -5.00    -3200.00
02464              -3.80    -3200.00
02465              -1.00    -2800.00
02466              -4.20    -2800.00
02467              -4.40    -2800.00
02468              -1.60    -2600.00
02469              -2.60    -2400.00
02470              -3.60    -2400.00
02471              -2.60    -2400.00
02472              -1.80    -2400.00
02473              -2.60    -2000.00
02474              -3.00    -2000.00
02475              -1.80    -1800.00
02476              -1.60    -1600.00
02477              -2.20    -1600.00
02478              -2.00    -1600.00
02479              -1.40    -1600.00
02480              -1.40    -1200.00
02481              -2.00    -1200.00
02482              -1.20    -1000.00
02483              -0.80    -1000.00
02484              -1.80     -800.00
02485              -1.20     -800.00
02486              -1.00     -800.00
02487              -1.00     -600.00
02488              -1.00     -400.00
02489              -0.40     -400.00
02490              -0.60     -200.00
02491              -1.00     -200.00
02492               0.40        0.00
02493               0.60        0.00
02494              -0.40      200.00
02495               0.60      400.00
02496               1.00      400.00
02497              -1.20      400.00
02498               0.60      600.00
02499               1.40      600.00
02500               0.40      800.00
02501               3.40      800.00
02502              14.80     1200.00
02503               1.00     1200.00
02504             -25.00     1200.00
02505             -19.60     1400.00
02506              25.00     1400.00
02507              22.60     1800.00
02508             -25.00     1400.00
02509              -6.00     2000.00
02510              25.00     2000.00
02511             -11.40     2000.00
02512             -25.00     2200.00
02513              25.00     2200.00
02514              25.00     2400.00
02515             -25.00     2200.00
02516             -25.00     2600.00
02517              25.00     2800.00
02518             -22.80     2400.00
02519             -25.00     3000.00
02520              25.00     2800.00
02521              25.00     2800.00
02522             -25.00     3200.00
02523              25.00     3200.00
02524              25.00     3400.00
02525             -25.00     3200.00
02526             -25.00     3600.00
02527              25.00     3200.00
02528              17.00     3800.00
02529             -25.00     3800.00
02530              12.20     3800.00
02531              25.00     4000.00
02532             -13.20     4000.00
02533             -25.00     4000.00
02534              25.00     4000.00
02535              25.00     4400.00
02536             -25.00     4200.00
02537               4.60     4400.00
02538              25.00     4400.00
02539             -19.80     4600.00
02540             -25.00     4600.00
02541              25.00     4600.00
02542              10.60     4800.00
02543             -25.00     4800.00
02544              23.40     5000.00
02545              25.00     5000.00
02546             -23.80     5200.00
02547               0.40     5200.00
02548              25.00     5200.00
02549              -6.60     5400.00
02550              -9.20     5400.00
02551              25.00     5400.00
02552               7.60     5600.00
02553             -11.00     5600.00
02554              17.40     5600.00
02555              17.20     5600.00
02556              -8.20     5800.00
02557               7.80     5800.00
02558              21.40     6000.00
02559               0.60     6000.00
02560              -0.40     6000.00
02561              20.40     6000.00
02562               9.20     6000.00
02563              -2.80     6000.00
02564              14.80     6200.00
02565              16.40     6200.00
02566              -0.40     6200.00
02567               8.40     6200.00
02568              19.80     6400.00
02569               5.80     6200.00
02570               3.20     6200.00
02571              17.40     6400.00
02572              12.60     6400.00
02573               3.00     6400.00
02574              11.80     6400.00
02575              17.00     6400.00
02576               7.40     6400.00
02577               7.80     6600.00
02578              16.40     6600.00
02579              12.80     6600.00
02580               6.80     6400.00
02581              13.00     6600.00
02582              15.60     6800.00
02583               9.20     6600.00
02584               9.80     6800.00
02585              16.20     6600.00
02586              12.20     6800.00
02587               8.20     6400.00
02588              14.00     6600.00
02589              14.60     6600.00
02590              10.20     6600.00
02591              11.60     6600.00
02592              14.60     6600.00
02593              12.40     6600.00
02594              10.20     6400.00
02595              12.80     6600.00
02596              13.20     6600.00
02597              10.20     6400.00
02598              10.20     6600.00
02599              12.60     6400.00
02600              11.00     6400.00
02601               9.00     6400.00
02602              11.60     6400.00
02603              10.40     6400.00
02604               9.40     6400.00
02605              10.00     6400.00
02606               9.00     6200.00
02607              10.40     6200.00
02608               9.80     6200.00
02609               7.60     6200.00
02610               9.80     6200.00
02611               9.80     6000.00
02612               7.60     6000.00
02613               7.60     6200.00
02614               9.20     6000.00
02615               8.20     6000.00
02616               6.60     6000.00
02617               8.40     5800.00
02618               8.20     6000.00
02619               6.00     5800.00
02620               7.20     5600.00
02621               7.80     5600.00
02622               6.60     5400.00
02623               6.60     5600.00
02624               7.40     5400.00
02625               6.80     5400.00
02626               5.80     5400.00
02627               5.80     5200.00
02628               6.80     5200.00
02629               5.80     5200.00
02630               5.00     5000.00
02631               5.80     4800.00
02632               6.20     4800.00
02633               4.40     4800.00
02634               4.60     4800.00
02635               6.00     4600.00
02636               4.80     4400.00
02637               3.80     4400.00
02638               5.00     4400.00
02639               5.40     4400.00
02640               3.60     4400.00
02641               3.60     4200.00
02642               5.20     4000.00
02643               3.80     4000.00
02644               3.00     4000.00
02645               4.20     3800.00
02646               4.20     3800.00
02647               3.00     3600.00
02648               2.80     3600.00
02649               3.80     3600.00
02650               3.00     3200.00
02651               2.00     3200.00
02652               2.60     3200.00
02653               3.60     3000.00
02654               2.00     3000.00
02655               2.00     3000.00
02656               3.40     2800.00
02657               2.20     2800.00
02658               1.40     2600.00
02659               2.20     2600.00
02660               2.60     2400.00
02661               1.40     2400.00
02662               1.40     2200.00
02663               2.00     2200.00
02664               1.80     2000.00
02665               1.00     2000.00
02666               1.00     1600.00
02667               1.40     1600.00
02668               1.80     1600.00
02669               0.80     1400.00
02670               1.00     1400.00
02671               1.20     1200.00
02672               0.40     1200.00
02673               0.00     1000.00
02674               0.60     1000.00
02675               1.00      800.00
02676               0.20      600.00
02677               0.40      400.00
02678               0.40      600.00
02679               0.20      400.00
02680              -0.20      200.00
02681              -0.20      200.00
02682              -0.40      200.00
02683               0.20        0.00
02684              -0.20     -200.00
02685              -0.40     -200.00
02686               0.40     -400.00
02687              -0.20     -400.00
02688              -1.20     -400.00
02689              -0.40     -600.00
02690              -0.20     -800.00
02691              -0.40     -800.00
02692              11.80    -1000.00
02693              11.20    -1400.00
02694             -25.00    -1600.00
02695             -25.00    -1000.00
02696              25.00    -1400.00
02697              25.00    -1600.00
02698             -25.00    -1800.00
02699             -25.00    -1400.00
02700              25.00    -1800.00
02701              16.60    -2400.00
02702             -25.00    -1800.00
02703              25.00    -2200.00
02704              25.00    -2400.00
02705             -25.00    -2600.00
02706             -25.00    -2000.00
02707              25.00    -2800.00
02708              25.00    -3000.00
02709             -25.00    -2600.00
02710              25.00    -3000.00
02711              25.00    -3200.00
02712             -25.00    -3000.00
02713             -25.00    -3200.00
02714              25.00    -3400.00
02715             -25.00    -3400.00
02716             -25.00    -3400.00
02717              25.00    -3600.00
02718              18.20    -3600.00
02719             -25.00    -3600.00
02720             -15.00    -3800.00
02721              25.00    -4000.00
02722              15.40    -4000.00
02723             -25.00    -4200.00
02724               1.20    -4200.00
02725              25.00    -4400.00
02726             -25.00    -4200.00
02727             -25.00    -4400.00
02728              25.00    -4400.00
02729             -15.40    -4400.00
02730             -25.00    -4800.00
02731              25.00    -4800.00
02732              14.20    -4600.00
02733             -25.00    -5000.00
02734               1.80    -5000.00
02735              25.00    -5000.00
02736             -25.00    -5000.00
02737             -22.00    -5200.00
02738              23.00    -5200.00
02739             -11.40    -5400.00
02740             -25.00    -5400.00
02741              14.20    -5600.00
02742              -2.80    -5600.00
02743             -25.00    -5600.00
02744               6.20    -5800.00
02745               2.00    -5600.00
02746             -25.00    -5800.00
02747              -5.20    -5800.00
02748               5.40    -6000.00
02749             -17.80    -5800.00
02750             -16.80    -6000.00
02751               5.80    -6000.00
02752              -7.40    -6000.00
02753             -24.20    -6000.00
02754              -1.20    -6200.00
02755               1.40    -6400.00
02756             -23.40    -6200.00
02757             -11.80    -6200.00
02758               5.00    -6400.00
02759             -15.00    -6200.00
02760             -21.00    -6400.00
02761              -0.60    -6400.00
02762              -5.40    -6400.00
02763             -22.20    -6600.00
02764              -9.40    -6600.00
02765              -0.80    -6400.00
02766             -16.60    -6600.00
02767             -17.40    -6600.00
02768              -4.40    -6600.00
02769              -9.40    -6800.00
02770             -19.00    -6600.00
02771             -11.00    -6600.00
02772              -5.40    -6600.00
02773             -15.40    -6600.00
02774             -16.60    -6800.00
02775              -8.00    -6600.00
02776             -10.80    -6600.00
02777             -17.40    -6800.00
02778             -12.40    -6800.00
02779              -8.80    -6600.00
02780             -14.60    -6600.00
02781             -15.80    -6600.00
02782             -10.40    -6800.00
02783             -11.40    -6800.00
02784             -15.60    -6600.00
02785             -13.20    -6600.00
02786             -10.00    -6600.00
02787             -12.40    -6600.00
02788             -14.80    -6600.00
02789             -11.40    -6800.00
02790              -9.80    -6600.00
02791             -13.00    -6600.00
02792             -12.60    -6400.00
02793              -9.20    -6600.00
02794             -10.20    -6600.00
02795             -12.60    -6400.00
02796             -10.60    -6400.00
02797              -8.40    -6400.00
02798             -10.80    -6200.00
02799             -11.80    -6400.00
02800              -8.40    -6400.00
02801              -8.60    -6200.00
02802             -11.60    -6200.00
02803              -9.00    -6000.00
02804              -7.00    -6000.00
02805              -9.20    -6000.00
02806             -10.20    -6000.00
02807              -7.40    -6000.00
02808              -7.00    -6000.00
02809              -9.40    -5800.00
02810              -8.60    -5800.00
02811              -5.60    -5800.00
02812              -7.40    -5800.00
02813              -9.40    -5800.00
02814              -6.40    -5600.00
02815              -5.80    -5600.00
02816              -9.00    -5600.00
02817              -7.00    -5400.00
02818              -4.60    -5200.00
02819              -6.80    -5200.00
02820              -7.80    -5000.00
02821              -5.40    -5000.00
02822              -5.40    -5000.00
02823              -6.80    -4800.00
02824              -6.00    -5000.00
02825              -4.40    -4800.00
02826              -5.80    -4600.00
02827              -6.20    -4800.00
02828              -4.20    -4400.00
02829              -4.20    -4400.00
02830              -6.60    -4400.00
02831              -4.60    -4200.00
02832              -4.00    -4200.00
02833              -5.00    -4200.00
02834              -5.20    -4200.00
02835              -3.80    -4000.00
02836              -4.40    -3800.00
02837              -4.40    -3600.00
02838              -4.00    -3600.00
02839              -3.80    -3600.00
02840              -3.40    -3600.00
02841              -4.20    -3400.00
02842              -4.20    -3400.00
02843              -2.80    -3200.00
02844              -3.00    -3200.00
02845              -4.20    -3200.00
02846              -3.00    -3000.00
02847              -2.20    -2800.00
02848              -3.80    -2800.00
02849              -3.60    -2600.00
02850              -2.20    -2600.00
02851              -2.80    -2400.00
02852              -3.40    -2400.00
02853              -2.20    -2400.00
02854              -2.20    -2000.00
02855              -2.80    -2000.00
02856              -2.80    -2000.00
02857              -1.80    -1800.00
02858              -1.80    -1600.00
02859              -2.20    -1800.00
02860              -2.00    -1600.00
02861              -1.20    -1600.00
02862              -1.60    -1400.00
02863              -1.80    -1200.00
02864              -1.40    -1000.00
02865              -1.20    -1000.00
02866              -1.20    -1000.00
02867              -1.40     -800.00
02868              -1.40     -800.00
02869              -1.00     -600.00
02870              -0.40     -400.00
02871              -1.00     -400.00
02872              -1.20     -400.00
02873               0.40        0.00
02874               0.40     -200.00
02875              -1.40        0.00
02876              -0.20      200.00
02877               3.40      400.00
02878              -2.00      400.00
02879              -1.00      600.00
02880               2.00      600.00
02881               0.00      800.00
02882               0.40      800.00
02883               7.00     1000.00
02884              16.40     1200.00
02885             -14.00     1200.00
02886             -25.00     1200.00
02887              24.20     1400.00
02888              25.00     1600.00
02889             -23.00     1600.00
02890             -25.00     1800.00
02891              25.00     2000.00
02892              25.00     2000.00
02893             -25.00     1800.00
02894             -25.00     2200.00
02895              25.00     2200.00
02896              25.00     2200.00
02897             -25.00     2400.00
02898              25.00     2600.00
02899              25.00     2600.00
02900             -25.00     2600.00
02901             -21.40     2800.00
02902              25.00     3000.00
02903             -25.00     2800.00
02904             -25.00     3400.00
02905              25.00     3200.00
02906              25.00     3200.00
02907             -25.00     3400.00
02908              20.80     3600.00
02909              25.00     3400.00
02910             -25.00     3800.00
02911             -25.00     3800.00
02912              25.00     3600.00
02913              25.00     4000.00
02914             -25.00     4000.00
02915             -10.20     4000.00
02916              25.00     4000.00
02917              -0.80     4400.00
02918             -25.00     4400.00
02919              25.00     4400.00
02920              25.00     4600.00
02921             -25.00     4600.00
02922               5.40     4600.00
02923              25.00     4800.00
02924             -18.20     5000.00
02925             -21.40     4800.00
02926              25.00     4800.00
02927               9.60     5200.00
02928             -25.00     5200.00
02929              21.60     5200.00
02930              25.00     5200.00
02931             -18.20     5400.00
02932               6.60     5400.00
02933              25.00     5400.00
02934              -6.60     5600.00
02935              -1.60     5600.00
02936              24.00     5600.00
02937               5.40     5600.00
02938              -6.20     6000.00
02939              17.40     5800.00
02940              14.60     6000.00
02941              -5.20     6000.00
02942               9.40     6000.00
02943              20.60     6200.00
02944               1.00     6000.00
02945               1.40     6200.00
02946              21.00     6200.00
02947               8.60     6200.00
02948              -2.20     6200.00
02949              16.00     6200.00
02950              17.00     6400.00
02951               0.20     6400.00
02952               9.00     6400.00
02953              19.80     6400.00
02954               6.00     6400.00
02955               4.00     6400.00
02956              17.20     6600.00
02957              13.80     6600.00
02958               3.80     6400.00
02959              12.20     6600.00
02960              17.20     6400.00
02961               7.80     6600.00
02962               8.00     6600.00
02963              16.40     6400.00
02964              13.20     6800.00
02965               7.40     6600.00
02966              13.20     6600.00
02967              15.80     6600.00
02968              10.00     6600.00
02969              10.20     6800.00
02970              15.80     6600.00
02971              12.60     6600.00
02972               9.00     6600.00
02973              13.60     6400.00
02974              14.60     6600.00
02975              10.20     6400.00
02976              11.00     6600.00
02977              14.00     6600.00
02978              11.60     6600.00
02979               9.80     6400.00
02980              12.20     6400.00
02981              11.60     6400.00
02982              10.20     6400.00
02983              10.20     6400.00
02984              11.00     6400.00
02985              10.60     6400.00
02986               9.00     6400.00
02987              10.00     6200.00
02988              10.20     6200.00
02989               9.00     6200.00
02990               8.80     6200.00
02991               8.80     6200.00
02992               9.20     6200.00
02993               8.20     6200.00
02994               8.20     6000.00
02995               9.20     6000.00
02996               8.40     6000.00
02997               6.80     6000.00
02998               7.80     6000.00
02999               8.40     5800.00
03000               6.60     5800.00
03001               6.20     5800.00
03002               8.40     5600.00
03003               7.20     5600.00
03004               5.80     5600.00
03005               6.60     5400.00
03006               7.40     5400.00
03007               5.80     5400.00
03008               5.80     5200.00
03009               6.60     5200.00
03010               6.00     5200.00
03011               5.00     5000.00
03012               6.00     4800.00
03013               5.80     4800.00
03014               5.40     4800.00
03015               4.40     4800.00
03016               5.40     4600.00
03017               5.60     4600.00
03018               4.20     4600.00
03019               5.00     4400.00
03020               4.80     4600.00
03021               4.20     4200.00
03022               3.40     4200.00
03023               4.80     4000.00
03024               5.00     4000.00
03025               2.60     4000.00
03026               3.80     3800.00
03027               5.00     4000.00
03028               3.60     3600.00
03029               2.60     3600.00
03030               3.80     3600.00
03031               3.80     3400.00
03032               2.20     3200.00
03033               2.60     3200.00
03034               3.40     3200.00
03035               3.40     3000.00
03036               2.00     3000.00
03037               2.60     2800.00
03038               3.60     2800.00
03039               1.20     2800.00
03040               1.60     2400.00
03041               2.60     2400.00
03042               2.00     2200.00
03043               1.80     2200.00
03044               1.80     2000.00
03045               2.00     2000.00
03046               1.40     2000.00
03047               0.80     1800.00
03048               0.60     1600.00
03049               2.60     1600.00
03050               1.20     1800.00
03051              -0.60     1400.00
03052               2.20     1400.00
03053               1.00     1200.00
03054              -1.00     1200.00
03055               1.40     1000.00
03056               1.00      800.00
03057               0.40      800.00
03058               0.40      600.00
03059              -0.20      400.00
03060               0.40      400.00
03061               0.40      400.00
03062              -1.60      400.00
03063              -0.20        0.00
03064               1.40        0.00
03065              -1.20     -200.00
03066              -0.60     -200.00
03067               1.80     -200.00
03068              -0.40     -400.00
03069              -2.00     -600.00
03070               0.40     -600.00
03071              -0.20     -800.00
03072              -2.20     -800.00
03073               2.60    -1000.00
03074              19.60    -1000.00
03075              -7.60    -1400.00
03076             -25.00    -1400.00
03077              13.40    -1200.00
03078              25.00    -1600.00
03079             -15.00    -2000.00
03080             -25.00    -1600.00
03081              25.00    -1800.00
03082              25.00    -2000.00
03083             -25.00    -2400.00
03084             -25.00    -1800.00
03085              25.00    -2400.00
03086              25.00    -2400.00
03087             -25.00    -2000.00
03088              -3.00    -2600.00
03089              25.00    -2800.00
03090             -21.80    -2800.00
03091             -25.00    -2600.00
03092              25.00    -3200.00
03093              25.00    -3200.00
03094             -25.00    -2800.00
03095              25.00    -3400.00
03096              25.00    -3200.00
03097             -25.00    -3200.00
03098               5.00    -3600.00
03099              25.00    -3600.00
03100             -25.00    -3600.00
03101             -25.00    -3600.00
03102               9.20    -4000.00
03103              25.00    -3800.00
03104             -21.00    -4200.00
03105             -25.00    -4200.00
03106              25.00    -4400.00
03107              25.00    -4200.00
03108             -25.00    -4400.00
03109              12.20    -4400.00
03110              25.00    -4400.00
03111             -25.00    -4400.00
03112             -23.60    -4800.00
03113              25.00    -4600.00
03114             -21.80    -4600.00
03115             -25.00    -5000.00
03116              25.00    -5000.00
03117               8.20    -5000.00
03118             -25.00    -5000.00
03119               0.20    -5200.00
03120              19.60    -5200.00
03121             -25.00    -5200.00
03122             -12.60    -5600.00
03123              18.00    -5600.00
03124             -21.60    -5600.00
03125             -18.00    -5600.00
03126              13.00    -5600.00
03127             -12.20    -5600.00
03128             -22.20    -6000.00
03129               3.80    -6000.00
03130              -2.80    -6000.00
03131             -22.00    -6000.00
03132              -7.40    -6000.00
03133               5.20    -6000.00
03134             -17.40    -6000.00
03135             -18.00    -6200.00
03136               5.20    -6400.00
03137              -9.20    -6200.00
03138             -23.60    -6400.00
03139              -2.60    -6400.00
03140              -0.20    -6400.00
03141             -21.40    -6400.00
03142             -13.40    -6400.00
03143               1.80    -6400.00
03144             -13.40    -6400.00
03145             -20.60    -6400.00
03146              -3.60    -6600.00
03147              -5.40    -6600.00
03148             -20.20    -6600.00
03149             -12.00    -6600.00
03150              -3.80    -6800.00
03151             -14.00    -6600.00
03152             -18.20    -6600.00
03153              -7.00    -6800.00
03154              -8.40    -6600.00
03155             -18.20    -6600.00
03156             -13.40    -6800.00
03157              -7.00    -6800.00
03158             -14.20    -6600.00
03159             -17.00    -6600.00
03160              -9.60    -6800.00
03161             -10.20    -6800.00
03162             -16.40    -6600.00
03163             -13.40    -6600.00
03164              -9.40    -6600.00
03165             -13.20    -6600.00
03166             -15.00    -6600.00
03167             -11.00    -6600.00
03168             -10.20    -6600.00
03169             -14.00    -6600.00
03170             -13.80    -6600.00
03171             -10.20    -6800.00
03172             -11.00    -6600.00
03173             -13.40    -6400.00
03174             -11.40    -6400.00
03175              -9.00    -6600.00
03176             -11.60    -6400.00
03177             -12.40    -6600.00
03178              -9.20    -6400.00
03179              -9.20    -6200.00
03180             -11.60    -6400.00
03181             -10.20    -6400.00
03182              -7.80    -6200.00
03183             -10.00    -6400.00
03184             -11.00    -6200.00
03185              -7.80    -6200.00
03186              -7.60    -6000.00
03187             -10.00    -6000.00
03188              -9.00    -6000.00
03189              -7.00    -5800.00
03190              -8.60    -6000.00
03191              -9.40    -5800.00
03192              -7.40    -5800.00
03193              -6.20    -5800.00
03194              -8.40    -5600.00
03195              -8.40    -5800.00
03196              -6.00    -5600.00
03197              -6.80    -5600.00
03198              -8.40    -5600.00
03199              -6.20    -5200.00
03200              -5.40    -5200.00
03201              -7.60    -5200.00
03202              -7.00    -5200.00
03203              -5.40    -5000.00
03204              -6.00    -5000.00
03205              -7.40    -4800.00
03206              -5.20    -5000.00
03207              -4.20    -4600.00
03208              -6.20    -4800.00
03209              -6.00    -4600.00
03210              -3.60    -4400.00
03211              -5.60    -4400.00
03212              -6.20    -4400.00
03213              -4.20    -4400.00
03214              -4.40    -4000.00
03215              -5.20    -4200.00
03216              -4.60    -4000.00
03217              -4.20    -4000.00
03218              -3.80    -4000.00
03219              -4.40    -3800.00
03220              -3.80    -3800.00
03221              -3.60    -3600.00
03222              -3.80    -3600.00
03223              -4.20    -3400.00
03224              -3.40    -3400.00
03225              -2.80    -3200.00
03226              -3.80    -3400.00
03227              -3.60    -3000.00
03228              -2.20    -2800.00
03229              -2.80    -2800.00
03230              -3.80    -2600.00
03231              -2.60    -2600.00
03232              -2.20    -2600.00
03233              -3.00    -2400.00
03234              -3.00    -2400.00
03235              -1.80    -2200.00
03236              -2.00    -2000.00
03237              -3.20    -2000.00
03238              -2.00    -2000.00
03239              -1.80    -1800.00
03240              -2.20    -1800.00
03241              -2.20    -1600.00
03242              -1.20    -1600.00
03243              -1.40    -1200.00
03244              -1.80    -1400.00
03245              -1.80    -1200.00
03246              -1.00    -1000.00
03247              -1.00    -1000.00
03248              -2.00     -800.00
03249              -1.20     -800.00
03250              -0.60     -600.00
03251              -1.00     -400.00
03252              -1.20     -400.00
03253              -0.60     -400.00
03254              -0.60     -200.00
03255              -0.40        0.00
03256               0.20        0.00
03257               0.00        0.00
03258               0.40      200.00
03259               1.00      400.00
03260              -1.00      400.00
03261               0.40      600.00
03262               0.60      600.00
03263               0.60      800.00
03264               2.00      600.00
03265              11.60     1200.00
03266               8.40     1200.00
03267             -25.00     1200.00
03268             -25.00     1000.00
03269              25.00     1400.00
03270              25.00     1800.00
03271             -25.00     1400.00
03272             -25.00     1800.00
03273              25.00     2000.00
03274              25.00     2200.00
03275             -25.00     2000.00
03276              25.00     2200.00
03277              25.00     2400.00
03278             -25.00     2200.00
03279             -25.00     2600.00
03280              25.00     2600.00
03281              25.00     2400.00
03282             -25.00     2800.00
03283              25.00     2800.00
03284              25.00     2800.00
03285             -25.00     3000.00
03286              -8.20     3200.00
03287              25.00     3200.00
03288             -25.00     3200.00
03289             -25.00     3600.00
03290              25.00     3400.00
03291              25.00     3600.00
03292             -25.00     3800.00
03293              -8.40     3800.00
03294              25.00     3800.00
03295               7.80     4000.00
03296             -25.00     4000.00
03297              19.40     4000.00
03298              25.00     4400.00
03299             -25.00     4400.00
03300             -17.00     4400.00
03301              25.00     4400.00
03302               0.20     4600.00
03303             -25.00     4600.00
03304              25.00     4600.00
03305              25.00     4800.00
03306             -25.00     4800.00
03307               6.80     4800.00
03308              25.00     5000.00
03309             -15.60     5200.00
03310             -12.40     5200.00
03311              25.00     5200.00
03312               4.40     5200.00
03313             -16.60     5400.00
03314              21.40     5400.00
03315              16.80     5600.00
03316             -13.00     5400.00
03317              10.80     5600.00
03318              22.00     5600.00
03319              -4.20     5600.00
03320               1.00     5800.00
03321              21.40     5800.00
03322               6.00     5800.00
03323              -4.60     6000.00
03324              17.80     6000.00
03325              14.60     6000.00
03326              -3.60     6000.00
03327              10.00     6200.00
03328              19.40     6000.00
03329               1.80     6200.00
03330               3.40     6200.00
03331              19.80     6200.00
03332               9.80     6400.00
03333               1.00     6400.00
03334              14.80     6400.00
03335              16.20     6400.00
03336               2.60     6400.00
03337               8.80     6400.00
03338              18.60     6400.00
03339               8.80     6400.00
03340               5.80     6400.00
03341              15.60     6600.00
03342              14.20     6400.00
03343               6.00     6600.00
03344              11.60     6600.00
03345              16.60     6600.00
03346              10.00     6400.00
03347               9.00     6600.00
03348              15.80     6400.00
03349              13.40     6600.00
03350               8.40     6400.00
03351              13.00     6600.00
03352              15.60     6400.00
03353              10.60     6600.00
03354              10.60     6800.00
03355              14.60     6400.00
03356              13.00     6600.00
03357              10.20     6400.00
03358              12.20     6400.00
03359              13.20     6600.00
03360              11.40     6400.00
03361              10.60     6600.00
03362              11.80     6400.00
03363              11.80     6400.00
03364              10.20     6400.00
03365              10.00     6400.00
03366              11.60     6400.00
03367              10.20     6400.00
03368               8.20     6400.00
03369              10.40     6200.00
03370              10.00     6200.00
03371               8.40     6200.00
03372               9.00     6200.00
03373               9.40     6200.00
03374               9.00     6200.00
03375               7.40     6200.00
03376               7.40     6200.00
03377               9.00     6000.00
03378               8.20     6000.00
03379               6.40     6000.00
03380               9.00     6000.00
03381               8.40     5800.00
03382               5.80     5600.00
03383               6.80     5600.00
03384               7.80     5600.00
03385               6.60     5600.00
03386               6.20     5600.00
03387               6.20     5400.00
03388               7.40     5400.00
03389               5.80     5400.00
03390               4.80     5200.00
03391               7.00     5200.00
03392               6.60     5200.00
03393               4.40     5000.00
03394               5.60     5000.00
03395               6.20     4800.00
03396               5.00     4800.00
03397               4.00     4800.00
03398               5.80     4600.00
03399               5.40     4600.00
03400               3.60     4400.00
03401               4.60     4400.00
03402               5.20     4400.00
03403               3.80     4200.00
03404               4.20     4200.00
03405               4.40     4000.00
03406               4.20     4000.00
03407               3.80     3800.00
03408               3.60     4000.00
03409               3.60     3800.00
03410               3.60     3600.00
03411               3.40     3600.00
03412               3.00     3600.00
03413               3.40     3400.00
03414               3.40     3400.00
03415               2.60     3200.00
03416               2.60     3200.00
03417               2.80     3000.00
03418               2.20     2800.00
03419               2.60     2800.00
03420               2.60     2800.00
03421               2.60     2600.00
03422               2.40     2600.00
03423               2.20     2400.00
03424               2.00     2200.00
03425               1.40     2200.00
03426               1.80     2000.00
03427               2.20     2000.00
03428               1.80     2000.00
03429               1.40     2000.00
03430               1.80     1600.00
03431               1.40     1400.00
03432               0.60     1400.00
03433               0.40     1400.00
03434               0.60     1200.00
03435               1.20     1200.00
03436               0.40     1000.00
03437               0.60      800.00
03438               1.00      800.00
03439               0.20      600.00
03440              -0.40      600.00
03441               0.40      400.00
03442               0.20      400.00
03443               0.20      400.00
03444              -0.20        0.00
03445              -0.20        0.00
03446               0.40     -200.00
03447              -0.40        0.00
03448              -1.00     -200.00
03449               1.00     -400.00
03450               0.40     -400.00
03451              -1.80     -400.00
03452              -0.60     -800.00
03453              -0.20     -800.00
03454              -1.20    -1000.00
03455               7.00    -1000.00
03456              17.80    -1200.00
03457             -25.00    -1600.00
03458             -25.00    -1000.00
03459              25.00    -1400.00
03460              25.00    -1600.00
03461             -25.00    -2000.00
03462             -25.00    -1400.00
03463              25.00    -2000.00
03464              25.00    -2200.00
03465             -25.00    -2000.00
03466             -15.80    -2000.00
03467              25.00    -2400.00
03468               9.20    -2600.00
03469             -25.00    -2200.00
03470              25.00    -2800.00
03471              25.00    -2800.00
03472             -25.00    -2600.00
03473             -14.80    -3000.00
03474              25.00    -3200.00
03475             -25.00    -3200.00
03476             -25.00    -3000.00
03477              25.00    -3400.00
03478               9.20    -3200.00
03479             -25.00    -3400.00
03480              25.00    -3600.00
03481              25.00    -3600.00
03482             -25.00    -3800.00
03483             -25.00    -4000.00
03484              25.00    -4000.00
03485              25.00    -4000.00
03486             -25.00    -4200.00
03487             -25.00    -4200.00
03488              25.00    -4400.00
03489             -22.20    -4200.00
03490             -25.00    -4400.00
03491              25.00    -4400.00
03492              17.00    -4400.00
03493             -25.00    -4600.00
03494              18.80    -4800.00
03495              25.00    -4800.00
03496             -25.00    -4800.00
03497             -15.80    -5200.00
03498              25.00    -5000.00
03499             -16.20    -5000.00
03500             -25.00    -5200.00
03501              17.80    -5200.00
03502               1.40    -5400.00
03503             -25.00    -5400.00
03504               5.80    -5600.00
03505               7.60    -5600.00
03506             -25.00    -5600.00
03507              -1.80    -5800.00
03508               8.20    -5800.00
03509             -22.80    -5800.00
03510             -11.40    -6000.00
03511               5.80    -5800.00
03512             -12.40    -6000.00
03513             -19.60    -6000.00
03514               0.80    -6200.00
03515              -1.80    -6000.00
03516             -22.60    -6200.00
03517              -9.00    -6200.00
03518               4.20    -6400.00
03519             -18.20    -6200.00
03520             -18.20    -6400.00
03521               2.80    -6200.00
03522              -8.40    -6400.00
03523             -22.80    -6400.00
03524              -6.00    -6400.00
03525              -1.00    -6600.00
03526             -20.20    -6400.00
03527             -15.40    -6600.00
03528              -0.60    -6600.00
03529             -12.40    -6600.00
03530             -19.80    -6600.00
03531              -7.00    -6600.00
03532              -6.00    -6600.00
03533             -18.20    -6600.00
03534             -14.20    -6800.00
03535              -5.20    -6600.00
03536             -12.60    -6600.00
03537             -18.60    -6800.00
03538              -9.40    -6600.00
03539              -8.60    -6600.00
03540             -17.20    -6800.00
03541             -14.60    -6600.00
03542              -8.20    -6600.00
03543             -13.00    -6600.00
03544             -16.60    -6800.00
03545             -11.60    -6600.00
03546             -10.00    -6800.00
03547             -14.80    -6600.00
03548             -14.20    -6600.00
03549             -10.00    -6600.00
03550             -11.40    -6600.00
03551             -14.80    -6600.00
03552             -12.40    -6600.00
03553              -9.40    -6600.00
03554             -12.40    -6600.00
03555             -13.40    -6400.00
03556              -9.80    -6400.00
03557              -9.20    -6400.00
03558             -12.60    -6400.00
03559             -11.60    -6400.00
03560              -8.40    -6400.00
03561             -10.00    -6400.00
03562             -12.20    -6400.00
03563              -9.20    -6200.00
03564              -7.60    -6200.00
03565             -10.60    -6200.00
03566             -10.80    -6400.00
03567              -7.40    -6200.00
03568              -8.60    -6000.00
03569             -10.20    -6000.00
03570              -8.60    -6000.00
03571              -7.00    -6000.00
03572              -8.40    -5800.00
03573              -9.60    -5800.00
03574              -7.00    -5800.00
03575              -6.60    -5800.00
03576              -9.00    -5600.00
03577              -7.80    -5800.00
03578              -5.40    -5600.00
03579              -7.00    -5600.00
03580              -8.20    -5600.00
03581              -6.00    -5200.00
03582              -5.80    -5200.00
03583              -7.00    -5400.00
03584              -7.00    -5200.00
03585              -5.20    -5000.00
03586              -5.80    -5000.00
03587              -7.20    -4800.00
03588              -5.00    -4600.00
03589              -4.60    -4800.00
03590              -6.80    -4600.00
03591              -4.80    -4400.00
03592              -3.80    -4400.00
03593              -6.80    -4400.00
03594              -5.40    -4400.00
03595              -3.40    -4200.00
03596              -5.40    -4000.00
03597              -5.20    -4000.00
03598              -3.40    -4000.00
03599              -4.40    -4000.00
03600              -4.60    -3800.00
03601              -3.80    -3800.00
03602              -3.60    -3600.00
03603              -3.80    -3400.00
03604              -4.20    -3600.00
03605              -3.80    -3400.00
03606              -2.80    -3400.00
03607              -3.40    -3200.00
03608              -3.80    -3200.00
03609              -2.40    -3000.00
03610              -2.60    -2800.00
03611              -3.80    -2800.00
03612              -2.20    -2600.00
03613              -2.00    -2600.00
03614              -3.40    -2400.00
03615              -2.20    -2400.00
03616              -1.40    -2200.00
03617              -2.60    -2000.00
03618              -2.80    -2000.00
03619              -2.20    -2000.00
03620              -2.20    -2000.00
03621              -2.40    -1800.00
03622              -1.40    -1600.00
03623              -1.20    -1600.00
03624              -2.20    -1600.00
03625              -1.80    -1400.00
03626              -1.00    -1200.00
03627              -2.00    -1200.00
03628              -2.00    -1000.00
03629              -0.40    -1000.00
03630              -1.20     -800.00
03631              -1.80     -800.00
03632              -0.20     -600.00
03633              -0.60     -400.00
03634              -1.80     -400.00
03635              -1.00     -200.00
03636               0.20     -200.00
03637              -0.20        0.00
03638              -0.20        0.00
03639              -0.20      200.00
03640               1.00      200.00
03641              -0.20      400.00
03642              -1.00      400.00
03643               0.60      600.00
03644               1.20      600.00
03645               0.20      800.00
03646               4.60      800.00
03647              16.40     1200.00
03648              -5.00     1000.00
03649             -25.00     1000.00
03650              -4.20     1400.00
03651              25.00     1400.00
03652               5.40     1800.00
03653             -25.00     1400.00
03654              25.00     2000.00
03655              25.00     2000.00
03656             -25.00     2000.00
03657             -25.00     2000.00
03658              25.00     2200.00
03659              25.00     2200.00
03660             -25.00     2400.00
03661              15.60     2600.00
03662              25.00     2800.00
03663             -25.00     2600.00
03664             -25.00     3000.00
03665              25.00     2800.00
03666              25.00     2800.00
03667             -25.00     3400.00
03668              25.00     3000.00
03669              25.00     3200.00
03670             -25.00     3200.00
03671             -15.00     3600.00
03672              25.00     3200.00
03673              -2.80     3800.00
03674             -25.00     4000.00
03675              24.20     3600.00
03676              25.00     4000.00
03677             -23.80     4000.00
03678             -25.00     4200.00
03679              25.00     4200.00
03680              21.80     4400.00
03681             -25.00     4400.00
03682              17.40     4400.00
03683              25.00     4400.00
03684             -25.00     4600.00
03685             -15.60     4600.00
03686              25.00     4600.00
03687              -0.40     4800.00
03688             -25.00     5000.00
03689              25.00     5000.00
03690              24.80     4800.00
03691             -25.00     5200.00
03692               9.00     5200.00
03693              25.00     5200.00
03694             -12.60     5600.00
03695              -3.60     5400.00
03696              25.00     5400.00
03697               1.80     5600.00
03698              -7.80     5600.00
03699              20.40     5600.00
03700              12.60     5800.00
03701              -7.60     5800.00
03702              11.40     6000.00
03703              18.60     6000.00
03704              -1.40     6000.00
03705               3.60     6000.00
03706              19.80     6000.00
03707               6.20     6000.00
03708              -1.00     6200.00
03709              16.60     6200.00
03710              13.00     6200.00
03711              -0.60     6200.00
03712              10.80     6200.00
03713              18.00     6200.00
03714               3.60     6400.00
03715               5.40     6400.00
03716              17.80     6400.00
03717              10.00     6400.00
03718               3.60     6400.00
03719              14.00     6400.00
03720              15.40     6400.00
03721               6.00     6400.00
03722               9.40     6400.00
03723              16.20     6600.00
03724              10.60     6600.00
03725               6.80     6400.00
03726              14.20     6600.00
03727              14.60     6600.00
03728               8.40     6600.00
03729              11.00     6800.00
03730              15.80     6400.00
03731              11.40     6800.00
03732               9.20     6400.00
03733              14.80     6400.00
03734              14.20     6400.00
03735              10.00     6600.00
03736              12.40     6800.00
03737              14.60     6600.00
03738              11.60     6600.00
03739              10.60     6600.00
03740              13.00     6400.00
03741              12.60     6600.00
03742              10.60     6400.00
03743              10.80     6600.00
03744              12.20     6400.00
03745              11.40     6400.00
03746               9.80     6400.00
03747              10.60     6400.00
03748              11.60     6400.00
03749               9.40     6400.00
03750               9.00     6200.00
03751              10.80     6200.00
03752               9.80     6400.00
03753               8.40     6200.00
03754               8.60     6200.00
03755               9.40     6000.00
03756               8.20     6200.00
03757               7.80     6000.00
03758               8.60     6000.00
03759               9.20     6000.00
03760               6.80     6000.00
03761               7.60     6000.00
03762               8.40     6000.00
03763               7.40     5800.00
03764               6.60     5600.00
03765               7.40     5600.00
03766               7.60     5600.00
03767               6.60     5600.00
03768               5.80     5400.00
03769               7.00     5400.00
03770               6.20     5400.00
03771               5.20     5400.00
03772               6.20     5200.00
03773               6.60     5200.00
03774               5.20     5200.00
03775               5.20     5000.00
03776               6.00     4800.00
03777               5.40     4800.00
03778               4.20     4800.00
03779               5.20     4600.00
03780               5.80     4600.00
03781               4.20     4600.00
03782               4.20     4400.00
03783               5.40     4400.00
03784               4.40     4200.00
03785               3.80     4400.00
03786               4.20     4200.00
03787               4.60     4000.00
03788               3.60     3800.00
03789               3.40     3800.00
03790               3.80     3800.00
03791               3.80     3600.00
03792               3.00     3600.00
03793               3.40     3600.00
03794               3.80     3600.00
03795               3.00     3200.00
03796               2.60     3200.00
03797               3.00     3200.00
03798               3.00     3000.00
03799               2.40     3000.00
03800               2.40     3000.00
03801               2.60     2800.00
03802               2.60     2800.00
03803               2.00     2600.00
03804               2.00     2400.00
03805               2.60     2400.00
03806               1.80     2200.00
03807               1.40     2200.00
03808               2.20     2000.00
03809               1.80     2000.00
03810               1.20     1800.00
03811               1.80     1800.00
03812               1.80     1600.00
03813               1.40     1400.00
03814               1.00     1400.00
03815               1.20     1400.00
03816               1.20     1200.00
03817               0.80     1200.00
03818               0.40     1000.00
03819               0.80      800.00
03820               0.80      800.00
03821               0.20      600.00
03822              -0.20      600.00
03823               0.40      600.00
03824               0.40      200.00
03825              -0.40        0.00
03826              -0.40      200.00
03827               0.20        0.00
03828               0.20     -200.00
03829              -0.40     -200.00
03830              -0.20     -400.00
03831               0.40     -400.00
03832              -0.60     -400.00
03833              -1.20     -400.00
03834              -0.60     -400.00
03835              -0.60     -800.00
03836               0.20     -800.00
03837              14.60    -1000.00
03838               5.20    -1600.00
03839             -25.00    -1600.00
03840             -22.20    -1200.00
03841              25.00    -1400.00
03842              17.20    -1800.00
03843             -25.00    -1800.00
03844               3.20    -1600.00
03845              25.00    -2000.00
03846             -25.00    -2400.00
03847             -25.00    -1800.00
03848              25.00    -2400.00
03849              25.00    -2600.00
03850             -25.00    -2400.00
03851             -25.00    -2200.00
03852              25.00    -2600.00
03853              25.00    -2800.00
03854             -25.00    -2400.00
03855              25.00    -3200.00
03856              25.00    -3200.00
03857             -25.00    -2800.00
03858               9.40    -3400.00
03859              25.00    -3400.00
03860             -25.00    -3200.00
03861             -25.00    -3400.00
03862              25.00    -3600.00
03863              -1.40    -3400.00
03864             -25.00    -3800.00
03865              -6.20    -4000.00
03866              25.00    -4000.00
03867               3.00    -4000.00
03868             -25.00    -4000.00
03869              19.20    -4200.00
03870              25.00    -4200.00
03871             -25.00    -4400.00
03872             -20.60    -4400.00
03873              25.00    -4400.00
03874             -25.00    -4400.00
03875             -25.00    -4800.00
03876              25.00    -4800.00
03877              -0.20    -4600.00
03878             -25.00    -5000.00
03879              12.20    -5200.00
03880              20.20    -5000.00
03881             -25.00    -5000.00
03882             -13.20    -5200.00
03883              23.00    -5400.00
03884             -20.20    -5600.00
03885             -23.00    -5600.00
03886              16.40    -5600.00
03887             -10.80    -5600.00
03888             -25.00    -5600.00
03889              10.00    -5600.00
03890              -3.80    -5800.00
03891             -25.00    -6000.00
03892              -0.20    -5800.00
03893               1.80    -6000.00
03894             -21.00    -5800.00
03895             -12.00    -6000.00
03896               5.80    -6000.00
03897             -12.60    -6000.00
03898             -22.00    -6000.00
03899               2.00    -6200.00
03900              -3.80    -6400.00
03901             -23.40    -6400.00
03902              -7.80    -6400.00
03903               2.00    -6400.00
03904             -17.80    -6400.00
03905             -17.00    -6600.00
03906              -0.40    -6400.00
03907              -9.20    -6400.00
03908             -21.40    -6400.00
03909              -7.60    -6600.00
03910              -3.00    -6600.00
03911             -18.00    -6600.00
03912             -15.60    -6600.00
03913              -4.40    -6600.00
03914             -11.20    -6600.00
03915             -18.80    -6600.00
03916              -9.80    -6600.00
03917              -6.60    -6800.00
03918             -16.60    -6600.00
03919             -15.60    -6600.00
03920              -7.60    -6800.00
03921             -11.80    -6600.00
03922             -17.40    -6600.00
03923             -11.60    -6800.00
03924              -8.60    -6800.00
03925             -15.60    -6800.00
03926             -15.40    -6800.00
03927              -9.40    -6600.00
03928             -12.20    -6600.00
03929             -15.80    -6600.00
03930             -11.80    -6600.00
03931              -9.80    -6600.00
03932             -13.20    -6600.00
03933             -13.80    -6600.00
03934             -10.60    -6600.00
03935             -10.20    -6600.00
03936             -12.60    -6400.00
03937             -12.20    -6600.00
03938              -9.00    -6400.00
03939             -10.20    -6400.00
03940             -13.00    -6600.00
03941             -10.00    -6400.00
03942              -8.40    -6400.00
03943             -11.00    -6400.00
03944             -11.00    -6200.00
03945              -7.60    -6200.00
03946              -8.60    -6200.00
03947             -11.20    -6200.00
03948              -8.60    -6000.00
03949              -6.80    -6000.00
03950              -9.80    -6000.00
03951              -9.80    -6000.00
03952              -7.00    -6000.00
03953              -7.60    -6000.00
03954              -9.80    -5800.00
03955              -7.80    -5800.00
03956              -6.00    -5800.00
03957              -8.40    -5800.00
03958              -8.60    -5600.00
03959              -6.00    -5600.00
03960              -6.60    -5600.00
03961              -8.40    -5400.00
03962              -6.80    -5400.00
03963              -5.20    -5200.00
03964              -7.00    -5200.00
03965              -7.40    -5200.00
03966              -5.60    -5000.00
03967              -5.80    -5000.00
03968              -7.20    -4800.00
03969              -5.60    -4600.00
03970              -4.20    -4800.00
03971              -6.00    -4600.00
03972              -6.80    -4600.00
03973              -4.20    -4600.00
03974              -4.60    -4400.00
03975              -6.60    -4400.00
03976              -4.60    -4400.00
03977              -3.80    -4200.00
03978              -5.20    -4200.00
03979              -4.40    -4000.00
03980              -4.60    -4000.00
03981              -3.80    -3800.00
03982              -3.60    -4000.00
03983              -4.40    -3600.00
03984              -4.20    -3400.00
03985              -3.00    -3600.00
03986              -4.40    -3400.00
03987              -4.40    -3400.00
03988              -2.80    -3200.00
03989              -3.40    -3200.00
03990              -4.00    -3000.00
03991              -2.20    -3000.00
03992              -2.60    -2800.00
03993              -3.80    -2800.00
03994              -2.80    -2600.00
03995              -2.20    -2400.00
03996              -2.80    -2600.00
03997              -2.80    -2400.00
03998              -2.00    -2400.00
03999              -2.80    -2000.00
04000              -2.20    -2000.00
04001              -1.20    -1800.00
04002              -2.60    -1800.00
04003              -2.00    -1800.00
04004              -0.60    -1600.00
04005              -3.00    -1400.00
04006              -1.20    -1600.00
04007              -1.00    -1200.00
04008              -2.20    -1200.00
04009              -0.60    -1000.00
04010              -0.20     -800.00
04011              -1.40     -800.00
04012              -1.60     -800.00
04013              -0.20     -600.00
04014              -0.60     -600.00
04015              -1.20     -400.00
04016              -0.60     -400.00
04017              -0.20     -200.00
04018              -0.60     -200.00
04019              -0.20        0.00
04020              -0.20        0.00
04021              -0.20        0.00
04022               1.20      400.00
04023              -0.40      400.00
04024              -0.60      400.00
04025               1.20      600.00
04026               0.40      800.00
04027               0.80      800.00
04028               8.60     1200.00
04029              13.20     1200.00
04030             -19.80     1200.00
04031             -25.00     1200.00
04032              25.00     1400.00
04033              25.00     1600.00
04034             -25.00     1600.00
04035             -25.00     1800.00
04036              25.00     1800.00
04037              25.00     2000.00
04038             -25.00     1800.00
04039             -25.00     2200.00
04040              25.00     2400.00
04041              -6.00     2200.00
04042             -25.00     2600.00
04043              25.00     2600.00
04044              25.00     2600.00
04045             -25.00     2800.00
04046              20.40     2800.00
04047              25.00     3000.00
04048             -25.00     2800.00
04049             -25.00     3400.00
04050              25.00     3200.00
04051              19.00     3200.00
04052             -25.00     3600.00
04053              25.00     3400.00
04054              25.00     3400.00
04055             -25.00     3800.00
04056             -25.00     4000.00
04057              25.00     3800.00
04058              25.00     4000.00
04059             -25.00     4000.00
04060              -0.60     4000.00
04061              25.00     4200.00
04062             -12.80     4400.00
04063             -25.00     4400.00
04064              25.00     4400.00
04065              22.00     4600.00
04066             -25.00     4600.00
04067              17.80     4600.00
04068              25.00     4800.00
04069             -25.00     4800.00
04070             -11.00     4800.00
04071              25.00     5200.00
04072               0.20     5200.00
04073             -22.20     5200.00
04074              25.00     5200.00
04075              17.60     5400.00
04076             -18.20     5400.00
04077              13.00     5400.00
04078              23.20     5600.00
04079              -9.80     5600.00
04080               4.20     5600.00
04081              22.80     5600.00
04082               1.00     5600.00
04083              -2.80     5800.00
04084              18.80     5800.00
04085              10.60     6000.00
04086              -3.80     6000.00
04087              12.40     6000.00
04088              17.00     6000.00
04089              -0.20     6000.00
04090               5.40     6200.00
04091              19.00     6000.00
04092               5.40     6200.00
04093               1.40     6200.00
04094              17.00     6200.00
04095              12.60     6200.00
04096               1.20     6400.00
04097              11.40     6400.00
04098              16.60     6400.00
04099               5.20     6400.00
04100               7.00     6600.00
04101              16.60     6400.00
04102              11.60     6600.00
04103               5.40     6400.00
04104              13.00     6400.00
04105              15.40     6600.00
04106               7.80     6400.00
04107               9.60     6800.00
04108              15.80     6600.00
04109              11.80     6600.00
04110               7.80     6600.00
04111              13.80     6600.00
04112              14.80     6600.00
04113               9.20     6600.00
04114              11.00     6400.00
04115              15.40     6400.00
04116              12.40     6600.00
04117               9.80     6800.00
04118              13.80     6600.00
04119              14.00     6800.00
04120              10.60     6600.00
04121              11.60     6600.00
04122              13.80     6400.00
04123              12.20     6400.00
04124               9.80     6400.00
04125              11.60     6600.00
04126              12.60     6400.00
04127              10.40     6400.00
04128               9.40     6400.00
04129              11.60     6400.00
04130              11.40     6400.00
04131               8.60     6400.00
04132               9.60     6200.00
04133              11.40     6400.00
04134               9.80     6200.00
04135               8.60     6200.00
04136               9.20     6200.00
04137               9.40     6200.00
04138               7.60     6000.00
04139               7.80     6000.00
04140               9.40     6000.00
04141               9.00     6000.00
04142               6.60     6000.00
04143               8.20     6000.00
04144               8.40     6000.00
04145               6.80     5800.00
04146               6.20     5600.00
04147               8.40     5600.00
04148               6.80     5600.00
04149               5.80     5600.00
04150               6.80     5400.00
04151               7.20     5400.00
04152               5.80     5200.00
04153               5.20     5400.00
04154               6.80     5200.00
04155               6.60     5200.00
04156               4.20     5000.00
04157               5.20     4800.00
04158               6.80     4800.00
04159               5.00     4800.00
04160               3.60     4800.00
04161               5.80     4600.00
04162               5.80     4600.00
04163               3.60     4600.00
04164               4.40     4400.00
04165               5.80     4400.00
04166               3.80     4400.00
04167               3.60     4200.00
04168               5.00     4000.00
04169               4.00     3800.00
04170               2.80     4000.00
04171               3.80     3800.00
04172               4.20     3800.00
04173               3.00     3600.00
04174               3.00     3600.00
04175               4.20     3400.00
04176               3.40     3400.00
04177               2.60     3600.00
04178               2.80     3200.00
04179               2.80     3200.00
04180               2.40     3000.00
04181               2.60     3000.00
04182               2.80     2800.00
04183               2.20     2800.00
04184               2.60     2800.00
04185               2.40     2600.00
04186               1.80     2400.00
04187               2.40     2400.00
04188               2.00     2200.00
04189               1.20     2200.00
04190               2.60     2000.00
04191               1.80     2000.00
04192               0.80     1800.00
04193               1.80     1800.00
04194               1.40     1600.00
04195               1.20     1800.00
04196               1.20     1400.00
04197               1.60     1200.00
04198               1.00     1200.00
04199               0.20     1200.00
04200               0.80     1000.00
04201               1.20      800.00
04202              -0.20      800.00
04203               0.40      600.00
04204               0.80      600.00
04205               0.40      400.00
04206              -0.40      400.00
04207               0.40      400.00
04208               0.00        0.00
04209              -0.40        0.00
04210               0.20     -200.00
04211               0.20     -200.00
04212              -0.40     -200.00
04213               0.20     -400.00
04214              -0.60     -400.00
04215              -1.40     -600.00
04216              -0.40     -800.00
04217              -0.40     -800.00
04218               3.40    -1000.00
04219              19.00    -1000.00
04220             -15.80    -1200.00
04221             -25.00    -1200.00
04222              25.00    -1200.00
04223              25.00    -1400.00
04224             -25.00    -2000.00
04225             -25.00    -1400.00
04226              25.00    -1800.00
04227              25.00    -2000.00
04228             -25.00    -2200.00
04229             -25.00    -1800.00
04230              25.00    -2400.00
04231              25.00    -2600.00
04232             -25.00    -2000.00
04233              25.00    -2600.00
04234              25.00    -2800.00
04235             -25.00    -2600.00
04236             -25.00    -2800.00
04237              25.00    -3000.00
04238              25.00    -3200.00
04239             -25.00    -2800.00
04240              25.00    -3200.00
04241              25.00    -3400.00
04242             -25.00    -3200.00
04243              25.00    -3600.00
04244              25.00    -3600.00
04245             -25.00    -3600.00
04246             -25.00    -3800.00
04247              16.40    -4000.00
04248              25.00    -4000.00
04249             -25.00    -4200.00
04250             -25.00    -4000.00
04251              25.00    -4200.00
04252              14.00    -4200.00
04253             -25.00    -4400.00
04254              25.00    -4400.00
04255              25.00    -4400.00
04256             -25.00    -4400.00
04257              -6.40    -4800.00
04258              25.00    -4600.00
04259             -25.00    -4600.00
04260             -25.00    -5200.00
04261              25.00    -5000.00
04262              -1.20    -5000.00
04263             -25.00    -5000.00
04264               7.40    -5200.00
04265              13.20    -5400.00
04266             -25.00    -5200.00
04267              -5.20    -5600.00
04268              15.40    -5600.00
04269             -25.00    -5400.00
04270             -11.60    -5600.00
04271              11.60    -5800.00
04272             -16.60    -5600.00
04273             -18.20    -5600.00
04274               5.00    -6000.00
04275              -6.00    -5800.00
04276             -21.20    -6000.00
04277              -4.00    -6000.00
04278               2.40    -6000.00
04279             -19.80    -6200.00
04280             -15.00    -6200.00
04281               4.40    -6200.00
04282             -12.20    -6400.00
04283             -20.40    -6400.00
04284              -0.80    -6200.00
04285              -4.60    -6400.00
04286             -21.80    -6400.00
04287             -10.60    -6600.00
04288               0.00    -6400.00
04289             -15.60    -6600.00
04290             -17.40    -6600.00
04291              -3.40    -6600.00
04292              -8.60    -6600.00
04293             -19.80    -6800.00
04294             -10.80    -6600.00
04295              -5.00    -6600.00
04296             -16.00    -6600.00
04297             -16.20    -6600.00
04298              -6.20    -6600.00
04299             -10.60    -6600.00
04300             -19.00    -6800.00
04301             -11.40    -6800.00
04302              -8.00    -6800.00
04303             -15.80    -6600.00
04304             -15.60    -6600.00
04305              -8.60    -6600.00
04306             -11.00    -6600.00
04307             -17.00    -6600.00
04308             -13.40    -6600.00
04309              -9.20    -6800.00
04310             -14.00    -6600.00
04311             -16.40    -6800.00
04312             -10.20    -6600.00
04313              -9.80    -6600.00
04314             -14.80    -6600.00
04315             -13.80    -6400.00
04316              -8.60    -6600.00
04317             -11.00    -6600.00
04318             -15.00    -6400.00
04319              -9.40    -6600.00
04320              -7.40    -6600.00
04321             -13.60    -6400.00
04322             -13.00    -6600.00
04323              -7.00    -6400.00
04324              -8.60    -6400.00
04325             -13.80    -6400.00
04326              -9.20    -6200.00
04327              -6.00    -6200.00
04328             -11.20    -6400.00
04329             -11.60    -6000.00
04330              -6.60    -6000.00
04331              -7.00    -6000.00
04332             -10.80    -6000.00
04333              -9.20    -6000.00
04334              -5.60    -6000.00
04335              -7.80    -5800.00
04336             -10.60    -5800.00
04337              -6.60    -5600.00
04338              -5.40    -5800.00
04339              -9.80    -5600.00
04340              -8.60    -5800.00
04341              -5.20    -5600.00
04342              -6.80    -5600.00
04343              -8.60    -5400.00
04344              -6.20    -5200.00
04345              -5.20    -5200.00
04346              -7.60    -5200.00
04347              -7.00    -5000.00
04348              -5.40    -5000.00
04349              -6.00    -5000.00
04350              -7.00    -4600.00
04351              -5.40    -4800.00
04352              -4.60    -4600.00
04353              -5.80    -4600.00
04354              -5.80    -4600.00
04355              -4.60    -4400.00
04356              -6.20    -4400.00
04357              -5.20    -4400.00
04358              -4.20    -4200.00
04359              -4.60    -4200.00
04360              -5.00    -4200.00
04361              -4.40    -4000.00
04362              -4.60    -4000.00
04363              -3.60    -3800.00
04364              -4.40    -3600.00
04365              -4.80    -3600.00
04366              -3.20    -3600.00
04367              -3.40    -3400.00
04368              -5.20    -3400.00
04369              -3.20    -3200.00
04370              -2.60    -3200.00
04371              -3.80    -3000.00
04372              -3.60    -3000.00
04373              -2.00    -2800.00
04374              -3.60    -2800.00
04375              -3.80    -2600.00
04376              -1.80    -2600.00
04377              -2.60    -2400.00
04378              -3.60    -2400.00
04379              -2.00    -2400.00
04380              -1.40    -2200.00
04381              -2.80    -2000.00
04382              -2.00    -2000.00
04383              -1.80    -1800.00
04384              -2.20    -1800.00
04385              -1.80    -1800.00
04386              -2.20    -1600.00
04387              -1.80    -1400.00
04388              -0.80    -1200.00
04389              -2.00    -1000.00
04390              -1.80    -1200.00
04391              -0.60    -1000.00
04392              -1.00     -800.00
04393              -1.20     -800.00
04394              -1.20     -800.00
04395              -0.80     -600.00
04396              -0.40     -400.00
04397              -0.60     -400.00
04398              -0.60     -200.00
04399              -0.40     -200.00
04400              -0.20        0.00
04401              -0.20        0.00
04402              -0.40        0.00
04403               1.00      200.00
04404               0.60      400.00
04405              -0.60      400.00
04406               0.40      600.00
04407               1.00      600.00
04408               0.20      600.00
04409               2.80      800.00
04410              13.80     1200.00
04411               3.00     1200.00
04412             -25.00     1200.00
04413             -25.00     1200.00
04414              25.00     1400.00
04415              25.00     1800.00
04416             -25.00     1400.00
04417             -24.40     2000.00
04418              25.00     2000.00
04419               8.60     2000.00
04420             -25.00     2000.00
04421              25.00     2000.00
04422              25.00     2400.00
04423             -25.00     2200.00
04424             -25.00     2800.00
04425              25.00     2600.00
04426              -0.80     2600.00
04427             -25.00     3000.00
04428              25.00     2800.00
04429              25.00     2800.00
04430             -25.00     3200.00
04431              24.40     3200.00
04432              25.00     3200.00
04433             -25.00     3200.00
04434             -25.00     3600.00
04435              25.00     3200.00
04436              25.00     3600.00
04437             -25.00     4000.00
04438               3.80     3800.00
04439              25.00     3800.00
04440              -3.80     4000.00
04441             -25.00     4200.00
04442              25.00     3800.00
04443              25.00     4400.00
04444             -25.00     4400.00
04445              -5.20     4600.00
04446              25.00     4400.00
04447             -11.60     4600.00
04448             -25.00     4600.00
04449              25.00     4600.00
04450              18.80     4800.00
04451             -25.00     4800.00
04452              17.80     4800.00
04453              25.00     5000.00
04454             -21.40     5200.00
04455              -4.60     5200.00
04456              25.00     5400.00
04457              -2.80     5400.00
04458             -10.80     5400.00
04459              25.00     5400.00
04460              10.40     5600.00
04461             -11.40     5600.00
04462              15.00     5600.00
04463              18.20     5600.00
04464              -6.00     5800.00
04465               5.60     5800.00
04466              21.00     6000.00
04467               3.40     6000.00
04468              -1.00     6000.00
04469              18.20     6000.00
04470              10.80     6000.00
04471              -2.20     6000.00
04472              13.20     6200.00
04473              17.20     6200.00
04474               1.00     6200.00
04475               5.80     6200.00
04476              19.00     6200.00
04477               7.60     6400.00
04478               2.60     6200.00
04479              15.80     6200.00
04480              14.20     6400.00
04481               3.00     6600.00
04482              10.20     6200.00
04483              17.00     6400.00
04484               7.80     6600.00
04485               6.80     6400.00
04486              15.80     6600.00
04487              13.80     6400.00
04488               6.60     6400.00
04489              12.20     6400.00
04490              16.20     6400.00
04491               9.40     6600.00
04492               9.00     6600.00
04493              15.60     6600.00
04494              13.00     6800.00
04495               8.20     6800.00
04496              13.20     6600.00
04497              15.20     6600.00
04498              10.20     6800.00
04499              10.80     6600.00
04500              15.00     6600.00
04501              12.60     6600.00
04502              10.00     6600.00
04503              13.00     6600.00
04504              13.20     6600.00
04505              10.80     6400.00
04506              10.20     6600.00
04507              12.20     6400.00
04508              11.60     6600.00
04509               9.80     6400.00
04510              10.40     6400.00
04511              11.60     6400.00
04512              10.00     6400.00
04513               9.20     6400.00
04514              10.20     6400.00
04515              10.40     6200.00
04516               9.00     6200.00
04517               8.40     6200.00
04518              10.00     6200.00
04519               9.80     6200.00
04520               8.00     6200.00
04521               7.20     6200.00
04522               8.60     6000.00
04523               9.00     6000.00
04524               6.80     6000.00
04525               8.40     6000.00
04526               8.60     5800.00
04527               6.00     5600.00
04528               6.80     5600.00
04529               8.20     5600.00
04530               6.60     5600.00
04531               6.20     5600.00
04532               7.40     5400.00
04533               6.80     5400.00
04534               5.60     5400.00
04535               5.80     5400.00
04536               6.20     5200.00
04537               5.80     5200.00
04538               5.20     5000.00
04539               5.40     4800.00
04540               5.80     4800.00
04541               4.60     4800.00
04542               4.80     4600.00
04543               5.80     4800.00
04544               4.60     4400.00
04545               3.80     4600.00
04546               5.00     4400.00
04547               4.80     4400.00
04548               3.60     4200.00
04549               3.80     4000.00
04550               4.40     4000.00
04551               3.80     4000.00
04552               3.40     3800.00
04553               3.40     3800.00
04554               3.60     3800.00
04555               3.60     3800.00
04556               2.80     3600.00
04557               3.20     3400.00
04558               3.20     3400.00
04559               2.60     3200.00
04560               2.60     3200.00
04561               2.80     3200.00
04562               2.80     3000.00
04563               2.60     2800.00
04564               2.20     2800.00
04565               2.60     2800.00
04566               2.00     2600.00
04567               1.80     2600.00
04568               2.00     2400.00
04569               2.20     2200.00
04570               1.80     2200.00
04571               1.80     2000.00
04572               2.00     2000.00
04573               1.00     1800.00
04574               1.40     1800.00
04575               1.40     1800.00
04576               1.40     1800.00
04577               1.00     1600.00
04578               1.00     1400.00
04579               1.40     1200.00
04580               1.00     1200.00
04581               0.40     1200.00
04582               0.60      800.00
04583               0.80      800.00
04584               0.40      600.00
04585               0.20      600.00
04586               0.40      400.00
04587               0.40      400.00
04588              -0.20      400.00
04589              -0.40      200.00
04590              -0.40        0.00
04591               0.40        0.00
04592              -0.20     -200.00
04593              -0.20     -200.00
04594               0.60     -400.00
04595               0.20     -400.00
04596              -1.20     -400.00
04597              -0.60     -600.00
04598              -0.40     -800.00
04599              -0.60     -800.00
04600              10.20     -800.00
04601              14.00    -1400.00
04602             -25.00    -1600.00
04603             -25.00    -1000.00
04604              25.00    -1400.00
04605              25.00    -1600.00
04606             -25.00    -1800.00
04607             -25.00    -1400.00
04608              25.00    -1800.00
04609              25.00    -2200.00
04610             -25.00    -1800.00
04611              25.00    -2200.00
04612              25.00    -2400.00
04613             -25.00    -2600.00
04614             -25.00    -2000.00
04615              25.00    -2600.00
04616              25.00    -2800.00
04617             -25.00    -2400.00
04618              25.00    -3000.00
04619              25.00    -3200.00
04620             -25.00    -3000.00
04621             -25.00    -3200.00
04622              25.00    -3400.00
04623             -25.00    -3200.00
04624             -25.00    -3400.00
04625              25.00    -3600.00
04626              25.00    -3600.00
04627             -25.00    -3600.00
04628             -21.20    -4000.00
04629              25.00    -4000.00
04630              23.60    -4000.00
04631             -25.00    -4200.00
04632             -10.40    -4200.00
04633              25.00    -4400.00
04634             -25.00    -4200.00
04635             -25.00    -4400.00
04636              25.00    -4600.00
04637              -3.00    -4400.00
04638             -25.00    -4600.00
04639              25.00    -4800.00
04640              22.00    -4800.00
04641             -25.00    -4800.00
04642              -4.20    -5000.00
04643              25.00    -5200.00
04644             -24.20    -5200.00
04645             -25.00    -5200.00
04646              21.40    -5200.00
04647              -6.80    -5200.00
04648             -25.00    -5600.00
04649              10.80    -5600.00
04650               1.00    -5600.00
04651             -25.00    -5400.00
04652               2.80    -5800.00
04653               4.40    -5600.00
04654             -23.80    -5600.00
04655              -7.60    -5800.00
04656               5.40    -6000.00
04657             -15.40    -6000.00
04658             -18.00    -5800.00
04659               3.60    -6000.00
04660              -4.60    -6200.00
04661             -23.40    -6000.00
04662              -4.40    -6200.00
04663               2.60    -6400.00
04664             -21.40    -6000.00
04665             -14.80    -6400.00
04666               4.40    -6400.00
04667             -12.40    -6400.00
04668             -22.00    -6400.00
04669              -2.80    -6400.00
04670              -3.60    -6600.00
04671             -22.00    -6600.00
04672             -12.00    -6600.00
04673              -0.60    -6400.00
04674             -15.40    -6800.00
04675             -18.60    -6600.00
04676              -5.40    -6600.00
04677              -8.20    -6600.00
04678             -19.40    -6600.00
04679             -12.40    -6600.00
04680              -5.40    -6600.00
04681             -14.80    -6600.00
04682             -17.60    -6600.00
04683              -8.40    -6800.00
04684             -10.20    -6600.00
04685             -17.40    -6600.00
04686             -13.20    -6600.00
04687              -8.60    -6800.00
04688             -14.00    -6800.00
04689             -16.60    -6800.00
04690             -10.60    -6600.00
04691             -10.80    -6600.00
04692             -15.80    -6600.00
04693             -13.40    -6600.00
04694              -9.80    -6600.00
04695             -12.40    -6800.00
04696             -15.00    -6600.00
04697             -11.40    -6600.00
04698              -9.80    -6400.00
04699             -12.60    -6600.00
04700             -13.00    -6600.00
04701              -9.40    -6400.00
04702              -9.80    -6600.00
04703             -12.80    -6400.00
04704             -10.80    -6400.00
04705              -8.20    -6400.00
04706             -10.40    -6400.00
04707             -11.80    -6400.00
04708              -8.40    -6400.00
04709              -8.20    -6200.00
04710             -10.80    -6000.00
04711             -10.00    -6200.00
04712              -7.00    -6000.00
04713              -8.20    -6000.00
04714             -10.40    -6000.00
04715              -7.80    -6000.00
04716              -6.20    -5800.00
04717              -9.40    -5800.00
04718              -9.20    -5800.00
04719              -5.40    -5800.00
04720              -7.00    -5600.00
04721              -9.40    -5600.00
04722              -6.60    -5600.00
04723              -5.60    -5600.00
04724              -8.40    -5400.00
04725              -7.60    -5400.00
04726              -4.60    -5200.00
04727              -6.20    -5200.00
04728              -8.00    -5000.00
04729              -5.40    -5000.00
04730              -5.00    -5000.00
04731              -7.00    -5000.00
04732              -6.40    -5000.00
04733              -4.40    -4600.00
04734              -5.80    -4800.00
04735              -6.80    -4600.00
04736              -4.20    -4400.00
04737              -4.20    -4400.00
04738              -7.00    -4400.00
04739              -4.80    -4200.00
04740              -4.20    -4200.00
04741              -5.20    -4200.00
04742              -5.20    -4000.00
04743              -4.20    -4000.00
04744              -4.40    -4000.00
04745              -4.20    -4000.00
04746              -4.40    -3600.00
04747              -3.80    -3600.00
04748              -3.60    -3600.00
04749              -4.20    -3400.00
04750              -4.20    -3200.00
04751              -3.00    -3200.00
04752              -3.40    -3200.00
04753              -3.80    -3000.00
04754              -3.00    -3000.00
04755              -2.60    -2800.00
04756              -3.80    -2600.00
04757              -3.40    -2800.00
04758              -2.60    -2600.00
04759              -2.80    -2400.00
04760              -3.00    -2400.00
04761              -2.20    -2200.00
04762              -2.00    -2000.00
04763              -2.00    -2000.00
04764              -2.80    -2000.00
04765              -2.20    -2000.00
04766              -1.00    -1800.00
04767              -2.20    -1600.00
04768              -2.80    -1600.00
04769              -1.00    -1400.00
04770              -0.40    -1200.00
04771              -2.80    -1200.00
04772              -2.60    -1200.00
04773               1.80     -800.00
04774              -2.00     -800.00
04775              -2.80     -800.00
04776               0.80     -800.00
04777              -0.80     -400.00
04778              -1.20     -400.00
04779              -1.00     -400.00
04780               0.60     -200.00
04781              -0.60     -200.00
04782              -0.80        0.00
04783               1.60        0.00
04784              -0.20      200.00
04785               0.20      400.00
04786               0.20      400.00
04787               0.40      400.00
04788               0.60      600.00
04789              -1.00      600.00
04790               2.00      800.00
04791               7.00     1000.00
04792              15.00     1200.00
04793             -10.60     1200.00
04794             -25.00     1200.00
04795              12.60     1200.00
04796              25.00     1400.00
04797             -10.60     1800.00
04798             -25.00     1400.00
04799              25.00     1800.00
04800              25.00     2000.00
04801             -25.00     1800.00
04802             -25.00     2200.00
04803              25.00     2200.00
04804              25.00     2200.00
04805             -25.00     2400.00
04806              25.00     2600.00
04807              25.00     2800.00
04808             -25.00     2600.00
04809             -25.00     2800.00
04810              25.00     2800.00
04811             -12.40     2800.00
04812             -25.00     3400.00
04813              25.00     3000.00
04814              25.00     3200.00
04815             -25.00     3200.00
04816               5.40     3600.00
04817              25.00     3200.00
04818             -19.00     3800.00
04819             -25.00     3800.00
04820              25.00     3800.00
04821              25.00     4000.00
04822             -25.00     4000.00
04823             -20.00     4000.00
04824              25.00     4000.00
04825              10.00     4200.00
04826             -25.00     4400.00
04827              25.00     4400.00
04828              25.00     4600.00
04829             -25.00     4600.00
04830              -3.80     4600.00
04831              25.00     4800.00
04832             -11.40     4800.00
04833             -25.00     4800.00
04834              25.00     4800.00
04835              16.00     5200.00
04836             -25.00     5200.00
04837              16.40     5200.00
04838              25.00     5200.00
04839             -15.40     5400.00
04840               2.60     5200.00
04841              25.00     5600.00
04842              -2.40     5600.00
04843              -3.00     5600.00
04844              21.40     5600.00
04845               8.20     5800.00
04846              -5.40     5600.00
04847              14.20     5600.00
04848              15.60     6000.00
04849              -2.00     6000.00
04850               7.00     6000.00
04851              18.60     6000.00
04852               4.20     6000.00
04853               2.00     6200.00
04854              17.40     6200.00
04855              10.60     6000.00
04856               0.60     6200.00
04857              13.20     6200.00
04858              16.40     6200.00
04859               2.60     6400.00
04860               7.80     6400.00
04861              17.80     6400.00
04862               8.00     6400.00
04863               5.20     6400.00
04864              14.80     6400.00
04865              14.00     6600.00
04866               5.80     6400.00
04867              10.80     6400.00
04868              15.40     6600.00
04869               9.80     6400.00
04870               8.40     6600.00
04871              14.00     6600.00
04872              14.80     6600.00
04873               8.20     6600.00
04874              11.40     6600.00
04875              16.20     6600.00
04876              10.20     6600.00
04877               9.80     6400.00
04878              15.40     6600.00
04879              13.00     6600.00
04880               9.40     6600.00
04881              13.20     6800.00
04882              13.20     6400.00
04883              10.20     6400.00
04884              12.40     6400.00
04885              12.60     6400.00
04886              11.60     6400.00
04887              11.60     6400.00
04888              11.00     6400.00
04889              11.00     6600.00
04890              11.40     6400.00
04891              10.00     6400.00
04892              10.60     6400.00
04893              11.60     6400.00
04894               9.20     6400.00
04895               9.20     6200.00
04896              10.80     6200.00
04897               9.40     6200.00
04898               8.20     6200.00
04899               9.40     6200.00
04900              10.00     6200.00
04901               7.80     6200.00
04902               8.60     6000.00
04903               9.00     6000.00
04904               8.20     6000.00
04905               6.80     6000.00
04906               7.60     6000.00
04907               8.60     5800.00
04908               7.60     5800.00
04909               5.80     5800.00
04910               8.60     5600.00
04911               9.00     5600.00
04912               3.80     5600.00
04913               6.60     5600.00
04914               9.40     5400.00
04915               4.40     5400.00
04916               4.60     5200.00
04917               9.00     5200.00
04918               6.00     5000.00
04919               3.40     4800.00
04920               6.20     5000.00
04921               6.80     5200.00
04922               3.40     4800.00
04923               5.00     4800.00
04924               6.80     4600.00
04925               4.60     4600.00
04926               3.80     4600.00
04927               4.20     4400.00
04928               4.60     4400.00
04929               4.20     4400.00
04930               4.60     4200.00
04931               4.20     4000.00
04932               4.20     4000.00
04933               3.80     4000.00
04934               3.60     3800.00
04935               3.60     3800.00
04936               3.00     3600.00
04937               2.80     3600.00
04938               3.60     3600.00
04939               3.60     3600.00
04940               1.80     3200.00
04941               2.80     3200.00
04942               3.80     3000.00
04943               2.00     3000.00
04944               1.80     2800.00
04945               3.60     2800.00
04946               2.40     2800.00
04947               1.20     2800.00
04948               2.60     2600.00
04949               2.60     2400.00
04950               1.40     2400.00
04951               1.00     2200.00
04952               1.80     2200.00
04953               2.20     2000.00
04954               1.20     2000.00
04955               1.00     2000.00
04956               2.20     1800.00
04957               2.00     1600.00
04958               0.20     1600.00
04959               0.60     1400.00
04960               1.80     1400.00
04961               0.60     1200.00
04962               0.20     1000.00
04963               1.40      800.00
04964               1.00      800.00
04965              -0.40      800.00
04966               0.20      600.00
04967               1.00      400.00
04968               0.20      400.00
04969              -0.20      400.00
04970               0.40      200.00
04971               0.20        0.00
04972              -0.60        0.00
04973              -0.20        0.00
04974               0.40     -200.00
04975              -0.40     -200.00
04976               0.20     -400.00
04977               0.40     -400.00
04978              -1.20     -800.00
04979              -1.00     -600.00
04980               0.00     -800.00
04981               1.40     -800.00
04982              16.60    -1200.00
04983              -1.80    -1600.00
04984             -25.00    -1200.00
04985              -0.60    -1000.00
04986              25.00    -1400.00
04987              -2.20    -1800.00
04988             -25.00    -1600.00
04989              25.00    -1600.00
04990              25.00    -2000.00
04991             -25.00    -2400.00
04992             -25.00    -1800.00
04993              25.00    -2400.00
04994              25.00    -2600.00
04995             -25.00    -2400.00
04996             -25.00    -2400.00
04997              25.00    -2800.00
04998               2.20    -3000.00
04999             -25.00    -2600.00
05000              25.00    -3200.00
