Unit:(mV)
                     CH1         CH2
Frequency              ? 261.997 kHz
00001               0.20     2000.00
00002               0.40     1600.00
00003              -0.60     1600.00
00004              -0.60     1400.00
00005               0.60     1400.00
00006              -0.60     1200.00
00007              -0.40      800.00
00008               0.60      800.00
00009              -0.40      600.00
00010              -0.80      600.00
00011              -0.20      400.00
00012              -0.20      200.00
00013               0.20        0.00
00014               0.00        0.00
00015               0.40     -200.00
00016               1.60     -400.00
00017              -0.20     -600.00
00018              -1.80     -800.00
00019               0.20     -800.00
00020               0.20    -1000.00
00021              -1.00    -1200.00
00022               1.20    -1400.00
00023              17.40    -1600.00
00024              12.20    -2000.00
00025             -25.00    -2200.00
00026             -25.00    -2200.00
00027              19.40    -2000.00
00028              25.00    -2400.00
00029             -25.00    -2800.00
00030             -25.00    -2200.00
00031              25.00    -2800.00
00032              25.00    -3200.00
00033             -25.00    -3200.00
00034             -25.00    -3200.00
00035              25.00    -3600.00
00036               6.40    -3400.00
00037             -25.00    -3400.00
00038              25.00    -4000.00
00039              25.00    -4000.00
00040             -25.00    -4000.00
00041              25.00    -4400.00
00042               5.00    -4400.00
00043             -25.00    -4400.00
00044              -7.00    -4800.00
00045              13.00    -4800.00
00046              25.00    -5000.00
00047             -25.00    -5000.00
00048             -25.00    -5400.00
00049              25.00    -5600.00
00050             -25.00    -5400.00
00051             -25.00    -5800.00
00052              25.00    -5800.00
00053               6.00    -6000.00
00054             -25.00    -6200.00
00055               8.40    -6200.00
00056              25.00    -6200.00
00057             -25.00    -6600.00
00058             -25.00    -6600.00
00059              25.00    -6800.00
00060             -10.20    -6600.00
00061             -25.00    -7200.00
00062              25.00    -7200.00
00063               2.60    -7200.00
00064             -25.00    -7400.00
00065               6.80    -7400.00
00066              11.80    -7600.00
00067             -11.40    -7600.00
00068              -6.60    -7800.00
00069              12.40    -8000.00
00070              -5.20    -8000.00
00071              -7.60    -8000.00
00072               5.20    -8200.00
00073               0.40    -8200.00
00074              -6.40    -8400.00
00075              -1.60    -8400.00
00076               9.20    -8600.00
00077              -7.00    -8400.00
00078              -8.40    -8800.00
00079              11.60    -8800.00
00080              -5.40    -8800.00
00081             -10.60    -8800.00
00082               9.20    -9000.00
00083               2.00    -9000.00
00084             -10.80    -9200.00
00085               2.00    -9000.00
00086               6.80    -9200.00
00087              -9.80    -9200.00
00088              -3.80    -9200.00
00089               8.60    -9200.00
00090              -3.60    -9600.00
00091              -7.00    -9400.00
00092               3.60    -9600.00
00093               1.20    -9600.00
00094              -6.60    -9600.00
00095              -1.80    -9600.00
00096               3.80    -9600.00
00097              -2.60    -9800.00
00098              -4.60    -9600.00
00099               1.80    -9800.00
00100               0.40    -9800.00
00101              -5.40    -9800.00
00102              -1.40   -10000.00
00103               2.00    -9800.00
00104              -2.20    -9800.00
00105              -3.60   -10000.00
00106               1.00    -9800.00
00107              -0.60    -9800.00
00108              -3.60    -9800.00
00109              -0.80    -9800.00
00110               0.40    -9800.00
00111              -2.20    -9800.00
00112              -2.60    -9800.00
00113              -0.60    -9800.00
00114              -1.20    -9800.00
00115              -2.20    -9800.00
00116              -1.60    -9800.00
00117              -0.20    -9800.00
00118              -1.00    -9800.00
00119              -2.00    -9600.00
00120              -1.20    -9600.00
00121              -0.60    -9600.00
00122              -1.40    -9600.00
00123              -1.60    -9600.00
00124              -1.00    -9600.00
00125              -0.60    -9600.00
00126              -1.80    -9600.00
00127              -2.00    -9400.00
00128              -0.60    -9200.00
00129              -1.20    -9200.00
00130              -1.40    -9200.00
00131              -1.00    -9200.00
00132              -0.40    -9200.00
00133              -1.40    -9000.00
00134              -1.40    -9200.00
00135              -0.60    -8800.00
00136              -0.80    -8800.00
00137              -1.60    -8800.00
00138              -1.00    -8800.00
00139              -0.40    -8600.00
00140              -1.20    -8600.00
00141              -1.40    -8400.00
00142              -0.60    -8400.00
00143              -0.60    -8400.00
00144              -1.80    -8400.00
00145              -1.40    -8200.00
00146               0.20    -8000.00
00147              -1.20    -8000.00
00148              -2.20    -7600.00
00149              -0.20    -7600.00
00150              -0.20    -7800.00
00151              -2.00    -7600.00
00152              -0.80    -7400.00
00153               0.20    -7400.00
00154              -1.20    -7200.00
00155              -1.40    -7200.00
00156               0.40    -7000.00
00157              -1.20    -6800.00
00158              -1.80    -6800.00
00159              -0.80    -6600.00
00160              -0.60    -6600.00
00161              -1.20    -6400.00
00162              -0.60    -6400.00
00163              -1.40    -6200.00
00164              -0.60    -6000.00
00165              -1.20    -6000.00
00166              -1.40    -5800.00
00167              -0.80    -5600.00
00168              -0.20    -5600.00
00169              -1.40    -5400.00
00170              -0.60    -5200.00
00171              -0.20    -5000.00
00172              -1.20    -5200.00
00173              -1.80    -4600.00
00174              -0.60    -4600.00
00175              -0.60    -4400.00
00176              -1.40    -4200.00
00177              -0.60    -4400.00
00178               0.00    -4200.00
00179              -1.40    -4000.00
00180              -1.00    -3800.00
00181              -0.20    -3600.00
00182              -1.00    -3400.00
00183              -1.00    -3400.00
00184              -0.20    -3200.00
00185              -0.60    -3000.00
00186              -1.20    -2800.00
00187              -0.20    -2600.00
00188              -0.60    -2600.00
00189              -0.60    -2400.00
00190              -0.40    -2200.00
00191              -0.60    -2000.00
00192              -0.60    -2000.00
00193              -0.40    -2000.00
00194              -0.40    -1600.00
00195              -1.20    -1600.00
00196              -0.20    -1200.00
00197               0.20    -1000.00
00198              -0.80    -1000.00
00199              -0.20    -1000.00
00200               0.40     -800.00
00201              -0.60     -400.00
00202              -0.60     -200.00
00203               0.20     -200.00
00204              -0.40        0.00
00205              -0.20        0.00
00206               1.00      400.00
00207               1.00      200.00
00208              -0.60      600.00
00209              -0.20      600.00
00210               0.40      800.00
00211               0.20     1000.00
00212              -0.60     1200.00
00213               1.80     1400.00
00214              10.00     1600.00
00215              15.80     2000.00
00216             -19.40     2000.00
00217             -25.00     2000.00
00218             -11.80     2000.00
00219              25.00     2400.00
00220              25.00     2600.00
00221             -25.00     2400.00
00222             -20.40     2800.00
00223              25.00     3000.00
00224             -15.60     3000.00
00225             -25.00     3200.00
00226              25.00     3200.00
00227              25.00     3400.00
00228             -25.00     3600.00
00229              25.00     4000.00
00230              25.00     3800.00
00231             -25.00     4000.00
00232               2.00     4400.00
00233              25.00     4400.00
00234             -25.00     4600.00
00235             -25.00     4800.00
00236              21.20     4800.00
00237              25.00     5200.00
00238             -25.00     5200.00
00239             -25.00     5400.00
00240              25.00     5400.00
00241              22.80     5600.00
00242             -25.00     5600.00
00243               3.60     5800.00
00244              25.00     5800.00
00245             -22.60     6000.00
00246             -25.00     6200.00
00247              25.00     6400.00
00248               5.20     6600.00
00249             -25.00     6600.00
00250              25.00     6800.00
00251              25.00     6800.00
00252             -25.00     7000.00
00253               4.20     7000.00
00254              25.00     7200.00
00255             -18.80     7200.00
00256             -12.00     7400.00
00257              18.80     7600.00
00258               1.00     7600.00
00259             -11.40     7800.00
00260               5.80     7800.00
00261               7.80     8000.00
00262              -6.00     8000.00
00263              -2.80     8200.00
00264               7.60     8200.00
00265               0.80     8400.00
00266              -8.20     8400.00
00267               6.60     8400.00
00268               6.80     8600.00
00269              -9.40     8600.00
00270               1.40     8800.00
00271               9.40     8800.00
00272              -6.20     8800.00
00273              -2.60     8800.00
00274               9.80     9000.00
00275              -1.80     9000.00
00276              -5.20     9000.00
00277               6.80     9200.00
00278               1.20     9200.00
00279              -5.40     9200.00
00280               3.80     9400.00
00281               4.60     9400.00
00282              -3.00     9400.00
00283              -0.20     9600.00
00284               4.20     9600.00
00285              -0.20     9600.00
00286              -2.60     9400.00
00287               2.40     9600.00
00288               3.00     9600.00
00289              -2.00     9600.00
00290               0.00     9600.00
00291               3.60     9800.00
00292              -0.40     9600.00
00293              -2.00     9600.00
00294               3.00     9800.00
00295               1.80     9600.00
00296              -1.40     9800.00
00297               1.20    10000.00
00298               2.20     9800.00
00299              -0.80     9600.00
00300              -0.20     9600.00
00301               2.00     9800.00
00302               1.00    10000.00
00303              -0.60     9800.00
00304               1.00     9600.00
00305               1.20     9600.00
00306              -0.20     9600.00
00307               0.40     9600.00
00308               1.40     9600.00
00309               1.00     9600.00
00310               0.20     9600.00
00311               0.60     9600.00
00312               0.40     9600.00
00313               0.20     9600.00
00314               1.20     9400.00
00315               0.80     9400.00
00316               0.20     9400.00
00317               0.60     9400.00
00318               1.40     9200.00
00319              -0.20     9400.00
00320               0.40     9200.00
00321               1.40     9200.00
00322               0.00     9200.00
00323               0.20     9200.00
00324               2.00     8800.00
00325               0.20     9000.00
00326               0.20     8800.00
00327               1.20     8800.00
00328               0.80     8800.00
00329              -0.20     8600.00
00330               0.40     8400.00
00331               0.60     8400.00
00332               0.40     8400.00
00333               0.60     8400.00
00334               1.20     8400.00
00335               0.60     8000.00
00336               0.20     8000.00
00337               0.40     8000.00
00338               0.60     7800.00
00339               0.20     7800.00
00340               0.20     7600.00
00341               1.20     7600.00
00342               0.60     7400.00
00343              -0.20     7200.00
00344               0.20     7200.00
00345               0.60     7200.00
00346              -0.20     7000.00
00347               0.40     6800.00
00348               1.00     6800.00
00349               0.40     6800.00
00350               0.60     6600.00
00351               0.20     6400.00
00352              -0.20     6400.00
00353              -0.20     6200.00
00354               0.20     6000.00
00355               0.20     6000.00
00356               0.40     6000.00
00357               0.00     5800.00
00358              -0.20     5600.00
00359               0.40     5400.00
00360               0.20     5400.00
00361              -0.60     5000.00
00362               0.40     5200.00
00363               0.20     4800.00
00364              -0.40     4600.00
00365               0.40     4400.00
00366               0.20     4400.00
00367              -0.60     4200.00
00368               0.20     4000.00
00369               0.20     4000.00
00370              -0.40     3800.00
00371               0.40     3600.00
00372               0.00     3600.00
00373              -1.00     3200.00
00374               0.00     3200.00
00375               0.40     3200.00
00376              -1.00     3000.00
00377               0.20     2800.00
00378               0.20     2800.00
00379              -0.80     2400.00
00380               0.00     2400.00
00381               0.60     2200.00
00382              -0.60     2000.00
00383               0.20     2000.00
00384               0.40     1800.00
00385              -0.60     1600.00
00386              -0.40     1400.00
00387               0.00     1200.00
00388              -0.60     1000.00
00389              -0.40     1000.00
00390              -0.20      600.00
00391              -0.60      600.00
00392               0.40      400.00
00393              -0.40      400.00
00394              -1.20        0.00
00395               0.40        0.00
00396               0.20     -200.00
00397               0.40     -200.00
00398               1.00     -400.00
00399              -0.60     -600.00
00400              -0.60     -800.00
00401               0.40     -800.00
00402              -0.40    -1000.00
00403              -0.40    -1200.00
00404               2.80    -1400.00
00405              24.80    -1800.00
00406              -6.60    -2000.00
00407             -25.00    -2200.00
00408             -25.00    -2000.00
00409              25.00    -2000.00
00410              25.00    -2600.00
00411             -25.00    -2800.00
00412             -25.00    -2400.00
00413              25.00    -2800.00
00414              25.00    -3400.00
00415             -25.00    -2800.00
00416              25.00    -3400.00
00417              25.00    -3600.00
00418             -25.00    -3400.00
00419             -25.00    -3600.00
00420              25.00    -4200.00
00421             -25.00    -4200.00
00422             -25.00    -4200.00
00423              25.00    -4400.00
00424             -25.00    -4200.00
00425             -22.80    -4800.00
00426              -5.40    -4800.00
00427              25.00    -4800.00
00428              25.00    -5000.00
00429             -25.00    -5200.00
00430              25.00    -5600.00
00431              25.00    -5400.00
00432             -25.00    -5600.00
00433              -4.20    -5800.00
00434              25.00    -6000.00
00435             -25.00    -6000.00
00436             -25.00    -6400.00
00437              25.00    -6200.00
00438              25.00    -6400.00
00439             -25.00    -6400.00
00440               1.20    -6600.00
00441              25.00    -6800.00
00442             -25.00    -6800.00
00443             -12.00    -7200.00
00444              25.00    -7200.00
00445             -16.40    -7000.00
00446             -16.80    -7400.00
00447              14.20    -7400.00
00448               4.80    -7600.00
00449             -15.00    -7600.00
00450               2.00    -8000.00
00451               9.40    -8000.00
00452             -11.00    -8000.00
00453              -2.00    -8200.00
00454               5.20    -8200.00
00455              -2.80    -8200.00
00456              -6.80    -8400.00
00457               2.80    -8400.00
00458               6.60    -8400.00
00459             -11.80    -8600.00
00460               0.00    -8600.00
00461              10.00    -8800.00
00462             -11.40    -8800.00
00463              -3.80    -9000.00
00464              10.00    -9000.00
00465              -4.60    -8800.00
00466              -9.40    -9200.00
00467               6.80    -9200.00
00468               2.20    -9200.00
00469             -11.60    -9200.00
00470               2.00    -9600.00
00471               6.40    -9400.00
00472              -7.40    -9400.00
00473              -3.60    -9600.00
00474               5.20    -9600.00
00475              -1.80    -9600.00
00476              -6.80    -9600.00
00477               1.60    -9600.00
00478               2.80    -9600.00
00479              -5.20    -9800.00
00480              -2.20    -9800.00
00481               3.20    -9800.00
00482              -2.20    -9800.00
00483              -4.60    -9800.00
00484               1.20    -9800.00
00485               1.20    -9800.00
00486              -4.20    -9800.00
00487              -1.80    -9800.00
00488               1.00   -10000.00
00489              -2.20   -10000.00
00490              -2.80    -9800.00
00491               0.00    -9800.00
00492              -0.40   -10000.00
00493              -2.20    -9800.00
00494              -2.00    -9800.00
00495              -0.40    -9800.00
00496              -1.40    -9800.00
00497              -2.00    -9800.00
00498              -1.20    -9800.00
00499              -0.20    -9800.00
00500              -1.40    -9800.00
00501              -2.40    -9800.00
00502              -0.60    -9600.00
00503              -0.60    -9600.00
00504              -2.20    -9600.00
00505              -1.20    -9600.00
00506              -0.60    -9600.00
00507              -1.20    -9600.00
00508              -1.80    -9600.00
00509              -1.20    -9600.00
00510              -1.00    -9200.00
00511              -1.20    -9200.00
00512              -1.40    -9200.00
00513              -1.00    -9200.00
00514              -0.60    -9200.00
00515              -2.00    -9000.00
00516              -2.00    -9000.00
00517               0.20    -8800.00
00518              -1.00    -9000.00
00519              -2.20    -8800.00
00520              -1.00    -8800.00
00521              -0.20    -8600.00
00522              -1.20    -8600.00
00523              -1.80    -8400.00
00524              -0.20    -8200.00
00525              -0.40    -8200.00
00526              -2.20    -8400.00
00527              -1.20    -8200.00
00528              -0.40    -8000.00
00529              -2.00    -8000.00
00530              -1.60    -8000.00
00531               0.40    -7600.00
00532              -1.00    -7600.00
00533              -1.40    -7600.00
00534              -0.60    -7400.00
00535              -0.60    -7400.00
00536              -1.80    -7200.00
00537              -1.00    -7200.00
00538               0.40    -7000.00
00539              -1.20    -6800.00
00540              -1.80    -6800.00
00541              -0.40    -6600.00
00542              -1.20    -6600.00
00543              -1.20    -6400.00
00544               0.00    -6200.00
00545              -1.20    -6200.00
00546              -0.60    -6000.00
00547              -0.60    -6000.00
00548              -1.20    -5800.00
00549              -1.00    -5600.00
00550              -0.60    -5600.00
00551              -1.20    -5200.00
00552              -0.60    -5200.00
00553              -1.20    -5000.00
00554              -1.20    -4800.00
00555               0.20    -4600.00
00556              -1.60    -4600.00
00557              -0.60    -4400.00
00558              -0.80    -4200.00
00559              -0.60    -4200.00
00560              -0.60    -4000.00
00561              -1.40    -4000.00
00562              -0.60    -3800.00
00563              -1.20    -3600.00
00564              -1.00    -3400.00
00565              -0.40    -3400.00
00566              -0.80    -3000.00
00567              -0.60    -3000.00
00568              -0.20    -2800.00
00569              -1.20    -2800.00
00570              -1.00    -2600.00
00571              -0.20    -2600.00
00572              -0.60    -2200.00
00573              -0.80    -2000.00
00574              -1.00    -2000.00
00575               1.00    -1800.00
00576              -2.00    -1600.00
00577              -1.20    -1400.00
00578               1.80    -1200.00
00579              -1.80    -1200.00
00580              -1.20    -1000.00
00581               1.40     -800.00
00582              -1.00     -600.00
00583              -1.40     -400.00
00584               0.40     -400.00
00585              -0.20     -200.00
00586              -1.20        0.00
00587               0.60        0.00
00588               1.60      400.00
00589               0.60      400.00
00590              -1.00      600.00
00591               0.20      600.00
00592               0.40      800.00
00593              -0.60     1000.00
00594              -0.40     1200.00
00595               3.60     1400.00
00596              14.20     1800.00
00597               8.60     2000.00
00598             -25.00     2200.00
00599             -25.00     2000.00
00600               0.40     2000.00
00601              25.00     2400.00
00602               6.20     2600.00
00603             -25.00     2400.00
00604              25.00     3000.00
00605              25.00     3000.00
00606             -25.00     3000.00
00607             -25.00     3400.00
00608              25.00     3200.00
00609             -11.60     3400.00
00610             -25.00     3800.00
00611              25.00     3600.00
00612              24.60     3800.00
00613             -25.00     4400.00
00614              25.00     4200.00
00615              25.00     4400.00
00616             -25.00     4400.00
00617             -20.60     4800.00
00618              25.00     4800.00
00619              25.00     5000.00
00620             -25.00     5200.00
00621             -14.20     5200.00
00622              25.00     5400.00
00623              -9.00     5600.00
00624             -25.00     6000.00
00625              25.00     5800.00
00626              25.00     6000.00
00627             -25.00     6200.00
00628              -5.20     6200.00
00629              25.00     6400.00
00630             -20.40     6400.00
00631             -25.00     6600.00
00632              25.00     6800.00
00633               1.00     7000.00
00634             -25.00     6800.00
00635              22.20     7200.00
00636              16.40     7000.00
00637             -25.00     7400.00
00638               1.40     7400.00
00639              17.20     7600.00
00640              -7.80     7600.00
00641              -6.60     7800.00
00642               8.60     7800.00
00643               2.80     7800.00
00644              -6.20     8200.00
00645               0.40     8000.00
00646               7.60     8200.00
00647              -3.40     8400.00
00648              -5.20     8400.00
00649               9.40     8400.00
00650               1.20     8600.00
00651              -9.00     8600.00
00652               6.60     8600.00
00653               4.80     8800.00
00654              -8.40     8800.00
00655               3.20     8800.00
00656               7.80     9000.00
00657              -5.60     9000.00
00658              -1.00     9000.00
00659               7.60     9200.00
00660              -2.80     9200.00
00661              -2.80     9200.00
00662               5.80     9200.00
00663               1.60     9400.00
00664              -3.40     9400.00
00665               2.00     9400.00
00666               3.40     9600.00
00667              -1.80     9600.00
00668              -0.60     9600.00
00669               3.40     9600.00
00670               1.80     9600.00
00671              -2.20     9600.00
00672               1.40     9600.00
00673               2.80     9800.00
00674              -1.80     9600.00
00675               0.40     9600.00
00676               3.40     9600.00
00677               0.40     9800.00
00678              -1.00     9600.00
00679               2.00     9800.00
00680               1.40     9600.00
00681              -1.40     9600.00
00682               0.20     9800.00
00683               2.60     9600.00
00684               0.20     9800.00
00685              -0.40     9800.00
00686               1.40     9800.00
00687               1.00     9800.00
00688              -0.40     9800.00
00689               0.40     9600.00
00690               1.40     9600.00
00691               0.40     9600.00
00692              -0.20     9600.00
00693               1.00     9600.00
00694               1.20     9400.00
00695              -0.40     9600.00
00696              -0.20     9400.00
00697               1.80     9600.00
00698              -0.40     9400.00
00699              -0.20     9400.00
00700               1.60     9200.00
00701               0.20     9200.00
00702               0.40     9200.00
00703               1.40     9200.00
00704              -0.40     9200.00
00705               0.20     9000.00
00706               0.60     8800.00
00707               0.20     8800.00
00708               1.00     8800.00
00709               0.60     8800.00
00710               0.20     8600.00
00711               0.40     8600.00
00712               0.60     8600.00
00713               0.40     8400.00
00714               0.20     8400.00
00715               0.60     8200.00
00716               0.80     8200.00
00717               0.40     8000.00
00718              -0.40     8200.00
00719               1.20     8000.00
00720               0.40     7800.00
00721               0.20     7800.00
00722               1.20     7600.00
00723               0.40     7600.00
00724               0.20     7600.00
00725               0.40     7400.00
00726              -0.20     7000.00
00727               1.00     7200.00
00728               0.20     7000.00
00729              -0.60     7000.00
00730               2.00     6800.00
00731               0.40     6800.00
00732              -1.40     6600.00
00733               1.40     6400.00
00734               1.00     6400.00
00735              -1.00     6200.00
00736               0.80     6000.00
00737               1.20     5800.00
00738              -0.20     6000.00
00739              -0.20     5600.00
00740               0.20     5600.00
00741               0.40     5400.00
00742              -0.40     5200.00
00743               0.20     4800.00
00744               1.00     5000.00
00745              -0.60     4800.00
00746              -0.20     4600.00
00747               0.20     4600.00
00748              -0.40     4400.00
00749              -0.20     4200.00
00750               0.40     4000.00
00751               0.40     4000.00
00752              -0.40     3800.00
00753              -0.40     3600.00
00754               0.00     3400.00
00755              -0.20     3200.00
00756              -0.40     3200.00
00757              -0.20     3000.00
00758               0.00     2800.00
00759              -0.20     2800.00
00760              -0.80     2400.00
00761              -0.20     2400.00
00762               0.20     2400.00
00763              -1.00     2000.00
00764              -0.40     2000.00
00765               0.20     1800.00
00766              -0.60     1600.00
00767              -0.60     1400.00
00768               0.00     1400.00
00769               0.20     1200.00
00770              -0.60     1000.00
00771              -0.40      800.00
00772               0.20      600.00
00773              -0.60      400.00
00774              -0.40      400.00
00775               0.20        0.00
00776              -0.60        0.00
00777              -0.40     -200.00
00778               0.20     -400.00
00779               0.40     -400.00
00780               0.40     -600.00
00781              -1.00     -800.00
00782              -0.20     -800.00
00783               0.40    -1000.00
00784              -0.60    -1000.00
00785              -0.60    -1200.00
00786               8.60    -1600.00
00787              25.00    -1800.00
00788             -25.00    -2200.00
00789             -25.00    -2200.00
00790             -14.80    -2000.00
00791              25.00    -2200.00
00792              25.00    -2800.00
00793             -25.00    -2600.00
00794              17.40    -2400.00
00795              25.00    -3200.00
00796             -25.00    -3200.00
00797             -25.00    -2800.00
00798              25.00    -3600.00
00799              25.00    -3400.00
00800             -25.00    -3400.00
00801              25.00    -4000.00
00802              25.00    -4000.00
00803             -25.00    -4200.00
00804              25.00    -4200.00
00805              25.00    -4600.00
00806             -25.00    -4400.00
00807             -11.60    -4800.00
00808              -1.20    -4600.00
00809              25.00    -5000.00
00810             -13.80    -5200.00
00811             -25.00    -5200.00
00812              25.00    -5600.00
00813              24.40    -5400.00
00814             -25.00    -5800.00
00815              25.00    -6000.00
00816              25.00    -5800.00
00817             -25.00    -6000.00
00818             -17.40    -6400.00
00819              25.00    -6400.00
00820               1.60    -6600.00
00821             -25.00    -6600.00
00822              25.00    -6800.00
00823              25.00    -6800.00
00824             -25.00    -7000.00
00825              14.00    -7000.00
00826              24.40    -7000.00
00827             -25.00    -7400.00
00828              -4.60    -7400.00
00829              15.40    -7400.00
00830              -3.40    -7600.00
00831             -13.40    -7600.00
00832               8.40    -8000.00
00833               3.00    -8000.00
00834             -11.80    -8000.00
00835               2.80    -8200.00
00836               3.60    -8200.00
00837              -4.60    -8400.00
00838              -5.40    -8400.00
00839               7.00    -8400.00
00840               0.60    -8600.00
00841             -13.20    -8800.00
00842               7.40    -8800.00
00843               3.40    -8800.00
00844             -13.40    -8800.00
00845               3.60    -8800.00
00846               7.40    -9000.00
00847              -9.40    -9000.00
00848              -4.40    -9200.00
00849               9.00    -9200.00
00850              -4.40    -9200.00
00851              -9.40    -9400.00
00852               6.60    -9400.00
00853               2.60    -9200.00
00854              -8.60    -9600.00
00855               0.20    -9600.00
00856               4.20    -9600.00
00857              -5.20    -9600.00
00858              -5.20    -9600.00
00859               4.20    -9600.00
00860               0.60    -9600.00
00861              -6.00    -9800.00
00862               0.20    -9800.00
00863               2.40    -9800.00
00864              -4.60    -9800.00
00865              -3.80    -9800.00
00866               2.60    -9800.00
00867              -0.20    -9800.00
00868              -4.20    -9800.00
00869              -0.20   -10000.00
00870               0.60    -9800.00
00871              -3.00    -9800.00
00872              -2.20    -9800.00
00873              -0.20   -10000.00
00874              -0.80   -10000.00
00875              -2.20    -9800.00
00876              -1.00    -9800.00
00877              -0.20    -9600.00
00878              -2.20    -9800.00
00879              -2.60    -9800.00
00880              -1.00    -9800.00
00881              -1.00    -9800.00
00882              -2.00    -9600.00
00883              -1.80    -9800.00
00884              -0.40    -9600.00
00885              -1.40    -9600.00
00886              -2.20    -9600.00
00887              -1.20    -9600.00
00888              -1.00    -9600.00
00889              -1.20    -9600.00
00890              -1.80    -9600.00
00891              -1.20    -9400.00
00892              -1.20    -9200.00
00893              -1.40    -9200.00
00894              -2.00    -9200.00
00895              -1.00    -9200.00
00896              -1.20    -9000.00
00897              -2.00    -9000.00
00898              -1.20    -9000.00
00899              -0.20    -8800.00
00900              -1.40    -8800.00
00901              -2.20    -8800.00
00902              -0.60    -8600.00
00903              -0.60    -8600.00
00904              -1.80    -8400.00
00905              -0.60    -8400.00
00906              -0.20    -8200.00
00907              -2.00    -8200.00
00908              -1.80    -8200.00
00909              -0.20    -8200.00
00910              -1.20    -8000.00
00911              -2.00    -8000.00
00912              -0.60    -8000.00
00913               0.40    -7600.00
00914              -1.40    -7600.00
00915              -1.80    -7400.00
00916              -0.40    -7400.00
00917              -0.60    -7400.00
00918              -1.80    -7000.00
00919              -0.40    -7000.00
00920              -0.60    -6800.00
00921              -1.00    -6800.00
00922              -1.00    -6800.00
00923              -1.00    -6600.00
00924              -1.20    -6400.00
00925              -0.40    -6400.00
00926              -1.40    -6000.00
00927              -0.60    -6000.00
00928              -0.40    -6000.00
00929              -1.80    -5800.00
00930              -1.00    -5600.00
00931               0.00    -5600.00
00932              -1.40    -5600.00
00933              -0.60    -5200.00
00934               0.40    -5200.00
00935              -1.20    -5000.00
00936              -1.20    -4800.00
00937              -0.40    -4600.00
00938              -1.40    -4400.00
00939              -0.40    -4400.00
00940              -0.20    -4200.00
00941              -1.20    -4000.00
00942              -0.60    -4000.00
00943              -0.40    -4000.00
00944              -2.00    -3600.00
00945              -1.00    -3600.00
00946               0.40    -3400.00
00947              -1.20    -3200.00
00948              -1.00    -3200.00
00949               0.20    -2800.00
00950              -0.60    -2800.00
00951              -1.80    -2800.00
00952              -0.20    -2400.00
00953              -0.20    -2400.00
00954              -1.20    -2200.00
00955              -0.60    -1800.00
00956               0.40    -2000.00
00957              -1.00    -1800.00
00958              -1.80    -1600.00
00959              -0.20    -1400.00
00960               0.80    -1200.00
00961              -1.00    -1000.00
00962              -1.40     -800.00
00963               0.20     -800.00
00964               0.00     -600.00
00965              -0.60     -400.00
00966               0.00     -200.00
00967              -0.40     -200.00
00968              -0.40        0.00
00969               0.00      200.00
00970               1.00      400.00
00971               0.60      600.00
00972              -0.40      600.00
00973              -0.20      800.00
00974               0.40      800.00
00975              -0.20     1200.00
00976              -0.40     1200.00
00977               6.00     1800.00
00978              17.60     1800.00
00979              -4.60     2000.00
00980             -25.00     2000.00
00981             -20.60     2000.00
00982              21.00     2200.00
00983              25.00     2400.00
00984             -25.00     2400.00
00985             -25.00     2800.00
00986              25.00     3000.00
00987              25.00     3000.00
00988             -25.00     3000.00
00989              25.00     3600.00
00990              25.00     3600.00
00991             -25.00     3600.00
00992             -25.00     3800.00
00993              25.00     3800.00
00994             -25.00     4000.00
00995             -25.00     4400.00
00996              25.00     4000.00
00997              11.20     4600.00
00998             -25.00     4800.00
00999               0.80     4800.00
01000              25.00     4800.00
01001               4.60     5200.00
01002             -25.00     5200.00
01003              13.20     5200.00
01004              25.00     5400.00
01005             -25.00     5800.00
01006             -25.00     5800.00
01007              25.00     6000.00
01008               6.40     6000.00
01009             -25.00     6200.00
01010              19.40     6400.00
01011              25.00     6400.00
01012             -25.00     6600.00
01013              -3.40     6800.00
01014              25.00     6800.00
01015             -22.20     7000.00
01016             -18.80     7000.00
01017              25.00     7200.00
01018              -1.00     7200.00
01019             -22.00     7400.00
01020              11.60     7400.00
01021              10.00     7600.00
01022             -11.00     7800.00
01023              -0.40     7800.00
01024               9.20     7800.00
01025              -1.80     8200.00
01026              -6.20     8200.00
01027               3.60     8200.00
01028               6.00     8200.00
01029              -6.20     8400.00
01030              -0.40     8400.00
01031               9.60     8400.00
01032              -4.40     8600.00
01033              -5.20     8600.00
01034               9.40     8800.00
01035              -0.60     8800.00
01036              -7.00     8800.00
01037               7.40     9000.00
01038               3.60     9000.00
01039              -7.00     8800.00
01040               2.60     9200.00
01041               5.00     9200.00
01042              -4.40     9200.00
01043               0.60     9200.00
01044               5.40     9200.00
01045              -1.60     9400.00
01046              -2.20     9600.00
01047               3.80     9400.00
01048               1.80     9600.00
01049              -2.80     9400.00
01050               1.00     9600.00
01051               3.80     9600.00
01052              -0.60     9800.00
01053              -1.80     9600.00
01054               3.20     9800.00
01055               1.40     9800.00
01056              -2.60     9600.00
01057               2.00     9800.00
01058               3.00    10000.00
01059              -1.20     9800.00
01060               0.20     9600.00
01061               2.80     9800.00
01062               0.20     9800.00
01063              -1.00     9600.00
01064               1.80     9800.00
01065               1.80     9800.00
01066              -0.20    10000.00
01067               0.60     9600.00
01068               1.40     9800.00
01069               0.20     9600.00
01070              -0.20     9600.00
01071               0.60     9800.00
01072               1.20     9600.00
01073               0.40     9600.00
01074               0.60     9600.00
01075               1.20     9600.00
01076               0.40     9400.00
01077               0.20     9400.00
01078               0.60     9400.00
01079               0.60     9400.00
01080              -0.20     9400.00
01081               1.00     9400.00
01082               0.60     9400.00
01083              -0.20     9200.00
01084               1.40     9200.00
01085               1.00     9200.00
01086              -1.20     9200.00
01087               1.00     9000.00
01088               0.40     9200.00
01089               0.20     8800.00
01090               1.80     8800.00
01091               0.20     8800.00
01092              -0.20     8600.00
01093               1.20     8600.00
01094              -0.20     8600.00
01095              -0.60     8400.00
01096               1.20     8400.00
01097               1.40     8400.00
01098              -1.40     8200.00
01099               1.40     8200.00
01100               1.40     8000.00
01101              -1.20     8000.00
01102               0.20     7800.00
01103               1.00     7600.00
01104              -0.20     7600.00
01105              -0.20     7600.00
01106               0.60     7400.00
01107               1.80     7200.00
01108              -0.40     7200.00
01109               0.40     7200.00
01110               1.20     7000.00
01111              -1.20     6800.00
01112               0.20     6800.00
01113               1.80     6800.00
01114              -0.40     6400.00
01115              -0.20     6400.00
01116               1.20     6200.00
01117               0.60     6200.00
01118              -0.80     6000.00
01119               0.20     6000.00
01120               0.60     5800.00
01121               0.20     5600.00
01122               1.20     5600.00
01123               0.20     5400.00
01124              -0.60     5200.00
01125               0.40     5000.00
01126               0.20     4800.00
01127              -0.20     4800.00
01128               0.20     4400.00
01129               0.60     4400.00
01130               0.40     4400.00
01131              -0.20     4200.00
01132              -0.20     4000.00
01133               0.20     4000.00
01134              -0.20     3800.00
01135              -0.20     3600.00
01136               0.20     3400.00
01137              -0.20     3200.00
01138              -0.60     3200.00
01139               0.40     3000.00
01140               0.20     2800.00
01141              -0.20     2800.00
01142               0.20     2400.00
01143              -0.60     2400.00
01144              -1.00     2200.00
01145               0.40     2000.00
01146              -0.80     2000.00
01147              -0.60     1800.00
01148               1.00     1600.00
01149              -0.40     1400.00
01150              -1.00     1200.00
01151               0.20     1200.00
01152              -0.20      800.00
01153              -1.20      800.00
01154              -0.20      800.00
01155               0.60      400.00
01156              -1.00      200.00
01157              -0.80        0.00
01158               0.20        0.00
01159               0.20     -200.00
01160              -0.60     -200.00
01161               0.20     -400.00
01162               0.40     -400.00
01163              -0.60     -800.00
01164              -0.20     -800.00
01165               0.60    -1000.00
01166              -0.60    -1200.00
01167              -0.20    -1200.00
01168              16.40    -1600.00
01169              14.60    -2000.00
01170             -25.00    -2000.00
01171             -25.00    -2400.00
01172              15.60    -2000.00
01173              25.00    -2400.00
01174             -18.60    -2800.00
01175             -25.00    -2200.00
01176              25.00    -2600.00
01177              25.00    -3200.00
01178             -25.00    -3200.00
01179             -25.00    -3000.00
01180              25.00    -3600.00
01181              18.00    -3400.00
01182             -25.00    -3400.00
01183              25.00    -4200.00
01184              25.00    -4000.00
01185             -25.00    -4000.00
01186              25.00    -4400.00
01187              12.60    -4200.00
01188             -25.00    -4800.00
01189              -6.60    -4600.00
01190              12.20    -4800.00
01191              25.00    -5000.00
01192             -25.00    -5200.00
01193             -25.00    -5600.00
01194              25.00    -5400.00
01195             -25.00    -5600.00
01196             -25.00    -5800.00
01197              25.00    -5800.00
01198              10.00    -6000.00
01199             -25.00    -6400.00
01200               6.00    -6200.00
01201              25.00    -6400.00
01202             -25.00    -6600.00
01203             -25.00    -6600.00
01204              25.00    -6800.00
01205              -6.80    -6600.00
01206             -25.00    -7000.00
01207              25.00    -7200.00
01208               5.20    -7200.00
01209             -25.00    -7400.00
01210               6.00    -7400.00
01211              12.60    -7600.00
01212             -11.00    -7600.00
01213              -7.40    -7800.00
01214              12.40    -8000.00
01215              -4.60    -8000.00
01216              -8.60    -8000.00
01217               5.20    -8200.00
01218               0.60    -8400.00
01219              -6.60    -8400.00
01220              -2.80    -8400.00
01221               8.60    -8600.00
01222              -6.00    -8400.00
01223              -9.20    -8800.00
01224              10.60    -8800.00
01225              -4.60    -8800.00
01226             -10.20    -8800.00
01227               9.00    -9000.00
01228               2.00    -9000.00
01229             -11.00    -9000.00
01230               1.20    -9200.00
01231               6.60    -9200.00
01232              -9.80    -9200.00
01233              -4.20    -9200.00
01234               8.40    -9400.00
01235              -3.00    -9200.00
01236              -7.60    -9400.00
01237               2.80    -9600.00
01238               1.80    -9600.00
01239              -7.40    -9600.00
01240              -2.00    -9600.00
01241               5.80    -9600.00
01242              -2.60    -9600.00
01243              -6.40    -9800.00
01244               2.40    -9600.00
01245               1.00    -9800.00
01246              -6.00    -9800.00
01247              -0.60    -9800.00
01248               3.40    -9800.00
01249              -2.80    -9800.00
01250              -4.20    -9800.00
01251               1.00    -9800.00
01252              -0.60    -9800.00
01253              -3.80    -9800.00
01254              -0.60    -9800.00
01255               0.80    -9800.00
01256              -1.80    -9800.00
01257              -2.20    -9800.00
01258              -0.60    -9800.00
01259              -1.00   -10000.00
01260              -2.00    -9600.00
01261              -1.40    -9600.00
01262              -0.40    -9600.00
01263              -0.60    -9800.00
01264              -2.20    -9600.00
01265              -1.80    -9800.00
01266              -0.60    -9600.00
01267              -1.80    -9600.00
01268              -2.00    -9600.00
01269              -1.00    -9600.00
01270              -0.60    -9600.00
01271              -2.00    -9600.00
01272              -2.00    -9400.00
01273              -0.40    -9400.00
01274              -1.00    -9200.00
01275              -2.00    -9200.00
01276              -1.20    -9200.00
01277              -0.60    -9200.00
01278              -1.40    -9000.00
01279              -2.20    -9000.00
01280              -0.40    -9000.00
01281              -1.00    -8800.00
01282              -2.40    -8800.00
01283              -1.20    -8600.00
01284              -0.60    -8800.00
01285              -1.60    -8400.00
01286              -1.80    -8400.00
01287              -0.60    -8400.00
01288              -0.60    -8200.00
01289              -2.00    -8200.00
01290              -1.40    -8200.00
01291              -0.20    -8000.00
01292              -1.80    -8000.00
01293              -1.80    -7800.00
01294               0.00    -7600.00
01295              -0.60    -7600.00
01296              -2.00    -7400.00
01297              -0.60    -7400.00
01298              -0.60    -7400.00
01299              -1.40    -7200.00
01300              -1.20    -7000.00
01301              -0.20    -7200.00
01302              -1.20    -6800.00
01303              -1.40    -6800.00
01304              -0.80    -6600.00
01305              -0.40    -6400.00
01306              -1.20    -6600.00
01307              -0.40    -6400.00
01308              -1.20    -6000.00
01309              -0.40    -6000.00
01310              -1.00    -6000.00
01311              -1.20    -5800.00
01312              -1.20    -5600.00
01313               0.20    -5600.00
01314              -1.00    -5200.00
01315              -1.00    -5200.00
01316               0.20    -5000.00
01317              -1.00    -4800.00
01318              -2.00    -4600.00
01319               0.00    -4400.00
01320              -0.40    -4400.00
01321              -1.40    -4200.00
01322              -0.40    -4400.00
01323               0.20    -4000.00
01324              -1.20    -4000.00
01325              -1.20    -3600.00
01326               0.40    -3600.00
01327              -1.00    -3400.00
01328              -1.40    -3400.00
01329               0.20    -3000.00
01330              -1.00    -3200.00
01331              -0.60    -2800.00
01332              -0.20    -2800.00
01333              -0.80    -2600.00
01334              -0.60    -2400.00
01335              -0.20    -2200.00
01336              -1.20    -2000.00
01337              -0.20    -2000.00
01338              -0.60    -1800.00
01339              -1.00    -1600.00
01340              -0.20    -1600.00
01341              -0.40    -1200.00
01342              -0.80    -1200.00
01343              -0.40    -1000.00
01344              -0.40    -1000.00
01345              -0.60     -800.00
01346              -0.60     -600.00
01347              -0.40     -400.00
01348              -0.40     -200.00
01349              -0.60     -200.00
01350               0.00        0.00
01351               0.40      200.00
01352               1.20      400.00
01353              -0.40      400.00
01354              -0.60      600.00
01355               0.40      800.00
01356               0.00     1000.00
01357              -0.60     1400.00
01358               1.80     1400.00
01359               9.00     1800.00
01360              16.40     1800.00
01361             -18.00     2000.00
01362             -25.00     2000.00
01363             -12.60     2000.00
01364              25.00     2400.00
01365              25.00     2600.00
01366             -25.00     2600.00
01367             -25.00     3000.00
01368              25.00     2800.00
01369              -6.00     3000.00
01370             -25.00     3200.00
01371              25.00     3200.00
01372              25.00     3400.00
01373             -25.00     3600.00
01374              25.00     4000.00
01375              25.00     3800.00
01376             -25.00     4000.00
01377              -4.40     4200.00
01378              25.00     4200.00
01379             -21.20     4400.00
01380             -25.00     4800.00
01381              19.40     4800.00
01382              25.00     4800.00
01383             -22.60     5400.00
01384             -25.00     5400.00
01385              25.00     5400.00
01386              25.00     5600.00
01387             -25.00     5800.00
01388               1.20     6000.00
01389              25.00     6000.00
01390             -20.40     6200.00
01391             -25.00     6200.00
01392              25.00     6200.00
01393               7.80     6400.00
01394             -25.00     6400.00
01395              23.00     6800.00
01396              25.00     6800.00
01397             -25.00     7000.00
01398               1.80     7000.00
01399              25.00     7000.00
01400             -17.00     7200.00
01401             -12.60     7400.00
01402              17.80     7400.00
01403               1.80     7600.00
01404             -11.60     7600.00
01405               4.60     7800.00
01406               7.60     8000.00
01407              -5.40     8000.00
01408              -3.40     8200.00
01409               7.00     8200.00
01410               1.20     8400.00
01411              -8.00     8400.00
01412               5.40     8400.00
01413               7.00     8600.00
01414              -9.20     8600.00
01415               0.60     8800.00
01416               9.20     8600.00
01417              -6.00     8800.00
01418              -3.60     8800.00
01419               9.80     9000.00
01420              -2.00     9000.00
01421              -5.40     9200.00
01422               6.60     9200.00
01423               1.40     9200.00
01424              -5.40     9200.00
01425               3.40     9400.00
01426               4.40     9400.00
01427              -3.00     9400.00
01428              -0.40     9600.00
01429               3.80     9400.00
01430               0.20     9600.00
01431              -2.40     9600.00
01432               2.20     9600.00
01433               3.00     9600.00
01434              -1.60     9600.00
01435              -0.40     9600.00
01436               3.40     9800.00
01437               0.00     9800.00
01438              -2.00     9600.00
01439               3.00     9600.00
01440               1.80     9800.00
01441              -1.40     9600.00
01442               1.00     9600.00
01443               2.60    10000.00
01444              -0.40     9600.00
01445              -0.60     9600.00
01446               2.60     9800.00
01447               1.40     9800.00
01448              -0.80     9600.00
01449               1.00    10000.00
01450               1.80     9800.00
01451              -0.20     9600.00
01452               0.20     9600.00
01453               1.20     9600.00
01454               1.00     9600.00
01455               0.40     9600.00
01456               0.40     9600.00
01457               1.00     9400.00
01458               0.60     9600.00
01459              -0.20     9400.00
01460               1.00     9400.00
01461               1.00     9400.00
01462               0.20     9400.00
01463               0.40     9400.00
01464               0.20     9200.00
01465               0.40     9200.00
01466               0.60     9200.00
01467               0.60     9200.00
01468               0.40     9200.00
01469               1.40     9200.00
01470              -0.20     9000.00
01471               0.00     8800.00
01472               0.80     8800.00
01473               0.60     8800.00
01474              -0.20     8600.00
01475               0.80     8600.00
01476               0.60     8400.00
01477               0.20     8400.00
01478               0.20     8400.00
01479               0.60     8200.00
01480               0.80     8000.00
01481              -0.20     8000.00
01482               0.40     8000.00
01483               0.60     8000.00
01484              -0.20     7800.00
01485              -0.20     7600.00
01486               1.20     7600.00
01487               0.20     7600.00
01488              -0.20     7200.00
01489               1.00     7200.00
01490               0.60     7200.00
01491              -0.20     7000.00
01492               0.40     6800.00
01493               1.00     6800.00
01494               0.40     6800.00
01495              -0.20     6600.00
01496               0.40     6400.00
01497               0.60     6400.00
01498              -0.40     6200.00
01499               0.20     6000.00
01500               1.00     6000.00
01501               0.40     5600.00
01502              -0.40     5800.00
01503               0.60     5600.00
01504               0.60     5600.00
01505               0.20     5400.00
01506              -0.40     5200.00
01507               1.20     5200.00
01508               0.60     4800.00
01509              -1.20     4800.00
01510               0.80     4600.00
01511               1.60     4400.00
01512              -1.20     4200.00
01513               0.20     4000.00
01514               1.40     4000.00
01515              -0.20     3800.00
01516              -1.40     3600.00
01517               1.00     3600.00
01518               0.40     3200.00
01519              -1.00     3200.00
01520               1.20     3000.00
01521               0.40     3000.00
01522              -1.00     2800.00
01523               0.20     2600.00
01524              -0.20     2400.00
01525              -0.60     2200.00
01526               0.20     2200.00
01527               0.20     2000.00
01528              -0.60     2000.00
01529              -0.20     1600.00
01530              -0.40     1600.00
01531              -0.60     1400.00
01532              -0.20     1200.00
01533              -0.20      800.00
01534              -0.20      800.00
01535               0.20      800.00
01536              -0.60      600.00
01537              -0.40      400.00
01538               0.20      400.00
01539              -0.60        0.00
01540              -1.00     -200.00
01541               0.40     -200.00
01542               0.40     -400.00
01543               0.20     -400.00
01544              -0.20     -600.00
01545              -0.60     -800.00
01546              -0.40    -1000.00
01547              -0.20    -1200.00
01548              -1.20    -1200.00
01549               3.00    -1400.00
01550              24.60    -1800.00
01551              -5.40    -2000.00
01552             -25.00    -2200.00
01553             -25.00    -2200.00
01554              25.00    -2000.00
01555              25.00    -2600.00
01556             -25.00    -2800.00
01557             -25.00    -2000.00
01558              25.00    -3000.00
01559              25.00    -3200.00
01560             -25.00    -3000.00
01561              25.00    -3400.00
01562              25.00    -3600.00
01563             -25.00    -3400.00
01564             -25.00    -3600.00
01565              25.00    -4200.00
01566             -25.00    -4000.00
01567             -25.00    -4200.00
01568              25.00    -4400.00
01569             -25.00    -4400.00
01570             -24.40    -4600.00
01571              -6.00    -4800.00
01572              25.00    -4800.00
01573              25.00    -5200.00
01574             -25.00    -5000.00
01575              23.60    -5400.00
01576              25.00    -5600.00
01577             -25.00    -5600.00
01578             -10.00    -5800.00
01579              25.00    -5800.00
01580             -22.60    -6000.00
01581             -25.00    -6200.00
01582              25.00    -6400.00
01583              25.00    -6400.00
01584             -25.00    -6400.00
01585              -3.60    -6600.00
01586              25.00    -6800.00
01587             -25.00    -6800.00
01588             -15.40    -7200.00
01589              25.00    -7200.00
01590             -14.80    -7200.00
01591             -18.20    -7400.00
01592              13.40    -7400.00
01593               6.00    -7600.00
01594             -14.80    -7600.00
01595               0.80    -7600.00
01596              10.60    -8000.00
01597             -11.00    -8000.00
01598              -3.00    -8000.00
01599               5.80    -8200.00
01600              -2.40    -8400.00
01601              -7.40    -8400.00
01602               2.60    -8400.00
01603               7.00    -8400.00
01604             -12.60    -8400.00
01605              -1.20    -8800.00
01606              10.60    -8800.00
01607             -11.20    -8800.00
01608              -4.60    -8800.00
01609              10.20    -9000.00
01610              -4.20    -9000.00
01611              -9.80    -9000.00
01612               6.20    -9200.00
01613               2.80    -9200.00
01614             -11.80    -9200.00
01615               1.00    -9200.00
01616               6.80    -9400.00
01617              -7.00    -9400.00
01618              -4.60    -9200.00
01619               5.20    -9600.00
01620              -1.20    -9600.00
01621              -7.00    -9600.00
01622               1.00    -9600.00
01623               3.00    -9600.00
01624              -5.00    -9800.00
01625              -3.00    -9800.00
01626               3.00    -9600.00
01627              -1.80    -9800.00
01628              -5.40    -9600.00
01629               1.20    -9800.00
01630               1.80    -9800.00
01631              -3.80    -9800.00
01632              -2.00    -9800.00
01633               1.40    -9800.00
01634              -2.00    -9800.00
01635              -3.40    -9800.00
01636              -0.20    -9800.00
01637               0.20    -9800.00
01638              -2.20    -9800.00
01639              -1.40    -9800.00
01640              -0.20    -9800.00
01641              -2.00    -9800.00
01642              -2.00    -9600.00
01643              -0.60    -9600.00
01644              -0.60    -9600.00
01645              -1.00    -9800.00
01646              -2.00    -9800.00
01647              -1.00    -9600.00
01648              -0.80    -9600.00
01649              -1.80    -9600.00
01650              -1.00    -9600.00
01651              -1.00    -9600.00
01652              -1.00    -9600.00
01653              -1.80    -9400.00
01654              -1.20    -9200.00
01655              -1.00    -9400.00
01656              -1.20    -9200.00
01657              -1.80    -9200.00
01658              -1.40    -9200.00
01659              -0.60    -9200.00
01660              -1.80    -9000.00
01661              -2.00    -8800.00
01662              -0.20    -9000.00
01663              -1.20    -8800.00
01664              -2.20    -8800.00
01665              -1.00    -8800.00
01666              -1.00    -8800.00
01667              -1.20    -8600.00
01668              -2.00    -8400.00
01669              -0.60    -8200.00
01670              -0.60    -8200.00
01671              -2.80    -8200.00
01672              -0.80    -8000.00
01673               0.20    -8000.00
01674              -2.60    -8000.00
01675              -1.00    -8000.00
01676               0.20    -7800.00
01677              -1.80    -7600.00
01678              -1.40    -7400.00
01679               0.00    -7400.00
01680              -1.80    -7400.00
01681              -1.60    -7200.00
01682              -0.20    -7000.00
01683              -0.60    -6800.00
01684              -1.00    -6800.00
01685              -1.20    -6600.00
01686              -1.40    -6800.00
01687              -0.60    -6400.00
01688              -0.60    -6400.00
01689              -0.80    -6200.00
01690              -1.00    -6000.00
01691              -0.20    -6000.00
01692              -1.80    -5800.00
01693              -1.20    -5600.00
01694               0.20    -5600.00
01695              -1.20    -5600.00
01696              -1.20    -5400.00
01697               0.60    -5000.00
01698              -1.00    -5000.00
01699              -1.40    -5000.00
01700              -0.60    -4800.00
01701              -1.00    -4600.00
01702              -0.60    -4400.00
01703              -0.40    -4200.00
01704              -0.60    -4200.00
01705              -0.60    -4000.00
01706              -0.40    -4000.00
01707              -0.60    -3800.00
01708              -0.80    -3600.00
01709              -0.40    -3400.00
01710              -0.60    -3200.00
01711              -0.60    -3200.00
01712              -0.20    -3000.00
01713              -0.40    -2800.00
01714              -0.60    -2800.00
01715              -0.60    -2600.00
01716              -0.40    -2400.00
01717              -0.20    -2200.00
01718              -0.60    -2000.00
01719              -0.40    -2000.00
01720              -0.40    -1800.00
01721              -1.00    -1600.00
01722              -0.20    -1400.00
01723              -0.20    -1200.00
01724              -0.60    -1000.00
01725              -0.60    -1000.00
01726              -0.20     -800.00
01727              -0.20     -600.00
01728              -0.80     -400.00
01729              -0.60     -200.00
01730               0.00     -200.00
01731              -0.60        0.00
01732              -0.20        0.00
01733               1.00      200.00
01734               0.60      400.00
01735              -1.00      600.00
01736               0.20      600.00
01737               0.60     1000.00
01738              -0.60     1000.00
01739              -0.20     1200.00
01740               3.00     1400.00
01741              13.20     1800.00
01742               9.40     1800.00
01743             -25.00     2000.00
01744             -25.00     2000.00
01745              -1.40     2000.00
01746              25.00     2400.00
01747              10.80     2600.00
01748             -25.00     2400.00
01749              25.00     3000.00
01750              25.00     3000.00
01751             -25.00     2800.00
01752             -25.00     3400.00
01753              25.00     3400.00
01754              -0.60     3600.00
01755             -25.00     3800.00
01756              25.00     3600.00
01757              25.00     4000.00
01758             -25.00     4200.00
01759              25.00     4200.00
01760              25.00     4400.00
01761             -25.00     4600.00
01762             -23.60     4800.00
01763              25.00     4800.00
01764              25.00     5200.00
01765             -25.00     5200.00
01766             -17.20     5200.00
01767              25.00     5400.00
01768              -5.00     5600.00
01769             -25.00     5600.00
01770              25.00     6000.00
01771              25.00     6200.00
01772             -25.00     6200.00
01773              -8.40     6200.00
01774              25.00     6400.00
01775             -17.80     6600.00
01776             -25.00     6800.00
01777              25.00     6800.00
01778               3.60     6800.00
01779             -25.00     7000.00
01780              21.00     7000.00
01781              18.60     7200.00
01782             -25.00     7400.00
01783              -0.40     7400.00
01784              18.20     7600.00
01785              -7.00     7800.00
01786              -7.60     7800.00
01787               8.60     7800.00
01788               3.40     8000.00
01789              -6.80     8000.00
01790               0.20     8200.00
01791               7.80     8200.00
01792              -3.40     8400.00
01793              -5.80     8400.00
01794               9.20     8600.00
01795               1.80     8600.00
01796              -9.60     8600.00
01797               6.40     8800.00
01798               5.60     8800.00
01799              -8.60     8800.00
01800               2.00     9000.00
01801               7.80     9200.00
01802              -5.40     9200.00
01803              -1.60     9200.00
01804               6.80     9200.00
01805              -2.20     9200.00
01806              -3.40     9400.00
01807               5.00     9200.00
01808               1.60     9400.00
01809              -2.80     9400.00
01810               1.20     9400.00
01811               2.80     9600.00
01812              -1.20     9600.00
01813              -1.20     9600.00
01814               3.00     9600.00
01815               1.80     9600.00
01816              -2.00     9800.00
01817               1.20     9600.00
01818               2.80     9800.00
01819              -1.60     9600.00
01820              -0.40     9600.00
01821               3.20     9600.00
01822               0.40     9800.00
01823              -1.20     9600.00
01824               2.00     9600.00
01825               1.40    10000.00
01826              -1.00     9800.00
01827               1.00     9800.00
01828               2.20     9800.00
01829               0.40     9800.00
01830               0.20     9800.00
01831               1.00     9600.00
01832               1.00     9800.00
01833               0.20     9600.00
01834               0.40     9800.00
01835               1.20     9800.00
01836               1.00     9600.00
01837               0.40     9600.00
01838               0.60     9800.00
01839               1.20     9600.00
01840               0.40     9600.00
01841               0.40     9400.00
01842               1.20     9400.00
01843               0.80     9400.00
01844               0.60     9400.00
01845               1.00     9400.00
01846               0.40     9400.00
01847               0.80     9200.00
01848               0.40     9200.00
01849               0.40     9200.00
01850               0.60     9200.00
01851               1.40     9000.00
01852              -0.20     8800.00
01853               0.40     8800.00
01854               0.80     8800.00
01855               1.00     8600.00
01856              -0.40     8600.00
01857               0.80     8600.00
01858               1.00     8400.00
01859               0.20     8400.00
01860               0.20     8400.00
01861               1.20     8200.00
01862               0.40     8000.00
01863               0.40     8200.00
01864               0.40     8000.00
01865               0.20     7800.00
01866               0.40     7800.00
01867              -0.20     7600.00
01868               0.40     7600.00
01869               0.40     7400.00
01870              -0.20     7200.00
01871               0.20     7200.00
01872               1.00     7000.00
01873              -0.40     7000.00
01874               0.40     7000.00
01875               1.00     6800.00
01876               0.00     6600.00
01877               0.20     6600.00
01878               0.40     6400.00
01879              -0.20     6400.00
01880               0.20     6000.00
01881               0.40     6000.00
01882               0.20     6000.00
01883               0.20     5800.00
01884               0.00     5600.00
01885              -0.40     5400.00
01886               0.40     5400.00
01887               1.00     5200.00
01888               0.20     5200.00
01889               0.00     4800.00
01890               0.60     4800.00
01891              -0.80     4600.00
01892              -0.20     4600.00
01893               1.00     4400.00
01894              -0.20     4200.00
01895               0.20     4200.00
01896               0.40     4000.00
01897               0.20     3800.00
01898              -0.60     3600.00
01899               0.00     3600.00
01900               0.40     3400.00
01901              -0.40     3200.00
01902               0.20     3000.00
01903               0.40     3000.00
01904              -0.40     2800.00
01905              -0.20     2600.00
01906               0.20     2400.00
01907               0.20     2200.00
01908               0.20     2200.00
01909               0.20     2000.00
01910               0.20     1600.00
01911               0.00     1800.00
01912              -0.40     1400.00
01913              -0.40     1400.00
01914              -0.40     1200.00
01915              -0.60     1000.00
01916              -0.40      800.00
01917              -0.40      600.00
01918              -0.40      600.00
01919              -0.60      400.00
01920              -0.40      400.00
01921              -0.40        0.00
01922              -0.40     -200.00
01923              -0.20     -200.00
01924               0.40     -400.00
01925               0.60     -400.00
01926              -0.80     -600.00
01927              -0.60     -800.00
01928              -0.20    -1000.00
01929              -1.00    -1000.00
01930              -0.60    -1200.00
01931               6.80    -1400.00
01932              25.00    -1800.00
01933             -23.00    -2200.00
01934             -25.00    -2400.00
01935             -17.40    -2000.00
01936              25.00    -2200.00
01937              25.00    -2600.00
01938             -25.00    -2600.00
01939               5.80    -2400.00
01940              25.00    -3200.00
01941             -19.80    -3200.00
01942             -25.00    -2800.00
01943              25.00    -3600.00
01944              25.00    -3400.00
01945             -25.00    -3400.00
01946              25.00    -4000.00
01947              25.00    -4000.00
01948             -25.00    -4200.00
01949              15.20    -4400.00
01950              25.00    -4400.00
01951             -25.00    -4400.00
01952             -11.00    -4800.00
01953              -3.80    -4800.00
01954              25.00    -5000.00
01955              -5.40    -5200.00
01956             -25.00    -5200.00
01957              25.00    -5600.00
01958              25.00    -5200.00
01959             -25.00    -5600.00
01960              25.00    -6000.00
01961              25.00    -6000.00
01962             -25.00    -6000.00
01963             -20.40    -6200.00
01964              25.00    -6400.00
01965               5.60    -6600.00
01966             -25.00    -6600.00
01967              25.00    -6800.00
01968              25.00    -6800.00
01969             -25.00    -6800.00
01970              10.80    -7200.00
01971              25.00    -7000.00
01972             -25.00    -7200.00
01973              -7.00    -7400.00
01974              15.80    -7400.00
01975              -2.20    -7600.00
01976             -14.00    -7600.00
01977               8.40    -7800.00
01978               5.00    -8000.00
01979             -13.20    -8000.00
01980               2.00    -8200.00
01981               4.60    -8200.00
01982              -5.00    -8400.00
01983              -6.20    -8200.00
01984               7.20    -8400.00
01985               1.80    -8400.00
01986             -14.00    -8600.00
01987               6.80    -8800.00
01988               5.00    -8800.00
01989             -14.20    -8800.00
01990               2.40    -9000.00
01991               8.40    -8800.00
01992              -9.40    -9000.00
01993              -5.80    -9200.00
01994               9.20    -9200.00
01995              -3.80    -9400.00
01996             -10.40    -9200.00
01997               6.60    -9200.00
01998               2.60    -9400.00
01999              -9.00    -9400.00
02000              -0.20    -9600.00
02001               4.20    -9600.00
02002              -4.60    -9600.00
02003              -5.20    -9600.00
02004               3.00    -9600.00
02005               0.40    -9800.00
02006              -5.80    -9800.00
02007              -0.60    -9800.00
02008               2.20    -9800.00
02009              -4.00    -9800.00
02010              -3.80    -9800.00
02011               2.20    -9600.00
02012              -0.20    -9800.00
02013              -4.40    -9800.00
02014              -0.40    -9800.00
02015               0.80   -10000.00
02016              -3.00    -9600.00
02017              -2.20    -9800.00
02018               0.40   -10000.00
02019              -0.60    -9800.00
02020              -2.60    -9800.00
02021              -1.00    -9800.00
02022              -0.40    -9800.00
02023              -2.00    -9800.00
02024              -1.80    -9800.00
02025              -0.60    -9600.00
02026              -0.60    -9800.00
02027              -1.80    -9600.00
02028              -2.00    -9800.00
02029              -0.60    -9600.00
02030              -1.00    -9600.00
02031              -1.80    -9600.00
02032              -1.20    -9600.00
02033              -0.60    -9600.00
02034              -1.20    -9600.00
02035              -2.00    -9600.00
02036              -0.80    -9400.00
02037              -0.60    -9400.00
02038              -1.40    -9200.00
02039              -1.40    -9200.00
02040              -0.60    -9200.00
02041              -0.80    -9000.00
02042              -2.20    -9000.00
02043              -1.40    -8800.00
02044               0.20    -8800.00
02045              -1.80    -8800.00
02046              -2.20    -8800.00
02047              -0.20    -8800.00
02048              -1.00    -8800.00
02049              -2.00    -8600.00
02050              -1.20    -8400.00
02051              -0.20    -8200.00
02052              -1.20    -8200.00
02053              -2.20    -8200.00
02054              -0.60    -8000.00
02055              -0.60    -8000.00
02056              -2.20    -8000.00
02057              -1.40    -7800.00
02058               0.40    -7600.00
02059              -1.40    -7600.00
02060              -2.20    -7600.00
02061              -0.20    -7400.00
02062              -0.80    -7400.00
02063              -2.40    -7000.00
02064              -0.60    -7000.00
02065               0.00    -7000.00
02066              -1.40    -6800.00
02067              -1.80    -6800.00
02068              -0.60    -6400.00
02069              -1.60    -6400.00
02070              -1.00    -6400.00
02071              -0.60    -6200.00
02072              -0.80    -6000.00
02073              -0.80    -5800.00
02074              -1.20    -6000.00
02075              -0.40    -5600.00
02076              -1.00    -5600.00
02077              -1.20    -5600.00
02078              -0.20    -5200.00
02079              -0.60    -5200.00
02080              -1.20    -5000.00
02081              -1.00    -4800.00
02082              -0.60    -4600.00
02083              -1.20    -4400.00
02084              -0.60    -4400.00
02085              -0.40    -4400.00
02086              -0.60    -4000.00
02087              -0.60    -4000.00
02088              -0.40    -3800.00
02089              -1.20    -3600.00
02090              -0.60    -3600.00
02091              -0.40    -3400.00
02092              -1.00    -3200.00
02093              -0.60    -3200.00
02094              -0.40    -3000.00
02095              -0.60    -2800.00
02096              -0.60    -2600.00
02097              -0.40    -2600.00
02098              -0.40    -2400.00
02099              -0.80    -2200.00
02100              -0.60    -2000.00
02101              -0.20    -1800.00
02102              -0.40    -1600.00
02103              -1.00    -1600.00
02104              -0.20    -1600.00
02105               0.20    -1000.00
02106              -0.80    -1000.00
02107              -0.40    -1000.00
02108               0.20     -800.00
02109              -0.60     -600.00
02110              -0.60     -400.00
02111               0.20     -200.00
02112              -0.80        0.00
02113              -0.40        0.00
02114               0.60      200.00
02115               1.00      400.00
02116              -0.20      400.00
02117              -0.40      600.00
02118               0.20      800.00
02119               0.00     1200.00
02120              -0.20      800.00
02121               0.40     1400.00
02122               5.00     1400.00
02123              16.60     1800.00
02124              -2.20     2000.00
02125             -25.00     2000.00
02126             -21.40     2000.00
02127              18.40     2200.00
02128              25.00     2400.00
02129             -25.00     2400.00
02130             -25.00     2800.00
02131              25.00     3000.00
02132              25.00     3000.00
02133             -25.00     3200.00
02134              18.00     3400.00
02135              25.00     3400.00
02136             -25.00     3600.00
02137             -25.00     4000.00
02138              25.00     3800.00
02139             -25.00     4000.00
02140             -25.00     4400.00
02141              25.00     4200.00
02142              16.20     4400.00
02143             -25.00     4600.00
02144              -2.60     4800.00
02145              25.00     5000.00
02146               7.80     5200.00
02147             -25.00     5200.00
02148              10.20     5200.00
02149              25.00     5600.00
02150             -25.00     5800.00
02151             -25.00     6000.00
02152              25.00     6000.00
02153               9.40     6200.00
02154             -25.00     6200.00
02155              17.60     6400.00
02156              25.00     6400.00
02157             -25.00     6600.00
02158              -6.00     6800.00
02159              25.00     6800.00
02160             -20.20     7000.00
02161             -21.60     7000.00
02162              25.00     7000.00
02163               1.00     7200.00
02164             -23.00     7400.00
02165              11.40     7600.00
02166              12.40     7600.00
02167             -11.80     7800.00
02168              -1.40     7800.00
02169              10.00     8000.00
02170              -1.40     8200.00
02171              -6.00     8000.00
02172               4.40     8200.00
02173               6.00     8200.00
02174              -7.40     8200.00
02175              -1.00     8400.00
02176              10.80     8400.00
02177              -4.60     8600.00
02178              -7.00     8600.00
02179              10.00     8600.00
02180               0.40     8800.00
02181              -8.40     8800.00
02182               7.40     8800.00
02183               4.60     9000.00
02184              -7.80     8800.00
02185               2.40     9200.00
02186               6.20     9200.00
02187              -5.00     9200.00
02188              -0.60     9200.00
02189               6.20     9200.00
02190              -1.00     9200.00
02191              -2.80     9400.00
02192               2.40     9400.00
02193               2.00     9600.00
02194              -2.20     9600.00
02195               0.40     9600.00
02196               3.60     9600.00
02197               0.20     9600.00
02198              -1.80     9600.00
02199               2.60     9800.00
02200               1.40     9600.00
02201              -2.60     9800.00
02202               1.40     9600.00
02203               3.20     9800.00
02204              -0.80     9600.00
02205              -0.20     9800.00
02206               2.20     9800.00
02207               0.40    10000.00
02208              -0.60     9600.00
02209               1.40     9800.00
02210               2.00     9800.00
02211               0.20     9600.00
02212               0.60     9800.00
02213               1.20    10000.00
02214               0.40     9600.00
02215               0.20     9600.00
02216               0.60     9600.00
02217               1.40     9600.00
02218               1.00     9600.00
02219               0.40     9800.00
02220               1.00     9600.00
02221               0.60     9400.00
02222               0.40     9400.00
02223               0.40     9400.00
02224               1.20     9400.00
02225               0.60     9400.00
02226               0.20     9400.00
02227               1.00     9200.00
02228               1.20     9200.00
02229               0.40     9200.00
02230               1.00     9200.00
02231               0.40     9000.00
02232               0.40     9000.00
02233               0.80     9200.00
02234               0.20     8800.00
02235               0.60     8800.00
02236               1.20     8600.00
02237              -0.20     8600.00
02238               0.60     8600.00
02239               1.00     8600.00
02240              -0.20     8600.00
02241               0.60     8400.00
02242               0.40     8200.00
02243               0.40     8000.00
02244               0.20     8000.00
02245               0.40     8000.00
02246               0.40     7800.00
02247               0.40     7800.00
02248               0.80     7600.00
02249               0.40     7600.00
02250               0.40     7400.00
02251               0.40     7400.00
02252              -0.40     7200.00
02253              -0.20     7000.00
02254               0.40     7000.00
02255               0.40     6800.00
02256               0.20     6800.00
02257               0.40     6800.00
02258               0.60     6800.00
02259              -0.40     6400.00
02260               0.40     6400.00
02261               0.20     6200.00
02262              -0.20     6200.00
02263               0.60     6200.00
02264              -0.20     6000.00
02265               0.00     5800.00
02266               0.40     5600.00
02267              -0.60     5600.00
02268               0.40     5400.00
02269               0.00     5200.00
02270              -0.20     5000.00
02271               0.80     5000.00
02272              -0.20     4800.00
02273              -0.60     4600.00
02274               1.00     4400.00
02275               0.40     4200.00
02276              -1.00     4400.00
02277               0.40     4000.00
02278               0.60     4000.00
02279              -0.40     3800.00
02280              -0.20     3600.00
02281              -0.20     3600.00
02282              -0.20     3200.00
02283              -0.20     3200.00
02284              -0.20     3000.00
02285               0.20     2800.00
02286               0.20     2800.00
02287              -0.60     2600.00
02288               0.20     2400.00
02289               0.20     2200.00
02290              -0.40     2000.00
02291               0.20     2000.00
02292               0.20     2000.00
02293              -0.20     1600.00
02294               0.20     1400.00
02295              -0.40     1200.00
02296              -0.40     1000.00
02297               0.40     1000.00
02298              -0.40      800.00
02299              -0.40      600.00
02300               0.40      600.00
02301              -0.20      200.00
02302              -1.20      200.00
02303              -0.40        0.00
02304               0.20     -200.00
02305               0.20     -400.00
02306               0.60     -400.00
02307               0.20     -600.00
02308              -0.80     -800.00
02309              -1.00    -1000.00
02310               0.20    -1000.00
02311              -1.00    -1200.00
02312               0.20    -1200.00
02313              15.40    -1400.00
02314              16.40    -2000.00
02315             -25.00    -2000.00
02316             -25.00    -2200.00
02317              10.60    -2000.00
02318              25.00    -2400.00
02319             -10.40    -2600.00
02320             -25.00    -2200.00
02321              25.00    -2800.00
02322              25.00    -3200.00
02323             -25.00    -3200.00
02324             -25.00    -3000.00
02325              25.00    -3600.00
02326              25.00    -3600.00
02327             -25.00    -3400.00
02328              25.00    -4000.00
02329              25.00    -4000.00
02330             -25.00    -4000.00
02331              25.00    -4400.00
02332              19.40    -4400.00
02333             -25.00    -4400.00
02334              -7.00    -4800.00
02335              10.00    -4800.00
02336              25.00    -5000.00
02337             -25.00    -5000.00
02338             -25.00    -5200.00
02339              25.00    -5600.00
02340             -25.00    -5400.00
02341             -25.00    -5800.00
02342              25.00    -5800.00
02343              14.60    -5800.00
02344             -25.00    -6400.00
02345               2.80    -6200.00
02346              25.00    -6400.00
02347             -23.00    -6600.00
02348             -25.00    -6600.00
02349              25.00    -6800.00
02350              -2.60    -6800.00
02351             -25.00    -6800.00
02352              25.00    -7200.00
02353               7.60    -7200.00
02354             -25.00    -7200.00
02355               4.60    -7400.00
02356              13.40    -7600.00
02357             -10.00    -7600.00
02358              -8.40    -7800.00
02359              12.20    -7600.00
02360              -3.60    -8000.00
02361              -9.20    -8000.00
02362               5.20    -8200.00
02363               1.60    -8200.00
02364              -6.40    -8200.00
02365              -3.00    -8400.00
02366               9.00    -8400.00
02367              -5.20    -8400.00
02368             -10.00    -8800.00
02369              11.60    -8600.00
02370              -3.40    -8800.00
02371             -11.60    -8800.00
02372               8.20    -9000.00
02373               3.20    -9000.00
02374             -11.40    -9200.00
02375               0.40    -9200.00
02376               7.60    -9200.00
02377              -9.00    -9200.00
02378              -5.40    -9200.00
02379               8.40    -9200.00
02380              -2.40    -9400.00
02381              -7.60    -9600.00
02382               2.80    -9600.00
02383               2.00    -9600.00
02384              -6.40    -9600.00
02385              -2.60    -9400.00
02386               4.00    -9600.00
02387              -2.20    -9600.00
02388              -5.20    -9800.00
02389               1.60    -9800.00
02390               1.00    -9800.00
02391              -5.20    -9800.00
02392              -1.80    -9800.00
02393               2.20    -9800.00
02394              -2.20    -9800.00
02395              -3.80    -9800.00
02396               0.40    -9800.00
02397              -0.60    -9800.00
02398              -3.40   -10000.00
02399              -1.00    -9800.00
02400               0.20    -9800.00
02401              -1.40    -9800.00
02402              -2.20    -9800.00
02403              -1.00   -10000.00
02404              -0.80    -9800.00
02405              -1.80    -9800.00
02406              -2.00    -9800.00
02407              -0.60    -9800.00
02408              -0.60    -9600.00
02409              -2.20    -9600.00
02410              -1.60    -9600.00
02411              -0.40    -9600.00
02412              -1.20    -9600.00
02413              -1.40    -9600.00
02414              -1.00    -9600.00
02415              -0.60    -9600.00
02416              -1.60    -9400.00
02417              -1.80    -9400.00
02418              -0.60    -9400.00
02419              -0.80    -9200.00
02420              -1.80    -9200.00
02421              -1.20    -9200.00
02422              -0.40    -9200.00
02423              -1.20    -9000.00
02424              -2.20    -9000.00
02425              -0.60    -8800.00
02426              -0.20    -9000.00
02427              -1.40    -8800.00
02428              -1.40    -8800.00
02429              -0.40    -8600.00
02430              -1.20    -8600.00
02431              -2.00    -8400.00
02432              -0.60    -8400.00
02433              -0.20    -8400.00
02434              -1.80    -8200.00
02435              -1.40    -8200.00
02436              -0.60    -8200.00
02437              -1.20    -8000.00
02438              -2.20    -8000.00
02439              -1.00    -7600.00
02440              -0.40    -7600.00
02441              -2.00    -7400.00
02442              -1.40    -7600.00
02443              -0.20    -7200.00
02444              -1.20    -7200.00
02445              -1.40    -7000.00
02446               0.20    -6800.00
02447              -0.40    -6800.00
02448              -1.20    -6800.00
02449              -3.60    -6800.00
02450               0.60    -6400.00
02451              -1.60    -6400.00
02452              -6.20    -6200.00
02453               5.00    -6200.00
02454              -6.60    -6000.00
02455               8.40    -6000.00
02456              -2.20    -5800.00
02457              -5.00    -5600.00
02458               1.00    -5600.00
02459              -3.40    -5400.00
02460              -2.80    -5200.00
02461               0.40    -5000.00
02462              -0.80    -5000.00
02463               0.20    -4800.00
02464               2.00    -4600.00
02465              -2.80    -4400.00
02466               0.60    -4400.00
02467              -1.20    -4200.00
02468              -3.00    -4200.00
02469              -2.80    -3800.00
02470              -0.80    -3600.00
02471               2.20    -3600.00
02472               1.20    -3400.00
02473              -2.60    -3200.00
02474              -0.20    -3200.00
02475               1.40    -3200.00
02476              -5.00    -2800.00
02477               0.00    -2600.00
02478               1.20    -2600.00
02479              -0.60    -2400.00
02480              -0.60    -2400.00
02481               0.40    -2000.00
02482              -0.20    -2000.00
02483              -1.00    -1800.00
02484              -0.80    -1800.00
02485              -1.20    -1600.00
02486              -0.20    -1200.00
02487              -0.40    -1200.00
02488               0.40    -1000.00
02489              -0.60     -800.00
02490               0.40     -600.00
02491              -0.60     -400.00
02492              -1.20     -400.00
02493               0.40     -200.00
02494              -0.20        0.00
02495              -0.60        0.00
02496               0.60      200.00
02497               1.80      400.00
02498              -1.40      600.00
02499               0.00      600.00
02500               1.00      800.00
02501              -0.60      800.00
02502              -1.20     1200.00
02503               1.80     1200.00
02504               8.40     1600.00
02505              16.60     2000.00
02506             -16.40     2000.00
02507             -25.00     2000.00
02508             -14.00     2000.00
02509              25.00     2400.00
02510              25.00     2600.00
02511             -25.00     2400.00
02512             -25.00     2800.00
02513              25.00     3000.00
02514               4.60     3000.00
02515             -25.00     3200.00
02516              25.00     3200.00
02517              25.00     3600.00
02518             -25.00     3600.00
02519              25.00     4000.00
02520              25.00     3800.00
02521             -25.00     4200.00
02522              -9.80     4400.00
02523              25.00     4200.00
02524             -18.20     4400.00
02525             -25.00     4800.00
02526              17.00     4600.00
02527              25.00     5200.00
02528             -19.00     5200.00
02529             -25.00     5200.00
02530              25.00     5400.00
02531              25.00     5600.00
02532             -25.00     5600.00
02533              -3.00     5800.00
02534              25.00     6000.00
02535             -16.60     6200.00
02536             -25.00     6200.00
02537              25.00     6400.00
02538              11.60     6400.00
02539             -25.00     6400.00
02540              20.20     6800.00
02541              25.00     6800.00
02542             -25.00     7000.00
02543              -1.00     7200.00
02544              25.00     7200.00
02545             -15.40     7200.00
02546             -14.40     7200.00
02547              18.00     7600.00
02548               2.80     7600.00
02549             -11.80     7800.00
02550               4.40     7600.00
02551               8.20     7800.00
02552              -4.60     8000.00
02553              -3.40     8200.00
02554               6.80     8200.00
02555               1.80     8400.00
02556              -8.40     8400.00
02557               5.00     8400.00
02558               8.20     8400.00
02559              -8.60     8600.00
02560               0.20     8600.00
02561              10.00     8800.00
02562              -5.20     8800.00
02563              -4.40     8800.00
02564               9.20     8800.00
02565              -1.00     9000.00
02566              -5.80     9200.00
02567               6.20     9200.00
02568               2.20     9200.00
02569              -5.40     9200.00
02570               2.60     9400.00
02571               4.40     9400.00
02572              -3.20     9400.00
02573              -1.00     9400.00
02574               4.00     9400.00
02575               0.40     9600.00
02576              -2.60     9400.00
02577               2.00     9600.00
02578               2.80     9600.00
02579              -1.80     9600.00
02580              -0.20     9600.00
02581               3.40     9800.00
02582               0.20     9600.00
02583              -1.40     9600.00
02584               1.80     9600.00
02585               2.00     9600.00
02586              -1.40     9800.00
02587               0.20     9800.00
02588               3.40     9800.00
02589              -0.60    10000.00
02590              -1.20     9800.00
02591               2.20     9800.00
02592               1.20    10000.00
02593              -0.60     9800.00
02594               0.40     9800.00
02595               1.80     9600.00
02596               0.40     9600.00
02597              -0.20     9600.00
02598               1.40     9800.00
02599               0.80     9800.00
02600               0.60     9600.00
02601               0.40     9600.00
02602               1.00     9600.00
02603               0.60     9600.00
02604               0.00     9600.00
02605               1.00     9400.00
02606               1.00     9400.00
02607               0.40     9400.00
02608               1.20     9400.00
02609               0.20     9200.00
02610               0.40     9200.00
02611               0.40     9200.00
02612              -0.20     9200.00
02613               1.20     9200.00
02614               2.00     8800.00
02615              -0.60     8800.00
02616               1.00     8800.00
02617               0.80     8800.00
02618               0.20     8800.00
02619               0.40     8800.00
02620               0.40     8600.00
02621               1.00     8600.00
02622               0.60     8400.00
02623              -0.60     8400.00
02624               1.20     8400.00
02625               0.40     8200.00
02626              -1.00     8200.00
02627               1.40     7800.00
02628               2.00     8000.00
02629              -1.00     7800.00
02630               0.40     7600.00
02631               1.80     7600.00
02632              -0.60     7400.00
02633              -0.20     7400.00
02634               1.00     7200.00
02635               0.20     7000.00
02636               0.40     7000.00
02637               0.20     6800.00
02638               0.40     6800.00
02639               0.60     6800.00
02640              -1.00     6600.00
02641              -0.20     6400.00
02642               1.40     6400.00
02643              -0.20     6200.00
02644              -1.00     6000.00
02645               1.40     6000.00
02646               0.60     5800.00
02647              -1.20     5600.00
02648               1.00     5600.00
02649               0.60     5400.00
02650              -1.20     5400.00
02651               0.40     5200.00
02652               1.20     5000.00
02653              -1.00     4800.00
02654              -0.60     4800.00
02655               1.00     4600.00
02656              -0.60     4400.00
02657              -0.60     4400.00
02658               0.60     4200.00
02659               0.20     4000.00
02660              -0.60     3800.00
02661               0.20     3600.00
02662               0.40     3600.00
02663              -0.20     3400.00
02664              -0.20     3200.00
02665               0.20     3200.00
02666               0.00     3000.00
02667              -0.40     2800.00
02668              -0.20     2400.00
02669               0.20     2400.00
02670              -0.60     2200.00
02671              -0.40     2200.00
02672              -0.20     2000.00
02673              -0.40     2000.00
02674              -0.20     1800.00
02675               0.00     1600.00
02676              -0.40     1400.00
02677              -0.40     1400.00
02678              -0.40     1000.00
02679              -0.20     1000.00
02680              -0.20      800.00
02681              -0.20      600.00
02682              -0.20      400.00
02683              -0.40      400.00
02684              -0.60        0.00
02685              -0.40        0.00
02686              -0.20     -200.00
02687               0.40     -400.00
02688               1.00     -400.00
02689              -0.40     -800.00
02690              -0.60     -800.00
02691               0.40    -1000.00
02692              -0.20    -1000.00
02693              -0.60    -1000.00
02694               2.80    -1200.00
02695              23.20    -1600.00
02696              -2.80    -2000.00
02697             -25.00    -2200.00
02698             -25.00    -2000.00
02699              25.00    -2000.00
02700              25.00    -2400.00
02701             -25.00    -2800.00
02702             -25.00    -2200.00
02703              25.00    -3000.00
02704              25.00    -3200.00
02705             -25.00    -3000.00
02706              25.00    -3400.00
02707              25.00    -3600.00
02708             -25.00    -3400.00
02709             -25.00    -3600.00
02710              25.00    -4200.00
02711             -21.00    -4000.00
02712             -25.00    -4200.00
02713              25.00    -4400.00
02714             -25.00    -4400.00
02715             -25.00    -4600.00
02716              -6.20    -4800.00
02717              25.00    -4800.00
02718              25.00    -5200.00
02719             -25.00    -5200.00
02720              16.40    -5400.00
02721              25.00    -5600.00
02722             -25.00    -5600.00
02723             -16.20    -5800.00
02724              25.00    -6000.00
02725             -18.80    -6000.00
02726             -25.00    -6400.00
02727              25.00    -6400.00
02728              25.00    -6400.00
02729             -25.00    -6600.00
02730              -7.40    -6600.00
02731              25.00    -6800.00
02732             -25.00    -6800.00
02733             -18.80    -7000.00
02734              25.00    -7200.00
02735             -11.80    -7200.00
02736             -19.20    -7200.00
02737              12.40    -7400.00
02738               7.40    -7600.00
02739             -14.80    -7600.00
02740              -0.60    -8000.00
02741              11.40    -7800.00
02742             -10.20    -8000.00
02743              -3.60    -8200.00
02744               6.00    -8200.00
02745              -2.20    -8200.00
02746              -7.40    -8400.00
02747               2.20    -8600.00
02748               7.40    -8400.00
02749             -11.40    -8400.00
02750              -2.00    -8800.00
02751              11.00    -8800.00
02752             -10.20    -8800.00
02753              -5.40    -9000.00
02754              10.20    -9000.00
02755              -3.00    -9000.00
02756             -10.00    -9000.00
02757               6.00    -9200.00
02758               3.40    -9200.00
02759             -11.80    -9200.00
02760               1.00    -9200.00
02761               7.40    -9600.00
02762              -7.00    -9400.00
02763              -4.60    -9600.00
02764               4.60    -9600.00
02765              -1.40    -9600.00
02766              -7.20    -9600.00
02767               0.60    -9600.00
02768               3.40    -9600.00
02769              -4.40    -9600.00
02770              -3.00    -9800.00
02771               2.60    -9800.00
02772              -1.80    -9800.00
02773              -5.80    -9800.00
02774               0.40    -9800.00
02775               2.00    -9800.00
02776              -3.80    -9800.00
02777              -2.60    -9800.00
02778               1.20   -10000.00
02779              -2.20    -9800.00
02780              -3.60    -9800.00
02781              -0.20    -9800.00
02782               0.20    -9800.00
02783              -2.20    -9800.00
02784              -2.00    -9800.00
02785              -0.20    -9800.00
02786              -1.20    -9800.00
02787              -2.20    -9800.00
02788              -1.60    -9600.00
02789              -0.60    -9800.00
02790              -1.20    -9800.00
02791              -2.20    -9600.00
02792              -1.00    -9600.00
02793              -0.60    -9800.00
02794              -2.00    -9600.00
02795              -1.80    -9600.00
02796              -1.00    -9400.00
02797              -1.20    -9600.00
02798              -1.80    -9400.00
02799              -1.20    -9600.00
02800              -0.60    -9200.00
02801              -1.40    -9200.00
02802              -1.60    -9200.00
02803              -1.20    -9200.00
02804              -0.40    -9200.00
02805              -1.60    -9000.00
02806              -1.80    -9000.00
02807              -0.20    -8800.00
02808              -0.60    -8800.00
02809              -2.00    -8800.00
02810              -1.00    -8600.00
02811              -0.60    -8600.00
02812              -1.20    -8600.00
02813              -1.40    -8400.00
02814               0.20    -8400.00
02815              -0.60    -8200.00
02816              -2.20    -8200.00
02817              -1.20    -8200.00
02818              -0.20    -8000.00
02819              -1.60    -7800.00
02820              -1.80    -7600.00
02821               0.40    -7800.00
02822              -0.60    -7600.00
02823              -2.60    -7400.00
02824              -0.60    -7400.00
02825              -0.40    -7400.00
02826              -2.20    -7200.00
02827              -1.40    -7000.00
02828               0.40    -6800.00
02829              -1.00    -6800.00
02830              -2.00    -6800.00
02831              -1.20    -6600.00
02832              -0.60    -6400.00
02833              -1.20    -6400.00
02834              -0.60    -6200.00
02835              -1.00    -6000.00
02836              -0.40    -6000.00
02837              -2.00    -6000.00
02838              -1.40    -6000.00
02839              -0.60    -5600.00
02840              -1.00    -5600.00
02841              -1.20    -5200.00
02842               0.00    -5200.00
02843              -0.60    -5000.00
02844              -1.20    -5000.00
02845              -1.20    -4600.00
02846              -1.00    -4600.00
02847              -1.20    -4400.00
02848              -0.60    -4200.00
02849              -0.20    -4200.00
02850              -0.60    -4000.00
02851              -1.00    -4000.00
02852              -1.00    -3800.00
02853              -1.00    -3600.00
02854              -1.20    -3600.00
02855              -0.40    -3200.00
02856              -0.40    -3200.00
02857              -0.40    -3200.00
02858              -0.60    -2800.00
02859              -0.60    -2600.00
02860              -0.40    -2600.00
02861              -0.60    -2600.00
02862              -1.00    -2200.00
02863              -0.20    -2000.00
02864              -0.40    -2000.00
02865              -0.60    -1800.00
02866              -1.00    -1600.00
02867              -0.20    -1600.00
02868              -0.40    -1400.00
02869              -0.60    -1000.00
02870               0.20     -800.00
02871              -0.60     -800.00
02872              -1.00     -800.00
02873               0.20     -600.00
02874               0.40     -200.00
02875              -1.00     -200.00
02876              -0.60        0.00
02877               0.60      200.00
02878               1.40      400.00
02879               1.00      400.00
02880              -1.00      600.00
02881              -0.20      800.00
02882               0.40      800.00
02883              -0.60     1000.00
02884              -0.40     1200.00
02885               3.80     1400.00
02886              12.80     1800.00
02887              10.60     1800.00
02888             -25.00     2000.00
02889             -25.00     2000.00
02890              -3.20     2000.00
02891              25.00     2400.00
02892              15.60     2800.00
02893             -25.00     2400.00
02894              25.00     3200.00
02895              25.00     3000.00
02896             -25.00     2800.00
02897             -25.00     3400.00
02898              25.00     3200.00
02899               9.20     3200.00
02900             -25.00     3800.00
02901              25.00     3800.00
02902              25.00     4000.00
02903             -25.00     4200.00
02904              25.00     4200.00
02905              25.00     4400.00
02906             -25.00     4600.00
02907             -25.00     4800.00
02908              25.00     4800.00
02909              25.00     5200.00
02910             -25.00     5200.00
02911             -20.60     5200.00
02912              25.00     5400.00
02913              -1.20     5800.00
02914             -25.00     5800.00
02915              23.60     6000.00
02916              25.00     6200.00
02917             -25.00     6400.00
02918             -11.60     6200.00
02919              25.00     6400.00
02920             -14.80     6400.00
02921             -25.00     6800.00
02922              25.00     6800.00
02923               7.00     7000.00
02924             -25.00     7000.00
02925              18.80     7200.00
02926              20.20     7200.00
02927             -24.40     7400.00
02928              -1.80     7200.00
02929              18.20     7600.00
02930              -6.00     7600.00
02931              -7.80     7800.00
02932               8.40     7800.00
02933               3.80     7800.00
02934              -6.80     8200.00
02935               0.20     8200.00
02936               7.80     8400.00
02937              -2.60     8400.00
02938              -5.80     8400.00
02939               9.20     8400.00
02940               2.60     8600.00
02941              -9.80     8600.00
02942               6.00     8800.00
02943               6.20     8800.00
02944              -8.60     8800.00
02945               2.00     8800.00
02946               8.80     9000.00
02947              -5.80     9200.00
02948              -2.60     9200.00
02949               8.20     9200.00
02950              -2.00     9200.00
02951              -3.60     9200.00
02952               5.80     9400.00
02953               1.80     9400.00
02954              -3.60     9400.00
02955               1.80     9400.00
02956               3.40     9400.00
02957              -2.00     9400.00
02958              -1.20     9600.00
02959               3.00     9600.00
02960               1.80     9600.00
02961              -2.00     9600.00
02962               1.20     9600.00
02963               2.60     9600.00
02964              -1.40     9600.00
02965              -0.80     9600.00
02966               3.40     9800.00
02967               0.40     9800.00
02968              -1.20    10000.00
02969               1.80     9800.00
02970               1.80    10000.00
02971              -1.20     9800.00
02972               0.20     9600.00
02973               2.00    10000.00
02974               0.60     9600.00
02975              -0.40     9800.00
02976               0.40     9800.00
02977               1.80     9800.00
02978               0.20     9600.00
02979              -1.20     9600.00
02980               2.00     9800.00
02981               1.20     9600.00
02982              -1.00     9600.00
02983               0.80     9600.00
02984               1.20     9600.00
02985               0.40     9600.00
02986               0.60     9400.00
02987               0.40     9600.00
02988               1.00     9400.00
02989               0.40     9400.00
02990               0.40     9400.00
02991               0.80     9400.00
02992               0.60     9200.00
02993               0.20     9200.00
02994              -0.20     9200.00
02995               1.80     9000.00
02996               0.60     9000.00
02997              -1.00     8800.00
02998               2.00     8800.00
02999               1.00     8800.00
03000              -1.00     8800.00
03001               0.40     8600.00
03002               1.40     8600.00
03003               1.20     8400.00
03004              -1.00     8400.00
03005               1.60     8400.00
03006               1.20     8000.00
03007              -1.20     8200.00
03008               0.40     8200.00
03009               1.60     8000.00
03010               0.20     7800.00
03011               0.20     7800.00
03012               1.00     7600.00
03013               1.00     7600.00
03014              -0.60     7400.00
03015              -0.20     7400.00
03016               0.60     7200.00
03017               0.60     7000.00
03018               1.00     7000.00
03019               0.00     6800.00
03020               0.20     6800.00
03021               0.60     6800.00
03022              -1.00     6600.00
03023              -0.60     6400.00
03024               2.00     6200.00
03025              -0.20     6200.00
03026              -1.00     6000.00
03027               1.60     6000.00
03028               0.40     5800.00
03029              -2.00     5600.00
03030               0.40     5400.00
03031               1.80     5400.00
03032              -1.20     5200.00
03033              -0.60     5200.00
03034               1.20     5000.00
03035              -0.20     4800.00
03036              -1.20     4600.00
03037               1.00     4400.00
03038               1.00     4400.00
03039              -1.00     4000.00
03040              -1.00     4000.00
03041               0.40     4000.00
03042              -0.40     3800.00
03043              -0.60     3600.00
03044               0.40     3600.00
03045               0.40     3200.00
03046              -0.60     3200.00
03047              -0.40     3200.00
03048               0.00     2800.00
03049              -0.40     2800.00
03050              -0.40     2800.00
03051               0.40     2400.00
03052               0.20     2200.00
03053              -0.60     2200.00
03054              -0.40     2000.00
03055              -0.40     1800.00
03056              -0.40     1600.00
03057              -0.40     1600.00
03058              -0.40     1400.00
03059               0.40     1200.00
03060               0.20     1000.00
03061              -0.40      800.00
03062               0.20      600.00
03063               0.20      600.00
03064              -1.00      400.00
03065              -0.20      200.00
03066               0.20        0.00
03067              -0.60     -200.00
03068               0.40     -200.00
03069               1.00     -200.00
03070               0.20     -400.00
03071              -0.60     -800.00
03072              -0.60     -800.00
03073              -0.20    -1000.00
03074               0.20    -1000.00
03075              -0.20    -1200.00
03076               7.00    -1400.00
03077              25.00    -1800.00
03078             -21.80    -2000.00
03079             -25.00    -2200.00
03080             -19.20    -1800.00
03081              25.00    -2000.00
03082              25.00    -2600.00
03083             -25.00    -2600.00
03084              -4.60    -2400.00
03085              25.00    -3200.00
03086              -8.40    -3400.00
03087             -25.00    -2600.00
03088              25.00    -3600.00
03089              25.00    -3600.00
03090             -25.00    -3400.00
03091              25.00    -3800.00
03092              25.00    -4000.00
03093             -25.00    -4000.00
03094               3.00    -4400.00
03095              25.00    -4400.00
03096             -25.00    -4400.00
03097             -13.00    -4600.00
03098              -3.20    -4800.00
03099              25.00    -5000.00
03100              -2.20    -5200.00
03101             -25.00    -5200.00
03102              25.00    -5600.00
03103              25.00    -5600.00
03104             -25.00    -5600.00
03105              25.00    -6000.00
03106              25.00    -6000.00
03107             -25.00    -6200.00
03108             -23.00    -6400.00
03109              25.00    -6400.00
03110               8.80    -6600.00
03111             -25.00    -6400.00
03112              24.80    -6800.00
03113              25.00    -6600.00
03114             -25.00    -6800.00
03115               8.20    -7200.00
03116              25.00    -7200.00
03117             -24.60    -7200.00
03118              -7.60    -7400.00
03119              15.40    -7400.00
03120              -1.20    -7600.00
03121             -13.80    -7600.00
03122               7.40    -8000.00
03123               5.20    -8000.00
03124             -11.80    -8000.00
03125               1.60    -8200.00
03126               4.20    -8200.00
03127              -4.40    -8400.00
03128              -6.40    -8400.00
03129               6.20    -8400.00
03130               2.80    -8600.00
03131             -13.80    -8600.00
03132               5.80    -8800.00
03133               5.80    -8800.00
03134             -13.60    -8800.00
03135               1.40    -8800.00
03136               8.60    -8800.00
03137              -8.40    -9000.00
03138              -6.00    -9000.00
03139               9.00    -9000.00
03140              -2.80    -9200.00
03141             -10.40    -9200.00
03142               5.80    -9200.00
03143               3.40    -9200.00
03144              -8.60    -9400.00
03145              -0.60    -9600.00
03146               4.40    -9400.00
03147              -4.20    -9600.00
03148              -5.20    -9600.00
03149               2.80    -9600.00
03150               1.20    -9600.00
03151              -5.80    -9600.00
03152              -1.00    -9800.00
03153               2.60    -9800.00
03154              -3.80    -9600.00
03155              -3.80    -9800.00
03156               1.80    -9600.00
03157              -0.20    -9800.00
03158              -4.40    -9800.00
03159              -1.00   -10000.00
03160               0.60    -9800.00
03161              -3.00   -10000.00
03162              -2.60    -9800.00
03163               0.20    -9800.00
03164              -1.00    -9800.00
03165              -2.80    -9800.00
03166              -1.20    -9800.00
03167              -0.20    -9800.00
03168              -1.80    -9800.00
03169              -2.20    -9800.00
03170              -1.00    -9800.00
03171              -0.60    -9800.00
03172              -1.80    -9600.00
03173              -2.20    -9800.00
03174              -0.80    -9600.00
03175              -1.00    -9600.00
03176              -2.00    -9600.00
03177              -1.20    -9600.00
03178              -0.60    -9600.00
03179              -1.40    -9600.00
03180              -2.00    -9200.00
03181              -1.20    -9400.00
03182              -0.60    -9200.00
03183              -1.20    -9200.00
03184              -1.60    -9200.00
03185              -0.60    -9200.00
03186              -0.60    -9200.00
03187              -2.20    -9000.00
03188              -1.40    -8800.00
03189              -0.20    -8800.00
03190              -1.40    -8800.00
03191              -2.00    -8800.00
03192              -0.40    -8600.00
03193              -0.80    -8600.00
03194              -2.20    -8400.00
03195              -0.60    -8400.00
03196              -0.20    -8400.00
03197              -1.20    -8200.00
03198              -1.60    -8200.00
03199              -0.40    -8200.00
03200              -0.40    -8000.00
03201              -2.20    -8000.00
03202              -1.00    -7800.00
03203               0.60    -7600.00
03204              -2.20    -7600.00
03205              -2.00    -7400.00
03206               0.40    -7400.00
03207              -1.00    -7400.00
03208              -2.20    -7200.00
03209               0.00    -7000.00
03210              -0.20    -6800.00
03211              -1.40    -6800.00
03212              -0.60    -6600.00
03213               0.00    -6600.00
03214              -2.00    -6400.00
03215              -0.60    -6400.00
03216              -0.60    -6200.00
03217              -1.80    -6200.00
03218              -0.20    -6000.00
03219              -1.00    -6000.00
03220              -2.00    -5800.00
03221              -0.40    -5600.00
03222              -0.60    -5600.00
03223              -2.00    -5200.00
03224               0.00    -5200.00
03225               0.20    -5000.00
03226              -2.20    -4800.00
03227              -1.00    -4600.00
03228              -0.40    -4400.00
03229              -1.20    -4400.00
03230              -1.00    -4200.00
03231              -0.60    -4200.00
03232              -0.40    -4000.00
03233              -1.20    -4000.00
03234              -1.00    -3800.00
03235              -0.60    -3600.00
03236              -0.60    -3400.00
03237              -1.20    -3400.00
03238              -0.60    -2800.00
03239              -0.40    -3000.00
03240              -1.00    -2800.00
03241              -1.00    -2600.00
03242              -0.40    -2400.00
03243              -0.40    -2400.00
03244              -0.60    -2200.00
03245              -0.20    -2000.00
03246              -0.20    -1800.00
03247              -0.80    -1800.00
03248              -0.60    -1600.00
03249              -0.60    -1200.00
03250              -0.40    -1400.00
03251              -0.40    -1000.00
03252              -1.00     -800.00
03253              -0.40     -800.00
03254               0.20     -400.00
03255              -1.00     -400.00
03256              -0.20        0.00
03257               0.40        0.00
03258              -0.40        0.00
03259              -0.20        0.00
03260               1.80      400.00
03261               0.40      400.00
03262              -1.40      600.00
03263               0.80      800.00
03264               1.00      800.00
03265              -1.20     1200.00
03266               0.60     1200.00
03267               5.80     1600.00
03268              15.80     1800.00
03269              -0.60     2000.00
03270             -25.00     2200.00
03271             -22.80     2000.00
03272              15.40     2000.00
03273              25.00     2400.00
03274             -25.00     2400.00
03275             -25.00     2600.00
03276              25.00     3000.00
03277              25.00     3000.00
03278             -25.00     3200.00
03279               6.80     3400.00
03280              25.00     3400.00
03281             -25.00     3400.00
03282             -25.00     4000.00
03283              25.00     3800.00
03284             -25.00     4000.00
03285             -25.00     4400.00
03286              25.00     4000.00
03287              19.60     4400.00
03288             -25.00     4800.00
03289              -5.00     4800.00
03290              25.00     4800.00
03291              10.80     5200.00
03292             -25.00     5400.00
03293               6.20     5200.00
03294              25.00     5600.00
03295             -25.00     5600.00
03296             -25.00     5800.00
03297              25.00     5800.00
03298              12.60     6200.00
03299             -25.00     6200.00
03300              14.00     6200.00
03301              25.00     6400.00
03302             -25.00     6600.00
03303             -10.00     6800.00
03304              25.00     6800.00
03305             -17.60     7000.00
03306             -23.80     7000.00
03307              25.00     7200.00
03308               3.00     7200.00
03309             -23.60     7400.00
03310               9.80     7600.00
03311              12.60     7600.00
03312             -10.80     7600.00
03313              -2.20     7800.00
03314               9.40     8000.00
03315              -1.00     8000.00
03316              -5.80     8000.00
03317               3.60     8200.00
03318               6.00     8400.00
03319              -6.20     8400.00
03320              -1.20     8600.00
03321              10.00     8400.00
03322              -3.60     8600.00
03323              -6.00     8800.00
03324               9.00     8600.00
03325               1.20     8800.00
03326              -7.00     8800.00
03327               5.40     8800.00
03328               4.60     9000.00
03329              -5.80     9200.00
03330               1.00     9200.00
03331               6.40     9200.00
03332              -3.80     9200.00
03333              -1.20     9200.00
03334               5.80     9400.00
03335               0.20     9400.00
03336              -2.80     9600.00
03337               2.80     9600.00
03338               2.60     9400.00
03339              -2.60     9600.00
03340               0.20     9600.00
03341               4.20     9600.00
03342               0.40     9600.00
03343              -2.00     9600.00
03344               2.80     9800.00
03345               2.00     9600.00
03346              -2.80     9600.00
03347               1.20     9600.00
03348               3.40     9800.00
03349              -1.40     9600.00
03350              -0.20     9600.00
03351               2.80     9600.00
03352               0.20     9800.00
03353              -1.00    10000.00
03354               1.80     9600.00
03355               1.40     9600.00
03356              -0.20     9800.00
03357               0.60     9800.00
03358               1.20     9800.00
03359               0.20     9600.00
03360               0.40     9600.00
03361               0.20     9800.00
03362               0.60     9600.00
03363               1.00     9600.00
03364               0.20     9600.00
03365               0.60     9600.00
03366               1.00     9600.00
03367               0.20     9400.00
03368               0.20     9400.00
03369               1.40     9400.00
03370               0.40     9600.00
03371              -0.20     9400.00
03372               1.20     9400.00
03373               0.40     9400.00
03374               0.40     9200.00
03375               1.40     9200.00
03376               0.40     9200.00
03377              -0.40     9200.00
03378               1.20     8800.00
03379               0.20     8800.00
03380               0.40     8800.00
03381               1.00     8800.00
03382               0.40     8600.00
03383               0.60     8600.00
03384               0.60     8600.00
03385               0.40     8600.00
03386               0.60     8400.00
03387               1.00     8400.00
03388               0.80     8000.00
03389               0.60     8200.00
03390               0.00     8000.00
03391               0.40     8000.00
03392               0.20     8000.00
03393               0.40     7800.00
03394               1.00     7800.00
03395               0.60     7600.00
03396               0.20     7600.00
03397               0.40     7200.00
03398               0.60     7200.00
03399               0.20     7000.00
03400               0.20     7000.00
03401               1.20     6800.00
03402               0.60     6800.00
03403               0.00     6800.00
03404               0.00     6600.00
03405               1.00     6400.00
03406               0.00     6200.00
03407              -0.40     6200.00
03408               0.80     6000.00
03409               1.20     5800.00
03410              -0.20     6000.00
03411               0.20     5800.00
03412               0.60     5600.00
03413              -0.20     5400.00
03414              -0.40     5200.00
03415               0.60     5000.00
03416               0.60     4800.00
03417              -0.20     4800.00
03418               0.20     4600.00
03419               0.20     4400.00
03420              -0.20     4200.00
03421              -0.20     4200.00
03422               0.20     4000.00
03423              -0.20     4000.00
03424               0.40     3800.00
03425              -0.60     3600.00
03426               0.40     3400.00
03427              -0.40     3200.00
03428              -0.80     3200.00
03429               0.80     3000.00
03430              -0.20     2800.00
03431              -0.60     2800.00
03432               0.40     2400.00
03433              -0.20     2400.00
03434              -0.20     2400.00
03435              -0.40     2000.00
03436              -0.60     2000.00
03437               0.20     1800.00
03438              -0.40     1800.00
03439              -0.60     1400.00
03440              -0.20     1400.00
03441               0.00     1200.00
03442              -0.40     1000.00
03443              -0.20      800.00
03444               0.20      600.00
03445              -0.60      600.00
03446              -0.60      400.00
03447               0.40        0.00
03448              -0.80        0.00
03449              -0.60     -200.00
03450               1.20     -200.00
03451               0.60     -400.00
03452              -0.60     -800.00
03453              -0.60     -600.00
03454              -0.20     -800.00
03455              -0.20    -1000.00
03456              -0.60    -1200.00
03457               0.20    -1400.00
03458              14.20    -1600.00
03459              18.60    -2000.00
03460             -25.00    -2200.00
03461             -25.00    -2400.00
03462               7.00    -1800.00
03463              25.00    -2400.00
03464              -3.60    -2800.00
03465             -25.00    -2400.00
03466              25.00    -2600.00
03467              25.00    -3200.00
03468             -25.00    -3200.00
03469             -25.00    -3000.00
03470              25.00    -3800.00
03471              25.00    -3600.00
03472             -25.00    -3400.00
03473              25.00    -4200.00
03474              25.00    -4000.00
03475             -25.00    -4000.00
03476              25.00    -4600.00
03477              23.60    -4200.00
03478             -25.00    -4600.00
03479              -7.60    -4800.00
03480               7.00    -4800.00
03481              25.00    -5000.00
03482             -25.00    -5200.00
03483             -25.00    -5200.00
03484              25.00    -5600.00
03485             -20.60    -5600.00
03486             -25.00    -5800.00
03487              25.00    -5800.00
03488              19.20    -5800.00
03489             -25.00    -6200.00
03490              -0.40    -6400.00
03491              25.00    -6200.00
03492             -19.80    -6600.00
03493             -25.00    -6600.00
03494              25.00    -6800.00
03495               1.20    -6800.00
03496             -25.00    -7000.00
03497              25.00    -7200.00
03498              10.00    -7200.00
03499             -25.00    -7200.00
03500               3.40    -7400.00
03501              14.00    -7600.00
03502              -9.40    -7600.00
03503              -9.40    -7800.00
03504              11.60    -7800.00
03505              -2.60    -8000.00
03506              -9.40    -8000.00
03507               5.00    -8200.00
03508               2.00    -8200.00
03509              -6.60    -8400.00
03510              -3.80    -8400.00
03511               9.00    -8400.00
03512              -5.00    -8600.00
03513             -10.60    -8600.00
03514              11.80    -8800.00
03515              -2.60    -8800.00
03516             -12.60    -9000.00
03517               7.80    -8800.00
03518               4.00    -9000.00
03519             -11.40    -9000.00
03520               0.00    -9200.00
03521               8.40    -9000.00
03522              -8.60    -9200.00
03523              -6.20    -9200.00
03524               8.40    -9200.00
03525              -1.00    -9600.00
03526              -8.20    -9400.00
03527               2.40    -9600.00
03528               3.00    -9600.00
03529              -7.00    -9600.00
03530              -3.00    -9600.00
03531               4.60    -9600.00
03532              -2.00    -9800.00
03533              -5.20    -9600.00
03534               2.00    -9600.00
03535               1.20    -9800.00
03536              -5.60    -9800.00
03537              -2.00    -9800.00
03538               2.80    -9800.00
03539              -1.40    -9800.00
03540              -4.20    -9800.00
03541               0.20   -10000.00
03542              -0.20    -9800.00
03543              -2.80    -9800.00
03544              -1.20    -9800.00
03545               0.20   -10000.00
03546              -2.00    -9800.00
03547              -2.80    -9800.00
03548              -1.00   -10000.00
03549              -0.60    -9800.00
03550              -1.80    -9800.00
03551              -1.40    -9800.00
03552              -0.60    -9800.00
03553              -0.60    -9800.00
03554              -2.20    -9600.00
03555              -2.00    -9600.00
03556              -1.20    -9600.00
03557              -0.60    -9600.00
03558              -0.20    -9600.00
03559              -2.20    -9600.00
03560              -2.00    -9600.00
03561              -1.20    -9600.00
03562              -2.00    -9400.00
03563              -1.20    -9200.00
03564              -0.20    -9400.00
03565              -1.00    -9200.00
03566              -2.00    -9200.00
03567              -1.60    -9000.00
03568              -0.40    -9000.00
03569              -2.60    -9000.00
03570              -1.20    -8800.00
03571               1.00    -8800.00
03572              -2.60    -8800.00
03573              -1.80    -8800.00
03574               1.00    -8800.00
03575              -2.60    -8800.00
03576              -2.40    -8400.00
03577               1.00    -8400.00
03578              -0.60    -8400.00
03579              -2.60    -8200.00
03580              -0.40    -8200.00
03581              -0.40    -8200.00
03582              -2.00    -8000.00
03583              -0.60    -8000.00
03584              -0.60    -7800.00
03585              -0.40    -7800.00
03586              -1.80    -7400.00
03587              -1.40    -7400.00
03588              -0.20    -7200.00
03589              -1.20    -7200.00
03590              -2.00    -7200.00
03591               0.20    -6800.00
03592              -0.40    -7000.00
03593              -1.80    -6800.00
03594              -1.20    -6600.00
03595               0.40    -6600.00
03596              -1.80    -6400.00
03597              -1.00    -6200.00
03598              -0.60    -6000.00
03599              -1.20    -6000.00
03600              -1.00    -6000.00
03601               0.20    -5800.00
03602              -1.20    -5600.00
03603              -0.60    -5600.00
03604              -0.40    -5400.00
03605              -0.60    -5200.00
03606              -1.40    -5000.00
03607              -0.60    -5000.00
03608              -0.80    -4600.00
03609              -1.00    -4600.00
03610              -0.60    -4400.00
03611              -0.60    -4400.00
03612              -1.00    -4200.00
03613              -0.60    -4000.00
03614              -0.80    -4000.00
03615              -1.00    -3800.00
03616              -0.60    -3600.00
03617              -0.60    -3400.00
03618              -0.80    -3400.00
03619              -1.00    -3200.00
03620              -0.80    -3200.00
03621              -0.20    -2800.00
03622              -1.00    -2600.00
03623              -0.80    -2600.00
03624              -0.20    -2400.00
03625              -0.60    -2400.00
03626              -0.60    -2000.00
03627              -0.60    -2000.00
03628              -0.40    -1800.00
03629              -0.60    -1800.00
03630              -0.80    -1600.00
03631               0.00    -1200.00
03632              -0.40    -1200.00
03633              -1.00    -1000.00
03634              -0.20     -800.00
03635              -0.20     -800.00
03636              -0.60     -400.00
03637              -0.40     -200.00
03638               0.20     -200.00
03639              -0.60        0.00
03640              -0.20        0.00
03641               0.60      400.00
03642               1.00      400.00
03643              -0.40      600.00
03644              -0.60      600.00
03645               0.40      800.00
03646               0.60      800.00
03647              -0.60     1200.00
03648               1.00     1400.00
03649               8.80     1400.00
03650              16.60     1800.00
03651             -15.00     2000.00
03652             -25.00     2000.00
03653             -15.00     2000.00
03654              25.00     2200.00
03655              25.00     2600.00
03656             -25.00     2400.00
03657             -25.00     2800.00
03658              25.00     3000.00
03659              15.20     3000.00
03660             -25.00     3200.00
03661              25.00     3200.00
03662              25.00     3400.00
03663             -25.00     3600.00
03664              25.00     4000.00
03665              25.00     3800.00
03666             -25.00     4000.00
03667             -16.20     4400.00
03668              25.00     4200.00
03669             -14.20     4600.00
03670             -25.00     4800.00
03671              15.00     4800.00
03672              25.00     5200.00
03673             -15.80     5200.00
03674             -25.00     5400.00
03675              25.00     5400.00
03676              25.00     5600.00
03677             -25.00     5600.00
03678              -6.20     5800.00
03679              25.00     6000.00
03680             -14.00     6200.00
03681             -25.00     6000.00
03682              25.00     6400.00
03683              14.00     6400.00
03684             -25.00     6600.00
03685              17.20     6800.00
03686              25.00     6800.00
03687             -25.00     7000.00
03688              -3.40     7000.00
03689              25.00     7000.00
03690             -14.20     7400.00
03691             -15.00     7600.00
03692              17.20     7600.00
03693               3.40     7800.00
03694             -11.80     7600.00
03695               4.40     7800.00
03696               7.80     8000.00
03697              -5.20     8200.00
03698              -3.60     8000.00
03699               6.20     8200.00
03700               1.80     8200.00
03701              -7.60     8400.00
03702               4.60     8400.00
03703               7.60     8400.00
03704              -8.20     8600.00
03705              -0.40     8800.00
03706               9.20     8800.00
03707              -4.60     8800.00
03708              -4.40     8800.00
03709               9.40     8800.00
03710               0.20     9200.00
03711              -6.80     9200.00
03712               6.20     9000.00
03713               3.40     9200.00
03714              -6.60     9200.00
03715               2.60     9200.00
03716               6.20     9400.00
03717              -3.60     9400.00
03718              -1.20     9400.00
03719               4.80     9400.00
03720               0.40     9400.00
03721              -2.60     9400.00
03722               2.00     9600.00
03723               3.60     9600.00
03724              -1.40     9600.00
03725              -0.80     9800.00
03726               3.80     9600.00
03727               0.60     9600.00
03728              -1.80     9600.00
03729               2.40     9800.00
03730               1.40     9600.00
03731              -2.20    10000.00
03732               1.60     9800.00
03733               3.60    10000.00
03734              -0.60     9800.00
03735               0.00     9800.00
03736               2.20     9600.00
03737               0.20     9600.00
03738              -0.60     9800.00
03739               1.60     9600.00
03740               1.80     9600.00
03741               0.20     9600.00
03742               0.80     9600.00
03743               1.00     9600.00
03744              -0.40     9600.00
03745              -0.20     9600.00
03746               1.00     9400.00
03747               1.80     9600.00
03748               0.20     9400.00
03749               0.20     9400.00
03750               0.80     9400.00
03751               0.40     9400.00
03752               0.40     9400.00
03753               0.60     9200.00
03754               0.20     9200.00
03755               1.00     9200.00
03756               0.60     9200.00
03757               0.40     9200.00
03758               0.40     9000.00
03759               1.20     9000.00
03760              -0.20     9200.00
03761               0.20     8800.00
03762               1.00     8800.00
03763               0.40     8800.00
03764               0.20     8600.00
03765               1.00     8600.00
03766               0.60     8600.00
03767               0.40     8600.00
03768               0.40     8400.00
03769               0.80     8200.00
03770               0.40     8200.00
03771               0.40     8000.00
03772               0.60     8000.00
03773               0.60     7800.00
03774               0.20     7800.00
03775              -0.20     7800.00
03776               0.80     7600.00
03777               0.40     7600.00
03778              -0.40     7600.00
03779               0.60     7200.00
03780               1.00     7200.00
03781               0.20     7000.00
03782               0.20     7000.00
03783               0.60     6800.00
03784               0.60     6800.00
03785               0.00     6400.00
03786              -0.20     6400.00
03787               1.20     6200.00
03788               0.20     6200.00
03789              -0.60     6000.00
03790               1.20     6000.00
03791               1.00     6000.00
03792              -1.00     5800.00
03793               0.40     5600.00
03794               1.20     5600.00
03795              -0.40     5400.00
03796              -0.20     5200.00
03797               1.20     5000.00
03798              -0.20     4800.00
03799              -0.60     4600.00
03800               0.60     4600.00
03801               0.40     4400.00
03802              -0.40     4000.00
03803               0.40     4000.00
03804               0.60     4000.00
03805              -0.20     3800.00
03806              -0.40     3800.00
03807               0.40     3600.00
03808              -0.20     3400.00
03809              -0.60     3200.00
03810              -0.20     3200.00
03811              -0.20     2800.00
03812              -0.40     2800.00
03813              -0.20     2800.00
03814              -0.40     2400.00
03815              -0.20     2400.00
03816              -0.20     2200.00
03817              -0.40     2000.00
03818              -0.40     2000.00
03819              -0.40     1600.00
03820              -0.60     1600.00
03821              -0.40     1400.00
03822              -0.40     1200.00
03823              -0.40     1200.00
03824              -0.40     1000.00
03825              -0.60      800.00
03826              -0.40      600.00
03827              -0.40      400.00
03828              -0.40      200.00
03829              -0.20        0.00
03830              -0.40        0.00
03831               0.00     -200.00
03832               0.40     -400.00
03833               0.60     -400.00
03834              -0.40     -600.00
03835              -0.60     -800.00
03836              -0.20    -1000.00
03837              -0.40    -1200.00
03838              -1.00    -1200.00
03839               2.60    -1400.00
03840              22.80    -1600.00
03841              -0.40    -2000.00
03842             -25.00    -2000.00
03843             -25.00    -2200.00
03844              25.00    -2000.00
03845              25.00    -2400.00
03846             -25.00    -2800.00
03847             -25.00    -2200.00
03848              25.00    -3000.00
03849              25.00    -3200.00
03850             -25.00    -3000.00
03851              15.60    -3200.00
03852              25.00    -3600.00
03853             -25.00    -3600.00
03854             -25.00    -3400.00
03855              25.00    -4000.00
03856             -10.80    -4000.00
03857             -25.00    -4200.00
03858              25.00    -4400.00
03859             -25.00    -4400.00
03860             -25.00    -4600.00
03861              -6.40    -4800.00
03862              25.00    -4800.00
03863              25.00    -5000.00
03864             -25.00    -5200.00
03865              11.00    -5400.00
03866              25.00    -5600.00
03867             -25.00    -5600.00
03868             -21.60    -5800.00
03869              25.00    -6000.00
03870             -15.80    -6000.00
03871             -25.00    -6200.00
03872              23.00    -6200.00
03873              25.00    -6600.00
03874             -25.00    -6600.00
03875             -10.60    -6600.00
03876              25.00    -7000.00
03877             -25.00    -6800.00
03878             -21.40    -7200.00
03879              25.00    -7200.00
03880             -10.20    -7200.00
03881             -20.40    -7400.00
03882              11.80    -7600.00
03883               7.80    -7600.00
03884             -14.20    -7800.00
03885              -1.40    -8000.00
03886              11.60    -8000.00
03887              -9.40    -8000.00
03888              -4.40    -8200.00
03889               5.60    -8200.00
03890              -1.40    -8400.00
03891              -7.40    -8400.00
03892               1.20    -8400.00
03893               7.80    -8400.00
03894             -11.00    -8800.00
03895              -2.80    -8600.00
03896              11.60    -8600.00
03897             -10.20    -8800.00
03898              -6.00    -8800.00
03899              10.20    -9000.00
03900              -2.80    -9000.00
03901             -10.20    -9200.00
03902               5.40    -9200.00
03903               3.80    -9200.00
03904             -11.40    -9200.00
03905               0.40    -9200.00
03906               6.80    -9400.00
03907              -5.60    -9400.00
03908              -5.00    -9400.00
03909               4.20    -9600.00
03910               0.20    -9600.00
03911              -7.00    -9600.00
03912               0.00    -9600.00
03913               3.80    -9600.00
03914              -4.60    -9600.00
03915              -3.80    -9800.00
03916               3.60    -9800.00
03917              -1.20    -9800.00
03918              -6.00    -9800.00
03919               1.00    -9800.00
03920               2.60    -9800.00
03921              -3.80    -9800.00
03922              -2.40    -9800.00
03923               1.40    -9800.00
03924              -2.00    -9800.00
03925              -2.60    -9800.00
03926               0.20    -9800.00
03927              -0.40    -9800.00
03928              -2.20    -9800.00
03929              -1.60    -9800.00
03930              -0.40    -9800.00
03931              -1.20    -9800.00
03932              -1.60    -9800.00
03933              -1.80    -9800.00
03934              -0.60    -9800.00
03935              -0.60    -9600.00
03936              -2.60    -9800.00
03937              -1.40    -9600.00
03938              -0.20    -9600.00
03939              -1.40    -9600.00
03940              -1.80    -9600.00
03941              -0.60    -9600.00
03942              -0.80    -9600.00
03943              -2.20    -9400.00
03944              -1.40    -9200.00
03945              -0.40    -9400.00
03946              -1.80    -9200.00
03947              -1.80    -9200.00
03948              -0.60    -9200.00
03949              -1.20    -9200.00
03950              -1.80    -9200.00
03951              -1.80    -9000.00
03952              -0.60    -9000.00
03953              -1.00    -8800.00
03954              -1.80    -8800.00
03955              -1.20    -8800.00
03956              -0.60    -8800.00
03957              -1.80    -8400.00
03958              -1.80    -8400.00
03959              -0.60    -8400.00
03960              -0.60    -8400.00
03961              -2.00    -8200.00
03962              -1.20    -8000.00
03963              -0.20    -8000.00
03964              -2.00    -8000.00
03965              -1.60    -7800.00
03966               0.40    -7800.00
03967              -1.20    -7600.00
03968              -2.00    -7400.00
03969              -0.20    -7400.00
03970              -1.00    -7200.00
03971              -1.60    -7200.00
03972              -0.80    -7200.00
03973              -0.60    -6800.00
03974              -0.60    -6800.00
03975              -1.20    -6600.00
03976              -1.00    -6600.00
03977              -1.00    -6400.00
03978              -0.60    -6400.00
03979              -0.40    -6200.00
03980              -1.20    -6000.00
03981              -0.20    -6000.00
03982              -1.20    -6000.00
03983              -1.20    -5800.00
03984              -0.60    -5600.00
03985              -0.40    -5200.00
03986              -1.20    -5200.00
03987              -0.20    -5000.00
03988              -0.20    -5000.00
03989              -1.40    -4800.00
03990              -1.20    -4600.00
03991              -0.20    -4600.00
03992              -1.20    -4400.00
03993              -1.00    -4200.00
03994              -0.40    -4200.00
03995              -1.00    -4000.00
03996              -0.60    -4000.00
03997              -1.20    -3800.00
03998              -0.80    -3600.00
03999               0.20    -3400.00
04000              -0.40    -3200.00
04001              -0.40    -3200.00
04002              -0.40    -3000.00
04003              -0.40    -2800.00
04004              -2.20    -2600.00
04005              -1.40    -2600.00
04006              -0.60    -2400.00
04007              -1.20    -2400.00
04008              -0.60    -2000.00
04009               0.80    -1800.00
04010               1.00    -1800.00
04011              -0.60    -1600.00
04012              -1.20    -1400.00
04013              -0.20    -1200.00
04014              -2.20    -1200.00
04015              -2.20    -1000.00
04016               0.40     -800.00
04017              -0.20     -600.00
04018              -0.60     -400.00
04019               1.80     -200.00
04020              -0.20        0.00
04021              -1.40     -200.00
04022               0.00        0.00
04023              -1.00      200.00
04024              -0.40      400.00
04025               0.20      400.00
04026              -0.20      800.00
04027               2.00      800.00
04028               1.20     1200.00
04029              -0.60     1200.00
04030               2.00     1200.00
04031              11.00     1800.00
04032              11.00     1800.00
04033             -25.00     2000.00
04034             -25.00     2000.00
04035              -3.00     2000.00
04036              25.00     2400.00
04037              19.40     2600.00
04038             -25.00     2400.00
04039              25.00     3000.00
04040              25.00     3000.00
04041             -25.00     3000.00
04042             -25.00     3400.00
04043              25.00     3400.00
04044              21.40     3600.00
04045             -25.00     3800.00
04046              25.00     3800.00
04047              25.00     4000.00
04048             -25.00     4200.00
04049              25.00     4400.00
04050              25.00     4400.00
04051             -25.00     4600.00
04052             -25.00     4800.00
04053              25.00     4800.00
04054              25.00     5200.00
04055             -25.00     5200.00
04056             -24.60     5400.00
04057              25.00     5400.00
04058               3.00     5600.00
04059             -25.00     5800.00
04060              22.80     6000.00
04061              25.00     6000.00
04062             -25.00     6200.00
04063             -14.20     6200.00
04064              25.00     6200.00
04065             -12.40     6400.00
04066             -25.00     6600.00
04067              25.00     6800.00
04068              10.20     7000.00
04069             -25.00     7000.00
04070              16.40     7000.00
04071              21.80     7200.00
04072             -25.00     7200.00
04073              -3.80     7600.00
04074              20.00     7600.00
04075              -5.20     7800.00
04076              -9.00     7800.00
04077               8.80     7800.00
04078               4.40     8000.00
04079              -7.40     8200.00
04080              -0.60     8200.00
04081               7.60     8200.00
04082              -2.80     8400.00
04083              -6.20     8400.00
04084               9.20     8400.00
04085               3.40     8400.00
04086             -10.20     8600.00
04087               5.20     8600.00
04088               6.80     8800.00
04089              -9.20     8800.00
04090               1.00     9000.00
04091               9.20     8800.00
04092              -4.60     9000.00
04093              -2.20     9200.00
04094               7.60     9200.00
04095              -1.80     9200.00
04096              -4.20     9200.00
04097               4.60     9200.00
04098               2.60     9400.00
04099              -3.40     9400.00
04100               1.20     9600.00
04101               4.00     9400.00
04102              -1.00     9600.00
04103              -1.80     9600.00
04104               2.60     9600.00
04105               2.20     9600.00
04106              -1.80     9800.00
04107               1.00     9600.00
04108               3.60     9800.00
04109              -0.40    10000.00
04110              -0.60     9600.00
04111               3.20     9800.00
04112               0.20     9600.00
04113              -1.80    10000.00
04114               1.80     9800.00
04115               1.80     9800.00
04116              -0.40    10000.00
04117               0.60    10000.00
04118               2.00     9800.00
04119               0.60     9800.00
04120              -0.20    10000.00
04121               0.60     9800.00
04122               1.60    10000.00
04123               0.40     9600.00
04124               0.40     9600.00
04125               1.80     9600.00
04126               0.60     9600.00
04127              -0.20     9600.00
04128               0.40     9600.00
04129               1.00     9600.00
04130               0.40     9600.00
04131              -0.20     9400.00
04132               1.40     9600.00
04133               1.20     9400.00
04134              -0.60     9400.00
04135               1.20     9400.00
04136               1.20     9400.00
04137              -0.20     9200.00
04138               0.00     9200.00
04139               0.60     9200.00
04140               0.20     9200.00
04141               1.40     9200.00
04142               0.00     9000.00
04143               0.80     8800.00
04144               1.00     8800.00
04145               0.20     8600.00
04146               0.00     8600.00
04147               1.00     8400.00
04148               0.20     8600.00
04149              -0.20     8400.00
04150               0.40     8400.00
04151               1.00     8200.00
04152               0.20     8200.00
04153               0.20     8000.00
04154               1.00     8200.00
04155               0.60     7800.00
04156              -0.40     7800.00
04157               1.00     7600.00
04158               1.00     7600.00
04159               0.20     7400.00
04160              -0.20     7600.00
04161               0.40     7200.00
04162               0.00     7000.00
04163               0.20     7000.00
04164               0.40     6800.00
04165               0.20     6800.00
04166               0.60     6600.00
04167               0.20     6400.00
04168               0.00     6400.00
04169               0.60     6200.00
04170               0.40     6000.00
04171              -0.20     6000.00
04172               0.60     6000.00
04173               0.60     5800.00
04174              -0.40     5600.00
04175               0.20     5400.00
04176               1.00     5600.00
04177               0.20     5200.00
04178              -0.20     5000.00
04179               0.60     5200.00
04180               0.40     4800.00
04181              -0.40     4800.00
04182              -0.20     4400.00
04183               0.60     4400.00
04184              -0.60     4400.00
04185               0.20     4200.00
04186               0.20     4000.00
04187               0.20     3800.00
04188               0.20     3600.00
04189              -0.20     3600.00
04190               0.00     3400.00
04191               0.40     3200.00
04192              -0.20     3200.00
04193              -0.20     2800.00
04194               0.00     2800.00
04195              -0.20     2800.00
04196              -0.40     2400.00
04197              -0.20     2400.00
04198               0.20     2000.00
04199              -0.40     2000.00
04200              -0.40     1800.00
04201               0.20     1600.00
04202              -0.40     1800.00
04203              -0.60     1400.00
04204               0.20     1400.00
04205              -0.60     1200.00
04206              -0.60      800.00
04207              -0.20      600.00
04208              -0.60      600.00
04209              -0.60      400.00
04210              -0.20      200.00
04211              -0.40        0.00
04212              -0.60        0.00
04213               0.40     -200.00
04214               0.40     -400.00
04215              -0.20     -400.00
04216              -0.40     -800.00
04217              -0.60     -800.00
04218              -0.40    -1000.00
04219              -0.20    -1000.00
04220              -0.60    -1200.00
04221               6.00    -1400.00
04222              25.00    -1800.00
04223             -20.20    -2000.00
04224             -25.00    -2200.00
04225             -20.40    -2000.00
04226              25.00    -2200.00
04227              25.00    -2600.00
04228             -25.00    -2600.00
04229             -12.40    -2400.00
04230              25.00    -3200.00
04231              -1.20    -3200.00
04232             -25.00    -2800.00
04233              25.00    -3600.00
04234              25.00    -3600.00
04235             -25.00    -3400.00
04236              22.60    -4000.00
04237              25.00    -4000.00
04238             -25.00    -4000.00
04239              -5.40    -4400.00
04240              25.00    -4400.00
04241             -25.00    -4400.00
04242             -13.80    -4600.00
04243              -3.60    -4800.00
04244              25.00    -5000.00
04245               2.80    -5200.00
04246             -25.00    -5200.00
04247              25.00    -5600.00
04248              25.00    -5400.00
04249             -25.00    -5800.00
04250              25.00    -6000.00
04251              25.00    -5800.00
04252             -25.00    -6000.00
04253             -25.00    -6400.00
04254              25.00    -6400.00
04255              11.00    -6600.00
04256             -25.00    -6600.00
04257              22.00    -6800.00
04258              25.00    -6800.00
04259             -25.00    -6800.00
04260               6.00    -7200.00
04261              25.00    -7200.00
04262             -24.20    -7200.00
04263              -8.60    -7400.00
04264              15.40    -7400.00
04265              -0.80    -7600.00
04266             -14.20    -7800.00
04267               6.60    -7600.00
04268               5.80    -8000.00
04269             -12.40    -8000.00
04270               1.20    -8200.00
04271               4.40    -8200.00
04272              -4.60    -8400.00
04273              -6.40    -8400.00
04274               5.80    -8400.00
04275               3.00    -8400.00
04276             -13.40    -8600.00
04277               5.20    -8800.00
04278               6.20    -8800.00
04279             -13.40    -8800.00
04280               1.00    -9000.00
04281               9.00    -9000.00
04282              -8.20    -9000.00
04283              -6.20    -9200.00
04284               8.40    -9200.00
04285              -2.20    -9200.00
04286             -10.80    -9200.00
04287               5.20    -9200.00
04288               3.80    -9200.00
04289              -8.40    -9400.00
04290              -1.20    -9600.00
04291               4.80    -9400.00
04292              -3.80    -9600.00
04293              -5.80    -9600.00
04294               3.00    -9600.00
04295               1.00    -9600.00
04296              -5.80    -9600.00
04297              -0.60    -9800.00
04298               2.60    -9800.00
04299              -3.60    -9800.00
04300              -3.80    -9800.00
04301               2.00    -9800.00
04302              -0.20    -9800.00
04303              -4.20    -9800.00
04304              -0.80    -9800.00
04305               1.00    -9800.00
04306              -2.80    -9800.00
04307              -2.20    -9800.00
04308               0.40    -9800.00
04309              -0.60    -9800.00
04310              -2.20    -9800.00
04311              -1.20    -9800.00
04312              -0.20    -9800.00
04313              -1.60    -9800.00
04314              -2.20    -9800.00
04315              -0.80    -9800.00
04316               0.00    -9800.00
04317              -1.80    -9600.00
04318              -2.00    -9600.00
04319              -0.40    -9600.00
04320              -1.00    -9600.00
04321              -1.60    -9600.00
04322              -1.00    -9600.00
04323              -0.60    -9600.00
04324              -1.40    -9600.00
04325              -1.80    -9600.00
04326              -1.00    -9200.00
04327              -0.80    -9200.00
04328              -1.40    -9200.00
04329              -1.40    -9200.00
04330              -1.00    -9200.00
04331              -1.20    -9000.00
04332              -2.00    -9000.00
04333              -1.20    -9000.00
04334              -0.60    -9000.00
04335              -1.40    -9000.00
04336              -2.00    -8800.00
04337              -0.60    -8800.00
04338              -1.20    -8800.00
04339              -2.20    -8600.00
04340              -1.00    -8400.00
04341              -0.40    -8400.00
04342              -1.40    -8200.00
04343              -2.00    -8200.00
04344              -0.40    -8000.00
04345              -1.00    -8000.00
04346              -2.20    -8000.00
04347              -1.20    -7600.00
04348              -0.20    -7600.00
04349              -2.00    -7600.00
04350              -1.80    -7400.00
04351              -0.40    -7400.00
04352              -0.80    -7200.00
04353              -1.80    -7200.00
04354              -0.60    -7000.00
04355              -0.60    -6800.00
04356              -0.60    -6800.00
04357              -2.00    -6600.00
04358              -1.20    -6600.00
04359              -0.40    -6400.00
04360              -1.20    -6400.00
04361              -1.20    -6200.00
04362              -0.60    -6000.00
04363              -0.20    -6000.00
04364              -2.20    -6000.00
04365              -0.60    -5800.00
04366               0.40    -5600.00
04367              -1.60    -5400.00
04368              -0.60    -5400.00
04369               0.40    -5000.00
04370              -1.20    -5000.00
04371              -1.80    -4600.00
04372               0.20    -4600.00
04373              -1.00    -4600.00
04374              -1.40    -4400.00
04375              -0.20    -4200.00
04376              -0.20    -4200.00
04377              -1.40    -4000.00
04378              -0.20    -4000.00
04379              -0.80    -3800.00
04380              -1.00    -3600.00
04381               0.20    -3400.00
04382              -1.40    -3200.00
04383              -0.40    -3200.00
04384              -0.40    -3000.00
04385              -1.00    -2800.00
04386              -0.40    -2600.00
04387              -0.40    -2400.00
04388              -0.20    -2400.00
04389              -0.60    -2400.00
04390              -1.20    -2000.00
04391              -0.40    -1800.00
04392              -0.60    -1800.00
04393              -1.40    -1600.00
04394              -0.40    -1400.00
04395               0.20    -1200.00
04396              -0.60    -1200.00
04397              -1.00     -800.00
04398               0.20     -800.00
04399              -0.60     -600.00
04400              -1.40     -400.00
04401               0.20     -200.00
04402              -0.20     -200.00
04403              -0.80        0.00
04404               0.40      200.00
04405               1.00      400.00
04406              -0.20      400.00
04407              -1.00      600.00
04408               0.40      600.00
04409               0.20      800.00
04410              -0.60     1200.00
04411              -0.20     1200.00
04412               4.40     1400.00
04413              16.40     1800.00
04414               0.20     2000.00
04415             -25.00     2000.00
04416             -22.20     2000.00
04417              13.00     2200.00
04418              25.00     2400.00
04419             -20.60     2600.00
04420             -25.00     2600.00
04421              25.00     3000.00
04422              25.00     3000.00
04423             -25.00     3000.00
04424              -2.80     3400.00
04425              25.00     3200.00
04426             -25.00     3600.00
04427             -25.00     4000.00
04428              25.00     3800.00
04429             -22.00     4000.00
04430             -25.00     4400.00
04431              25.00     4200.00
04432              23.60     4400.00
04433             -25.00     4800.00
04434              -7.00     4800.00
04435              25.00     4800.00
04436              13.20     5200.00
04437             -25.00     5400.00
04438               3.60     5200.00
04439              25.00     5600.00
04440             -25.00     5600.00
04441             -25.00     5800.00
04442              25.00     6000.00
04443              15.40     6200.00
04444             -25.00     6200.00
04445              12.40     6400.00
04446              25.00     6400.00
04447             -25.00     6600.00
04448             -12.40     6800.00
04449              25.00     6800.00
04450             -15.00     7000.00
04451             -25.00     7000.00
04452              25.00     7000.00
04453               5.20     7200.00
04454             -24.60     7200.00
04455               9.00     7600.00
04456              13.80     7800.00
04457             -11.40     7800.00
04458              -2.80     7800.00
04459               9.60     7800.00
04460              -0.40     8200.00
04461              -6.00     8000.00
04462               3.00     8200.00
04463               6.40     8200.00
04464              -6.80     8400.00
04465              -2.00     8400.00
04466              10.00     8600.00
04467              -2.80     8600.00
04468              -6.60     8600.00
04469               9.80     8800.00
04470               1.20     8800.00
04471              -8.60     8800.00
04472               5.80     9000.00
04473               4.40     8800.00
04474              -6.80     9000.00
04475               2.40     9200.00
04476               6.20     9200.00
04477              -3.80     9200.00
04478              -1.20     9400.00
04479               5.20     9400.00
04480              -0.60     9400.00
04481              -2.60     9400.00
04482               2.20     9600.00
04483               2.60     9600.00
04484              -2.20     9600.00
04485              -0.20     9600.00
04486               3.40     9600.00
04487               0.60     9600.00
04488              -1.40     9600.00
04489               2.20     9600.00
04490               2.20     9800.00
04491              -1.80     9800.00
04492               0.40     9600.00
04493               3.00     9800.00
04494              -0.60     9600.00
04495              -0.40     9800.00
04496               2.80    10000.00
04497               1.00     9600.00
04498              -1.00    10000.00
04499               1.20     9800.00
04500               1.80     9800.00
04501               0.40     9600.00
04502               0.40     9800.00
04503               1.20     9800.00
04504               1.00     9600.00
04505               0.40     9600.00
04506               0.60     9600.00
04507               1.40     9600.00
04508               1.00     9600.00
04509               0.20     9800.00
04510               0.80     9600.00
04511               1.20     9400.00
04512               0.40     9600.00
04513               0.40     9400.00
04514               1.40     9400.00
04515               0.40     9400.00
04516              -0.20     9200.00
04517               0.80     9200.00
04518               0.60     9400.00
04519               1.00     9200.00
04520               0.60     9200.00
04521              -0.40     9200.00
04522               0.80     9000.00
04523               1.00     9000.00
04524              -0.80     9000.00
04525               1.40     8800.00
04526               2.00     8800.00
04527              -2.20     8600.00
04528               1.00     8600.00
04529               2.00     8400.00
04530              -1.40     8400.00
04531               0.20     8400.00
04532               1.80     8400.00
04533              -0.20     8400.00
04534               0.20     8200.00
04535               0.60     8000.00
04536               0.60     8000.00
04537              -0.20     7800.00
04538               0.40     7600.00
04539               0.40     7600.00
04540               0.60     7600.00
04541               0.20     7400.00
04542              -0.40     7200.00
04543               0.60     7200.00
04544               0.40     7000.00
04545              -0.60     6800.00
04546               1.00     6800.00
04547               0.80     6800.00
04548              -1.00     6600.00
04549               1.00     6400.00
04550               1.00     6400.00
04551              -0.60     6200.00
04552              -0.20     6200.00
04553               0.60     6000.00
04554               0.20     6000.00
04555              -0.40     5600.00
04556               0.40     5800.00
04557               1.00     5600.00
04558              -0.20     5400.00
04559              -0.40     5000.00
04560               0.40     5000.00
04561               0.40     4800.00
04562              -0.40     4800.00
04563               0.20     4600.00
04564               0.40     4400.00
04565               0.20     4400.00
04566              -0.40     4000.00
04567               0.20     4200.00
04568               0.20     3800.00
04569              -0.40     3800.00
04570               0.40     3600.00
04571               0.20     3600.00
04572              -0.40     3200.00
04573              -0.20     3200.00
04574               0.20     3000.00
04575              -0.40     2800.00
04576              -0.40     2800.00
04577               0.20     2400.00
04578              -0.20     2400.00
04579              -0.20     2200.00
04580               0.20     2200.00
04581              -0.20     2000.00
04582              -0.40     1800.00
04583               0.20     1800.00
04584              -0.20     1400.00
04585              -0.40     1200.00
04586               0.00     1200.00
04587              -0.40      800.00
04588              -0.60      800.00
04589              -0.40      800.00
04590              -0.20      400.00
04591              -0.60      400.00
04592              -0.60      200.00
04593              -0.60        0.00
04594              -0.20     -200.00
04595               0.40     -400.00
04596               0.40     -400.00
04597               0.20     -400.00
04598              -0.60     -800.00
04599              -0.60     -800.00
04600               0.20    -1000.00
04601              -1.00    -1200.00
04602               0.20    -1400.00
04603              13.20    -1600.00
04604              19.40    -2000.00
04605             -25.00    -2200.00
04606             -25.00    -2200.00
04607               3.60    -1800.00
04608              25.00    -2200.00
04609               1.80    -2800.00
04610             -25.00    -2200.00
04611              25.00    -2800.00
04612              25.00    -3200.00
04613             -25.00    -3200.00
04614             -25.00    -2800.00
04615              25.00    -3600.00
04616              25.00    -3400.00
04617             -25.00    -3400.00
04618              25.00    -4200.00
04619              25.00    -4000.00
04620             -25.00    -4000.00
04621              25.00    -4400.00
04622              25.00    -4200.00
04623             -25.00    -4600.00
04624              -6.00    -4600.00
04625               8.20    -4800.00
04626              25.00    -5000.00
04627             -25.00    -5200.00
04628             -25.00    -5400.00
04629              25.00    -5600.00
04630             -15.80    -5400.00
04631             -25.00    -5800.00
04632              25.00    -5800.00
04633              21.80    -5800.00
04634             -25.00    -6200.00
04635              -1.80    -6400.00
04636              25.00    -6400.00
04637             -17.20    -6600.00
04638             -25.00    -6600.00
04639              25.00    -6800.00
04640               4.40    -6800.00
04641             -25.00    -6800.00
04642              25.00    -7200.00
04643              12.20    -7200.00
04644             -25.00    -7400.00
04645               3.00    -7400.00
04646              14.00    -7400.00
04647              -9.20    -7600.00
04648              -9.40    -7800.00
04649              11.80    -8000.00
04650              -2.20    -8000.00
04651             -10.20    -8000.00
04652               5.20    -8200.00
04653               1.20    -8200.00
04654              -6.60    -8400.00
04655              -3.40    -8400.00
04656               8.40    -8600.00
04657              -4.40    -8400.00
04658             -10.80    -8800.00
04659              10.80    -8800.00
04660              -2.00    -8800.00
04661             -12.60    -9000.00
04662               7.40    -9000.00
04663               4.40    -9000.00
04664             -11.40    -9000.00
04665              -0.40    -9200.00
04666               8.60    -9200.00
04667              -8.60    -9200.00
04668              -6.20    -9200.00
04669               8.40    -9400.00
04670              -2.00    -9400.00
04671              -8.00    -9400.00
04672               2.40    -9600.00
04673               2.60    -9600.00
04674              -6.20    -9600.00
04675              -3.00    -9600.00
04676               4.20    -9600.00
04677              -1.80    -9600.00
04678              -5.40    -9600.00
04679               1.80    -9800.00
04680               1.20    -9800.00
04681              -5.40    -9800.00
04682              -2.20    -9800.00
04683               2.40    -9800.00
04684              -2.00    -9800.00
04685              -4.00    -9800.00
04686               0.20    -9800.00
04687               0.20   -10000.00
04688              -2.80    -9800.00
04689              -1.20    -9800.00
04690               0.40    -9800.00
04691              -1.20    -9800.00
04692              -2.80    -9800.00
04693              -1.20    -9800.00
04694              -0.20    -9800.00
04695              -1.40    -9800.00
04696              -2.20    -9600.00
04697              -0.20    -9800.00
04698               0.40    -9600.00
04699              -3.60    -9600.00
04700              -2.00    -9800.00
04701               1.00    -9800.00
04702              -2.40    -9600.00
04703              -1.20    -9600.00
04704               0.20    -9400.00
04705              -1.80    -9600.00
04706              -2.00    -9600.00
04707              -1.40    -9600.00
04708              -1.20    -9400.00
04709              -1.00    -9200.00
04710              -0.60    -9200.00
04711              -1.20    -9200.00
04712              -0.60    -9200.00
04713              -0.60    -9000.00
04714              -2.80    -9000.00
04715              -1.40    -9000.00
04716              -0.40    -9000.00
04717              -1.80    -8800.00
04718              -1.40    -8800.00
04719              -0.20    -8800.00
04720              -1.20    -8600.00
04721              -2.20    -8400.00
04722              -1.20    -8400.00
04723              -0.60    -8400.00
04724              -1.40    -8200.00
04725              -1.40    -8200.00
04726              -0.40    -8000.00
04727              -0.60    -8000.00
04728              -2.60    -7800.00
04729              -1.20    -8000.00
04730               0.40    -7600.00
04731              -2.20    -7400.00
04732              -1.80    -7400.00
04733               0.40    -7400.00
04734              -1.40    -7200.00
04735              -2.20    -7000.00
04736               0.40    -7000.00
04737              -1.00    -6800.00
04738              -2.20    -6800.00
04739              -0.40    -6600.00
04740               0.00    -6600.00
04741              -1.80    -6600.00
04742              -1.20    -6400.00
04743              -1.00    -6200.00
04744              -1.20    -6000.00
04745              -1.00    -5800.00
04746              -1.20    -5800.00
04747              -0.60    -5800.00
04748              -0.20    -5600.00
04749              -1.20    -5400.00
04750              -1.20    -5200.00
04751              -0.20    -5000.00
04752              -0.60    -5000.00
04753              -2.20    -4600.00
04754              -0.60    -4600.00
04755               0.20    -4400.00
04756              -1.40    -4400.00
04757              -0.60    -4200.00
04758               0.60    -4200.00
04759              -1.40    -4000.00
04760              -2.00    -3800.00
04761               0.20    -3600.00
04762               0.40    -3600.00
04763              -1.40    -3400.00
04764              -1.80    -3200.00
04765               0.40    -3000.00
04766              -0.20    -2800.00
04767              -0.80    -2800.00
04768              -0.40    -2600.00
04769               0.20    -2400.00
04770              -0.60    -2400.00
04771              -1.00    -2000.00
04772              -0.60    -2000.00
04773               0.20    -1800.00
04774              -0.60    -1800.00
04775              -1.20    -1600.00
04776               0.20    -1400.00
04777               0.20    -1200.00
04778              -1.20    -1200.00
04779              -0.20     -800.00
04780               0.20     -800.00
04781              -1.20     -600.00
04782              -1.20     -400.00
04783               0.20     -200.00
04784              -0.40        0.00
04785               0.20        0.00
04786               1.00      200.00
04787               1.00      400.00
04788              -0.60      400.00
04789              -1.20      600.00
04790              -0.40      800.00
04791               0.20     1000.00
04792              -0.20     1200.00
04793               1.20     1200.00
04794               8.40     1600.00
04795              17.20     2000.00
04796             -14.00     2000.00
04797             -25.00     2000.00
04798             -16.20     2000.00
04799              25.00     2400.00
04800              25.00     2600.00
04801             -25.00     2400.00
04802             -25.00     2800.00
04803              25.00     2800.00
04804              22.00     2800.00
04805             -25.00     3200.00
04806              25.00     3400.00
04807              25.00     3200.00
04808             -25.00     3600.00
04809              25.00     4000.00
04810              25.00     3800.00
04811             -25.00     4000.00
04812             -21.00     4400.00
04813              25.00     4000.00
04814             -11.80     4600.00
04815             -25.00     4600.00
04816              13.80     4800.00
04817              25.00     5000.00
04818             -13.20     5200.00
04819             -25.00     5400.00
04820              25.00     5400.00
04821              25.00     5600.00
04822             -25.00     5600.00
04823              -9.00     6000.00
04824              25.00     6000.00
04825             -11.00     6200.00
04826             -25.00     6200.00
04827              25.00     6200.00
04828              17.00     6400.00
04829             -25.00     6400.00
04830              15.40     6800.00
04831              25.00     6800.00
04832             -25.00     7000.00
04833              -5.40     7000.00
04834              25.00     7000.00
04835             -12.40     7200.00
04836             -16.40     7600.00
04837              17.00     7600.00
04838               5.20     7600.00
04839             -12.40     7800.00
04840               3.60     7800.00
04841               9.00     8000.00
04842              -4.60     8000.00
04843              -3.80     8200.00
04844               6.60     8200.00
04845               2.20     8400.00
04846              -7.80     8400.00
04847               4.00     8400.00
04848               8.40     8400.00
04849              -7.80     8600.00
04850              -1.20     8800.00
04851               9.80     8600.00
04852              -4.40     8800.00
04853              -5.20     8800.00
04854               9.00     8800.00
04855               0.40     9000.00
04856              -6.20     9200.00
04857               5.60     9200.00
04858               3.00     9200.00
04859              -5.80     9200.00
04860               2.00     9400.00
04861               5.20     9400.00
04862              -2.60     9400.00
04863              -1.00     9600.00
04864               3.60     9400.00
04865               0.40     9600.00
04866              -2.80     9600.00
04867               1.40     9600.00
04868               3.40     9600.00
04869              -1.40     9600.00
04870              -0.60     9600.00
04871               3.40     9800.00
04872               0.40     9800.00
04873              -2.20     9600.00
04874               2.60     9800.00
04875               2.20     9600.00
04876              -1.40     9800.00
04877               1.00     9800.00
04878               2.80     9800.00
04879              -0.60     9800.00
04880              -0.60     9600.00
04881               2.00     9800.00
04882               1.40     9600.00
04883              -0.20     9600.00
04884               0.60     9800.00
04885               1.80     9800.00
04886               0.20     9600.00
04887               0.20     9600.00
04888               1.20     9800.00
04889               1.00     9600.00
04890               0.20     9600.00
04891               0.60     9600.00
04892               1.40     9400.00
04893               0.60     9600.00
04894               0.40     9400.00
04895               0.40     9400.00
04896               1.00     9600.00
04897               1.80     9400.00
04898               0.00     9200.00
04899              -0.20     9200.00
04900               0.60     9200.00
04901               0.60     9200.00
04902               1.60     9200.00
04903               0.40     9200.00
04904               0.40     9200.00
04905               0.40     8800.00
04906               0.00     8800.00
04907               1.00     8600.00
04908               0.60     8600.00
04909               0.20     8600.00
04910               0.60     8600.00
04911               1.00     8600.00
04912               0.40     8400.00
04913              -1.00     8400.00
04914               1.20     8200.00
04915               1.00     8200.00
04916              -0.40     8000.00
04917               0.20     8000.00
04918               0.60     8000.00
04919               1.00     7800.00
04920              -0.40     7600.00
04921               0.60     7600.00
04922               1.20     7400.00
04923              -1.80     7200.00
04924               0.60     7200.00
04925               1.80     7200.00
04926              -1.00     7000.00
04927               0.40     6800.00
04928               1.80     6800.00
04929              -0.40     6600.00
04930              -0.60     6600.00
04931               0.60     6400.00
04932              -0.20     6400.00
04933              -1.00     6400.00
04934               2.00     6000.00
04935               1.20     6000.00
04936              -1.20     6000.00
04937               0.20     6000.00
04938               1.20     5600.00
04939              -0.60     5600.00
04940              -0.20     5200.00
04941               1.20     5200.00
04942               0.20     5000.00
04943              -0.60     4800.00
04944               0.20     4600.00
04945              -0.20     4400.00
04946              -0.60     4400.00
04947               0.40     4200.00
04948               1.00     4000.00
04949               0.20     4000.00
04950              -0.80     3800.00
04951               0.40     3600.00
04952               0.40     3600.00
04953              -0.20     3400.00
04954               0.40     3200.00
04955               1.00     3200.00
04956              -0.60     3000.00
04957              -0.60     2800.00
04958               0.20     2800.00
04959               0.20     2400.00
04960               0.20     2400.00
04961               0.20     2200.00
04962               0.20     2000.00
04963               0.00     1800.00
04964              -0.60     1800.00
04965              -0.40     1600.00
04966               0.40     1400.00
04967              -0.20     1200.00
04968               0.00     1200.00
04969               0.40      800.00
04970              -0.20      600.00
04971              -0.60      600.00
04972              -0.20      400.00
04973              -0.40      200.00
04974              -0.60        0.00
04975              -0.60        0.00
04976               0.60     -400.00
04977               0.20     -200.00
04978               0.40     -400.00
04979              -0.20     -600.00
04980              -0.60     -800.00
04981              -0.40     -800.00
04982               0.20    -1200.00
04983              -0.60    -1200.00
04984               2.00    -1200.00
04985              21.80    -1600.00
04986               2.20    -2000.00
04987             -25.00    -2400.00
04988             -25.00    -2000.00
04989              25.00    -2000.00
04990              25.00    -2400.00
04991             -25.00    -3000.00
04992             -25.00    -2400.00
04993              25.00    -2800.00
04994              25.00    -3200.00
04995             -25.00    -3000.00
04996               6.60    -3200.00
04997              25.00    -3600.00
04998             -25.00    -3600.00
04999             -25.00    -3600.00
05000              25.00    -4000.00
