Unit:(mV)
                     CH1         CH2
Frequency              ? 262.026 kHz
00001               1.20      800.00
00002               0.40     1000.00
00003              -0.20      800.00
00004               1.20      800.00
00005               0.40      600.00
00006              -0.60      400.00
00007               0.80      400.00
00008               0.60      400.00
00009              -1.20      200.00
00010              -0.60        0.00
00011               0.40        0.00
00012              -0.20     -200.00
00013              -0.60     -200.00
00014               0.40     -200.00
00015               0.60     -400.00
00016              -1.80     -400.00
00017              -1.40     -800.00
00018              -0.20     -800.00
00019              -1.00    -1000.00
00020               4.80     -800.00
00021              18.60    -1200.00
00022             -22.20    -1600.00
00023             -25.00    -1200.00
00024              25.00    -1400.00
00025              25.00    -1400.00
00026             -25.00    -2000.00
00027             -25.00    -1200.00
00028              25.00    -1800.00
00029              25.00    -2000.00
00030             -25.00    -2200.00
00031             -25.00    -2000.00
00032              25.00    -2400.00
00033              25.00    -2600.00
00034             -25.00    -2000.00
00035              25.00    -2800.00
00036              25.00    -2800.00
00037             -25.00    -2600.00
00038             -25.00    -2800.00
00039              25.00    -3200.00
00040              11.40    -3200.00
00041             -25.00    -2800.00
00042              25.00    -3400.00
00043              25.00    -3400.00
00044             -25.00    -3400.00
00045              19.00    -3600.00
00046              25.00    -3600.00
00047             -25.00    -3600.00
00048             -25.00    -3800.00
00049              25.00    -4000.00
00050              25.00    -4000.00
00051             -25.00    -4200.00
00052             -25.00    -4000.00
00053              25.00    -4200.00
00054             -18.00    -4200.00
00055             -25.00    -4400.00
00056              25.00    -4600.00
00057              25.00    -4600.00
00058             -25.00    -4600.00
00059              17.40    -4800.00
00060              25.00    -4800.00
00061             -25.00    -5000.00
00062             -25.00    -5000.00
00063              25.00    -5200.00
00064              -2.20    -5200.00
00065             -25.00    -5200.00
00066               7.60    -5200.00
00067              22.60    -5400.00
00068             -25.00    -5200.00
00069             -13.60    -5600.00
00070              24.40    -5600.00
00071             -23.00    -5600.00
00072             -23.60    -5600.00
00073              15.00    -5800.00
00074              -7.00    -5800.00
00075             -25.00    -6000.00
00076               0.60    -6000.00
00077               4.20    -6000.00
00078             -25.00    -6000.00
00079             -11.00    -6000.00
00080               9.00    -6000.00
00081             -18.20    -6000.00
00082             -21.00    -6200.00
00083               6.60    -6400.00
00084              -9.80    -6400.00
00085             -25.00    -6400.00
00086              -1.80    -6400.00
00087               0.00    -6400.00
00088             -23.00    -6400.00
00089             -13.40    -6600.00
00090               2.80    -6600.00
00091             -15.60    -6600.00
00092             -21.80    -6600.00
00093              -2.00    -6600.00
00094              -6.20    -6600.00
00095             -22.20    -6600.00
00096             -11.60    -6600.00
00097              -2.20    -6800.00
00098             -16.40    -6800.00
00099             -19.80    -6600.00
00100              -5.20    -6600.00
00101              -8.60    -6800.00
00102             -21.20    -6600.00
00103             -11.80    -6800.00
00104              -5.20    -6800.00
00105             -16.60    -6800.00
00106             -17.80    -6800.00
00107              -7.60    -6600.00
00108             -11.60    -6800.00
00109             -19.00    -6600.00
00110             -11.80    -6800.00
00111              -8.40    -6800.00
00112             -15.60    -6800.00
00113             -15.60    -6600.00
00114              -9.40    -6800.00
00115             -11.40    -6600.00
00116             -15.60    -6600.00
00117             -12.40    -6600.00
00118              -9.00    -6600.00
00119             -12.40    -6600.00
00120             -13.40    -6600.00
00121              -9.40    -6600.00
00122             -10.20    -6400.00
00123             -14.00    -6600.00
00124             -11.40    -6400.00
00125              -7.60    -6400.00
00126             -10.20    -6400.00
00127             -12.40    -6400.00
00128              -9.40    -6400.00
00129              -8.40    -6400.00
00130             -11.60    -6200.00
00131             -10.80    -6400.00
00132              -6.80    -6200.00
00133              -8.40    -6000.00
00134             -10.20    -6000.00
00135              -8.20    -6200.00
00136              -6.80    -6000.00
00137             -10.20    -6000.00
00138             -10.20    -5800.00
00139              -5.80    -5800.00
00140              -5.40    -5800.00
00141             -10.80    -5800.00
00142              -7.80    -5600.00
00143              -4.80    -5600.00
00144              -9.20    -5600.00
00145              -8.60    -5400.00
00146              -4.20    -5400.00
00147              -6.00    -5200.00
00148              -8.60    -5200.00
00149              -7.00    -5000.00
00150              -4.60    -5000.00
00151              -6.80    -5000.00
00152              -7.80    -4800.00
00153              -4.60    -4600.00
00154              -3.80    -4600.00
00155              -6.20    -4600.00
00156              -5.40    -4600.00
00157              -3.40    -4400.00
00158              -6.60    -4400.00
00159              -6.00    -4400.00
00160              -6.00    -4200.00
00161              -5.40    -4200.00
00162              -5.00    -4000.00
00163              -4.60    -4000.00
00164              -3.80    -4000.00
00165              -1.80    -3800.00
00166              -2.80    -4000.00
00167              -4.20    -3600.00
00168              -4.20    -3600.00
00169              -6.20    -3600.00
00170              -5.80    -3400.00
00171              -3.80    -3400.00
00172              -2.40    -3200.00
00173              -2.20    -3200.00
00174              -2.00    -2800.00
00175              -1.40    -2800.00
00176              -3.60    -2800.00
00177              -5.20    -2800.00
00178              -3.40    -2800.00
00179              -3.40    -2600.00
00180              -4.20    -2400.00
00181              -0.60    -2200.00
00182               0.40    -2400.00
00183              -1.80    -2200.00
00184              -2.60    -2000.00
00185              -1.80    -2000.00
00186              -2.80    -1800.00
00187              -4.40    -1800.00
00188              -2.00    -1600.00
00189              -0.60    -1400.00
00190              -1.40    -1200.00
00191              -0.60    -1200.00
00192              -0.40    -1200.00
00193              -1.40    -1000.00
00194              -2.20    -1000.00
00195              -2.40     -800.00
00196              -1.80     -800.00
00197              -1.00     -800.00
00198              -0.60     -600.00
00199               0.20     -400.00
00200               0.20     -200.00
00201              -0.40     -200.00
00202              -1.00     -200.00
00203              -0.60        0.00
00204              -0.60      200.00
00205               0.20      400.00
00206               1.20      400.00
00207               0.20      400.00
00208              -0.20      600.00
00209               1.20      800.00
00210               1.00      600.00
00211               2.80     1000.00
00212              14.60     1200.00
00213              -0.60     1200.00
00214             -25.00     1200.00
00215             -17.00     1400.00
00216              25.00     1400.00
00217              20.80     1800.00
00218             -25.00     1400.00
00219               1.40     2000.00
00220              25.00     1800.00
00221             -18.20     2000.00
00222             -25.00     2200.00
00223              25.00     2000.00
00224              25.00     2400.00
00225             -25.00     2400.00
00226             -25.00     2600.00
00227              25.00     2800.00
00228             -23.00     2400.00
00229             -25.00     3000.00
00230              25.00     2800.00
00231              25.00     2800.00
00232             -25.00     3200.00
00233              25.00     3200.00
00234              25.00     3200.00
00235             -25.00     3200.00
00236             -25.00     3600.00
00237              25.00     3400.00
00238              25.00     3800.00
00239             -25.00     3800.00
00240              16.40     3600.00
00241              25.00     4000.00
00242             -25.00     4200.00
00243             -25.00     4000.00
00244              25.00     4000.00
00245              25.00     4400.00
00246             -25.00     4400.00
00247              22.60     4400.00
00248              25.00     4400.00
00249             -25.00     4800.00
00250             -20.40     4600.00
00251              25.00     4600.00
00252               2.60     5000.00
00253             -25.00     5000.00
00254              25.00     4800.00
00255              25.00     5200.00
00256             -25.00     5200.00
00257              -1.00     5200.00
00258              25.00     5400.00
00259              -7.20     5400.00
00260             -17.40     5600.00
00261              25.00     5400.00
00262              15.40     5600.00
00263             -20.00     5600.00
00264              15.60     5600.00
00265              25.00     5800.00
00266             -12.60     5800.00
00267               0.40     5800.00
00268              25.00     5800.00
00269               2.40     6000.00
00270              -8.40     6000.00
00271              23.80     6000.00
00272              14.80     6200.00
00273              -8.60     6200.00
00274              13.40     6000.00
00275              22.00     6400.00
00276              -2.00     6200.00
00277               4.40     6200.00
00278              23.00     6400.00
00279               7.40     6400.00
00280              -0.60     6400.00
00281              17.80     6400.00
00282              16.20     6400.00
00283               1.00     6400.00
00284              10.60     6400.00
00285              20.40     6400.00
00286               7.60     6400.00
00287               5.00     6400.00
00288              17.60     6400.00
00289              14.80     6600.00
00290               4.40     6600.00
00291              12.20     6600.00
00292              19.00     6600.00
00293               9.40     6600.00
00294               7.40     6400.00
00295              16.80     6800.00
00296              15.60     6600.00
00297               6.20     6600.00
00298              13.40     6600.00
00299              18.00     6800.00
00300               9.20     6600.00
00301              10.80     6600.00
00302              16.40     6800.00
00303              13.20     6600.00
00304               9.60     6600.00
00305              13.00     6400.00
00306              15.00     6600.00
00307              10.60     6600.00
00308              10.00     6600.00
00309              12.60     6400.00
00310              13.00     6400.00
00311               9.40     6400.00
00312               9.00     6400.00
00313              13.20     6400.00
00314              11.00     6400.00
00315               7.80     6400.00
00316              10.60     6400.00
00317              11.80     6200.00
00318               9.20     6200.00
00319               7.00     6200.00
00320              11.00     6200.00
00321              10.80     6200.00
00322               5.20     6000.00
00323               7.60     6000.00
00324              12.00     6000.00
00325               6.60     6000.00
00326               5.20     5800.00
00327              10.20     6000.00
00328               9.00     5600.00
00329               5.20     5800.00
00330               7.40     5800.00
00331               9.20     5600.00
00332               5.80     5600.00
00333               5.00     5600.00
00334               8.40     5400.00
00335               7.40     5400.00
00336               4.20     5400.00
00337               6.60     5400.00
00338               7.60     5200.00
00339               5.00     5200.00
00340               4.20     5000.00
00341               6.60     5000.00
00342               6.20     4800.00
00343               3.80     4600.00
00344               5.20     4600.00
00345               6.00     4600.00
00346               4.20     4600.00
00347               3.80     4400.00
00348               5.40     4400.00
00349               5.20     4200.00
00350               3.40     4400.00
00351               4.60     4200.00
00352               5.00     4000.00
00353               3.40     4000.00
00354               3.60     3800.00
00355               4.40     3800.00
00356               3.40     3800.00
00357               3.00     3600.00
00358               4.20     3600.00
00359               3.40     3400.00
00360               2.20     3200.00
00361               3.00     3400.00
00362               3.80     3200.00
00363               2.40     3000.00
00364               2.60     3000.00
00365               3.40     2800.00
00366               2.60     2800.00
00367               1.80     2800.00
00368               2.60     2600.00
00369               2.60     2600.00
00370               1.40     2400.00
00371               2.40     2200.00
00372               2.60     2200.00
00373               1.00     2000.00
00374               1.40     2000.00
00375               2.00     2000.00
00376               1.40     1800.00
00377               1.00     1600.00
00378               2.00     1800.00
00379               1.80     1400.00
00380               0.40     1400.00
00381               1.00     1200.00
00382               1.80     1200.00
00383               0.20     1200.00
00384               0.20     1000.00
00385               1.20      600.00
00386               0.60      600.00
00387              -0.60      600.00
00388               0.20      600.00
00389               0.60      400.00
00390              -0.20      200.00
00391              -0.80      200.00
00392              -0.20        0.00
00393               0.60        0.00
00394              -0.60     -200.00
00395              -0.40     -200.00
00396               1.00     -400.00
00397              -0.40     -600.00
00398              -2.00     -400.00
00399              -0.60     -800.00
00400              -0.60     -800.00
00401              -0.40     -800.00
00402              12.20    -1000.00
00403              10.20    -1400.00
00404             -25.00    -1400.00
00405             -25.00    -1000.00
00406              25.00    -1400.00
00407              25.00    -1600.00
00408             -25.00    -1800.00
00409             -25.00    -1400.00
00410              25.00    -1800.00
00411              19.80    -2400.00
00412             -25.00    -1800.00
00413              25.00    -2000.00
00414              25.00    -2400.00
00415             -25.00    -2600.00
00416             -25.00    -2200.00
00417              25.00    -2600.00
00418              25.00    -3000.00
00419             -25.00    -2600.00
00420              25.00    -3000.00
00421              25.00    -3200.00
00422             -25.00    -3000.00
00423             -25.00    -3200.00
00424              25.00    -3400.00
00425             -25.00    -3400.00
00426             -25.00    -3600.00
00427              25.00    -3600.00
00428              25.00    -3600.00
00429             -25.00    -3800.00
00430             -25.00    -4000.00
00431              25.00    -4000.00
00432              22.00    -4000.00
00433             -25.00    -4200.00
00434              22.80    -4200.00
00435              25.00    -4200.00
00436             -25.00    -4400.00
00437             -25.00    -4400.00
00438              25.00    -4600.00
00439             -25.00    -4400.00
00440             -25.00    -4800.00
00441              25.00    -5000.00
00442              12.20    -4600.00
00443             -25.00    -5000.00
00444               2.00    -5000.00
00445              25.00    -5000.00
00446             -25.00    -5200.00
00447             -25.00    -5200.00
00448              25.00    -5400.00
00449              -0.40    -5400.00
00450             -25.00    -5600.00
00451               9.40    -5600.00
00452              12.60    -5600.00
00453             -25.00    -5600.00
00454              -6.00    -5800.00
00455              14.00    -5800.00
00456             -21.40    -5800.00
00457             -19.60    -6000.00
00458               9.00    -6000.00
00459              -7.00    -6000.00
00460             -25.00    -6000.00
00461               1.60    -6200.00
00462               3.40    -6000.00
00463             -25.00    -6000.00
00464              -9.80    -6400.00
00465               7.20    -6400.00
00466             -19.80    -6400.00
00467             -19.80    -6400.00
00468               5.00    -6400.00
00469              -8.60    -6600.00
00470             -25.00    -6400.00
00471              -5.00    -6600.00
00472              -0.40    -6600.00
00473             -22.60    -6600.00
00474             -15.00    -6600.00
00475               1.00    -6600.00
00476             -14.00    -6600.00
00477             -21.40    -6800.00
00478              -5.80    -6600.00
00479              -6.00    -6600.00
00480             -21.20    -6600.00
00481             -14.00    -6600.00
00482              -3.00    -6600.00
00483             -15.00    -6800.00
00484             -19.60    -6800.00
00485              -7.40    -6600.00
00486              -9.20    -6800.00
00487             -19.40    -6600.00
00488             -13.40    -6600.00
00489              -7.20    -6600.00
00490             -14.80    -6800.00
00491             -17.80    -6800.00
00492              -9.80    -6800.00
00493             -10.80    -6800.00
00494             -16.60    -6800.00
00495             -13.40    -6600.00
00496              -9.00    -6800.00
00497             -13.20    -6600.00
00498             -15.60    -6800.00
00499             -10.60    -6600.00
00500             -10.00    -6400.00
00501             -13.60    -6600.00
00502             -12.40    -6400.00
00503              -9.00    -6600.00
00504             -10.80    -6400.00
00505             -13.00    -6400.00
00506              -9.80    -6400.00
00507              -9.40    -6400.00
00508             -11.40    -6400.00
00509             -10.80    -6400.00
00510              -8.20    -6400.00
00511              -9.00    -6400.00
00512             -10.80    -6200.00
00513              -9.80    -6200.00
00514              -7.60    -6200.00
00515              -9.00    -6000.00
00516             -10.20    -6000.00
00517              -7.60    -6000.00
00518              -7.00    -6000.00
00519              -9.80    -5800.00
00520              -8.80    -6000.00
00521              -6.20    -5800.00
00522              -8.20    -5800.00
00523              -8.80    -5600.00
00524              -6.80    -5600.00
00525              -6.60    -5600.00
00526              -8.40    -5400.00
00527              -7.60    -5200.00
00528              -5.20    -5400.00
00529              -6.20    -5200.00
00530              -8.40    -5000.00
00531              -5.80    -5000.00
00532              -5.00    -5000.00
00533              -6.80    -5000.00
00534              -7.40    -5000.00
00535              -4.40    -4800.00
00536              -5.40    -4600.00
00537              -7.00    -4800.00
00538              -4.60    -4600.00
00539              -4.20    -4400.00
00540              -6.60    -4400.00
00541              -5.40    -4400.00
00542              -4.20    -4200.00
00543              -4.60    -4200.00
00544              -5.40    -4000.00
00545              -3.80    -4000.00
00546              -3.80    -4000.00
00547              -4.40    -3600.00
00548              -4.40    -3600.00
00549              -3.60    -3600.00
00550              -3.80    -3600.00
00551              -4.40    -3600.00
00552              -4.20    -3400.00
00553              -2.80    -3200.00
00554              -3.40    -3200.00
00555              -4.40    -3000.00
00556              -2.00    -3000.00
00557              -2.20    -2800.00
00558              -4.60    -2800.00
00559              -2.80    -2600.00
00560              -2.20    -2600.00
00561              -3.40    -2400.00
00562              -2.00    -2400.00
00563              -2.00    -2400.00
00564              -2.60    -2200.00
00565              -1.80    -2200.00
00566              -2.20    -2000.00
00567              -2.60    -1800.00
00568              -1.40    -2000.00
00569              -1.40    -1600.00
00570              -2.20    -1600.00
00571              -1.40    -1600.00
00572              -0.60    -1400.00
00573              -2.20    -1200.00
00574              -1.80    -1000.00
00575              -0.40    -1000.00
00576              -1.00    -1000.00
00577              -1.80     -800.00
00578              -1.00     -800.00
00579               0.20     -400.00
00580              -1.00     -400.00
00581              -1.40     -400.00
00582              -0.20     -200.00
00583              -0.20     -200.00
00584              -0.60        0.00
00585              -0.20        0.00
00586               0.40      200.00
00587               1.00      200.00
00588              -0.60      400.00
00589              -0.40      400.00
00590               1.20      600.00
00591               0.20      600.00
00592               0.60      800.00
00593               7.60      800.00
00594              14.80     1200.00
00595             -14.20     1200.00
00596             -25.00     1000.00
00597              23.40     1400.00
00598              25.00     1600.00
00599             -22.00     1800.00
00600             -25.00     1600.00
00601              25.00     2000.00
00602              25.00     2200.00
00603             -25.00     1800.00
00604             -25.00     2200.00
00605              25.00     2200.00
00606              25.00     2200.00
00607             -25.00     2600.00
00608              25.00     2400.00
00609              25.00     2600.00
00610             -25.00     2800.00
00611             -25.00     2800.00
00612              25.00     3000.00
00613             -24.20     2800.00
00614             -25.00     3400.00
00615              25.00     3200.00
00616              25.00     3200.00
00617             -25.00     3600.00
00618              10.00     3400.00
00619              25.00     3600.00
00620             -25.00     3800.00
00621             -25.00     3800.00
00622              25.00     3800.00
00623              25.00     4000.00
00624             -25.00     4000.00
00625              -6.00     4200.00
00626              25.00     4000.00
00627             -17.40     4400.00
00628             -25.00     4400.00
00629              25.00     4600.00
00630              25.00     4600.00
00631             -25.00     4600.00
00632              16.60     4800.00
00633              25.00     4800.00
00634             -25.00     4800.00
00635             -20.20     5000.00
00636              25.00     4800.00
00637               8.60     5200.00
00638             -25.00     5400.00
00639              23.00     5200.00
00640              25.00     5400.00
00641             -22.60     5400.00
00642               0.40     5400.00
00643              25.00     5600.00
00644              -4.60     5600.00
00645             -12.40     5600.00
00646              25.00     5600.00
00647              13.80     5600.00
00648             -16.40     6000.00
00649              15.60     5800.00
00650              25.00     6000.00
00651              -9.00     6000.00
00652               3.00     6000.00
00653              25.00     6000.00
00654               3.00     6000.00
00655              -5.20     6200.00
00656              22.00     6200.00
00657              14.20     6200.00
00658              -5.20     6400.00
00659              13.80     6200.00
00660              21.20     6200.00
00661               0.40     6400.00
00662               5.20     6400.00
00663              21.20     6400.00
00664               9.00     6400.00
00665               1.80     6400.00
00666              16.20     6400.00
00667              17.00     6600.00
00668               4.00     6400.00
00669               9.20     6600.00
00670              18.80     6400.00
00671              10.00     6800.00
00672               5.80     6600.00
00673              16.40     6600.00
00674              16.20     6800.00
00675               6.20     6600.00
00676              12.20     6600.00
00677              18.00     6800.00
00678              10.00     6800.00
00679               8.60     6600.00
00680              16.40     6600.00
00681              14.20     6600.00
00682               8.60     6600.00
00683              13.00     6800.00
00684              15.80     6800.00
00685              11.00     6600.00
00686              10.20     6600.00
00687              14.60     6400.00
00688              13.20     6600.00
00689               9.60     6400.00
00690              11.60     6600.00
00691              13.20     6600.00
00692              10.40     6400.00
00693               9.60     6400.00
00694              11.80     6400.00
00695              11.40     6400.00
00696               9.20     6400.00
00697               9.80     6200.00
00698              11.00     6200.00
00699               9.60     6200.00
00700               8.20     6200.00
00701              10.20     6200.00
00702              10.20     6200.00
00703               8.40     6200.00
00704               8.00     6000.00
00705               9.00     6000.00
00706               8.40     6000.00
00707               7.00     6000.00
00708               7.80     5800.00
00709               8.60     6000.00
00710               7.40     5800.00
00711               6.80     5600.00
00712               7.60     5600.00
00713               7.60     5600.00
00714               6.20     5400.00
00715               6.20     5600.00
00716               7.40     5400.00
00717               6.40     5400.00
00718               5.40     5400.00
00719               6.20     5200.00
00720               6.80     5200.00
00721               5.20     5000.00
00722               5.20     5000.00
00723               6.40     4800.00
00724               5.20     4800.00
00725               4.20     4800.00
00726               5.60     4600.00
00727               5.60     4600.00
00728               3.80     4400.00
00729               4.40     4400.00
00730               5.40     4400.00
00731               4.20     4400.00
00732               3.60     4400.00
00733               4.60     4000.00
00734               4.40     3800.00
00735               3.00     4000.00
00736               3.40     3800.00
00737               4.20     3600.00
00738               3.40     3600.00
00739               2.80     3600.00
00740               3.80     3400.00
00741               3.60     3600.00
00742               2.60     3400.00
00743               2.80     3200.00
00744               3.40     3200.00
00745               2.80     3000.00
00746               2.60     3000.00
00747               2.60     3000.00
00748               2.60     2800.00
00749               2.20     2800.00
00750               2.00     2600.00
00751               2.40     2400.00
00752               2.20     2400.00
00753               1.80     2200.00
00754               2.00     2000.00
00755               1.80     2000.00
00756               1.40     2000.00
00757               1.40     1800.00
00758               1.40     1800.00
00759               1.40     1600.00
00760               1.00     1600.00
00761               1.00     1400.00
00762               1.20     1400.00
00763               1.00     1200.00
00764               0.40     1000.00
00765               0.60     1200.00
00766               0.60      800.00
00767               0.60      800.00
00768               0.40      600.00
00769              -0.20      600.00
00770               0.40      400.00
00771               0.40      400.00
00772              -0.40      200.00
00773              -0.40        0.00
00774               0.40        0.00
00775              -0.60        0.00
00776              -0.20     -200.00
00777               0.40     -200.00
00778               0.20     -400.00
00779              -1.20     -400.00
00780              -0.80     -400.00
00781              -0.40     -800.00
00782              -1.20     -800.00
00783               1.80    -1000.00
00784              18.20    -1200.00
00785              -6.80    -1600.00
00786             -25.00    -1600.00
00787               8.40    -1200.00
00788              25.00    -1600.00
00789              -8.60    -2000.00
00790             -25.00    -1600.00
00791              25.00    -1600.00
00792              25.00    -2000.00
00793             -25.00    -2400.00
00794             -25.00    -1800.00
00795              25.00    -2400.00
00796              25.00    -2600.00
00797             -25.00    -2400.00
00798             -16.60    -2600.00
00799              25.00    -2800.00
00800              -7.40    -2800.00
00801             -25.00    -2600.00
00802              25.00    -3200.00
00803              25.00    -3200.00
00804             -25.00    -2800.00
00805              25.00    -3400.00
00806              25.00    -3400.00
00807             -25.00    -3400.00
00808             -25.00    -3600.00
00809              25.00    -3600.00
00810               3.20    -3600.00
00811             -25.00    -4000.00
00812               4.20    -3800.00
00813              25.00    -4000.00
00814             -25.00    -4000.00
00815             -25.00    -4200.00
00816              25.00    -4200.00
00817              25.00    -4400.00
00818             -25.00    -4400.00
00819              25.00    -4400.00
00820              25.00    -4600.00
00821             -25.00    -4600.00
00822             -18.60    -4800.00
00823              25.00    -4800.00
00824             -25.00    -4600.00
00825             -25.00    -5000.00
00826              25.00    -5000.00
00827              15.80    -5200.00
00828             -25.00    -5200.00
00829              -9.80    -5400.00
00830              25.00    -5200.00
00831             -25.00    -5400.00
00832             -25.00    -5600.00
00833              23.40    -5800.00
00834              -8.20    -5600.00
00835             -25.00    -5800.00
00836               9.00    -5800.00
00837               3.60    -5800.00
00838             -25.00    -6000.00
00839              -7.00    -6000.00
00840               9.00    -6000.00
00841             -19.00    -6000.00
00842             -19.40    -6000.00
00843               9.40    -6000.00
00844              -9.40    -6200.00
00845             -25.00    -6200.00
00846               2.00    -6400.00
00847              -1.00    -6200.00
00848             -25.00    -6400.00
00849              -9.20    -6400.00
00850               4.80    -6400.00
00851             -18.40    -6400.00
00852             -20.40    -6400.00
00853               1.80    -6600.00
00854              -8.60    -6600.00
00855             -24.40    -6400.00
00856              -6.80    -6600.00
00857              -1.40    -6600.00
00858             -20.40    -6600.00
00859             -16.60    -6800.00
00860              -2.40    -6800.00
00861             -12.40    -6600.00
00862             -21.60    -6600.00
00863              -8.20    -6800.00
00864              -5.60    -6600.00
00865             -19.80    -6800.00
00866             -15.60    -6800.00
00867              -5.60    -6800.00
00868             -14.00    -6800.00
00869             -19.40    -6800.00
00870              -9.60    -6600.00
00871              -8.60    -6800.00
00872             -18.00    -6800.00
00873             -14.80    -6600.00
00874              -8.40    -6600.00
00875             -13.80    -6600.00
00876             -17.20    -6600.00
00877             -10.80    -6800.00
00878             -10.00    -6600.00
00879             -15.00    -6600.00
00880             -13.80    -6600.00
00881              -9.40    -6600.00
00882             -11.20    -6600.00
00883             -14.20    -6400.00
00884             -11.00    -6600.00
00885              -8.80    -6600.00
00886             -12.40    -6600.00
00887             -12.40    -6600.00
00888              -9.20    -6400.00
00889              -9.20    -6400.00
00890             -11.80    -6400.00
00891             -10.60    -6400.00
00892              -8.20    -6200.00
00893             -10.00    -6400.00
00894             -11.00    -6200.00
00895              -8.20    -6000.00
00896              -7.60    -6200.00
00897             -10.00    -6000.00
00898              -9.40    -6000.00
00899              -7.00    -5800.00
00900              -8.20    -6000.00
00901              -9.60    -5800.00
00902              -7.60    -5800.00
00903              -6.20    -5800.00
00904              -8.20    -5600.00
00905              -8.60    -5600.00
00906              -6.20    -5600.00
00907              -6.80    -5600.00
00908              -8.80    -5600.00
00909              -7.00    -5600.00
00910              -5.00    -5400.00
00911              -7.60    -5200.00
00912              -7.60    -5200.00
00913              -5.00    -5200.00
00914              -6.00    -5000.00
00915              -7.60    -5000.00
00916              -5.20    -4800.00
00917              -4.40    -4600.00
00918              -6.80    -4800.00
00919              -6.40    -4600.00
00920              -4.20    -4600.00
00921              -5.00    -4400.00
00922              -7.00    -4400.00
00923              -4.40    -4400.00
00924              -4.20    -4200.00
00925              -5.80    -4000.00
00926              -5.20    -4200.00
00927              -4.00    -4000.00
00928              -4.40    -4000.00
00929              -4.40    -3800.00
00930              -4.20    -3600.00
00931              -3.60    -3600.00
00932              -4.20    -3600.00
00933              -4.60    -3400.00
00934              -3.40    -3400.00
00935              -3.00    -3400.00
00936              -3.80    -3200.00
00937              -3.80    -3000.00
00938              -2.60    -2800.00
00939              -3.40    -2800.00
00940              -3.80    -2800.00
00941              -2.80    -2600.00
00942              -2.60    -2600.00
00943              -2.80    -2400.00
00944              -2.80    -2400.00
00945              -2.20    -2400.00
00946              -2.00    -2000.00
00947              -2.80    -2000.00
00948              -2.20    -2000.00
00949              -1.40    -1800.00
00950              -2.00    -1800.00
00951              -2.20    -1600.00
00952              -1.80    -1600.00
00953              -1.40    -1400.00
00954              -1.60    -1400.00
00955              -1.80    -1200.00
00956              -1.20    -1000.00
00957              -1.00    -1000.00
00958              -1.00     -800.00
00959              -1.40     -600.00
00960              -0.60     -600.00
00961              -0.40     -400.00
00962              -1.00     -400.00
00963              -0.60     -400.00
00964              -0.40     -200.00
00965               0.20     -200.00
00966              -0.40        0.00
00967               0.20        0.00
00968               1.00      200.00
00969               0.60      400.00
00970              -0.40      400.00
00971               0.40      400.00
00972               1.00      600.00
00973               0.20      800.00
00974               2.20      800.00
00975              11.80     1200.00
00976               7.40     1200.00
00977             -25.00     1200.00
00978             -25.00     1200.00
00979              25.00     1400.00
00980              25.00     1800.00
00981             -25.00     1400.00
00982             -25.00     1800.00
00983              25.00     1800.00
00984              25.00     2000.00
00985             -25.00     2000.00
00986              25.00     2200.00
00987              25.00     2400.00
00988             -25.00     2200.00
00989             -25.00     2600.00
00990              25.00     2800.00
00991              25.00     2400.00
00992             -25.00     2800.00
00993              25.00     2800.00
00994              25.00     3000.00
00995             -25.00     3000.00
00996             -25.00     3400.00
00997              25.00     3200.00
00998             -12.40     3200.00
00999             -25.00     3600.00
01000              25.00     3200.00
01001              25.00     3600.00
01002             -25.00     3800.00
01003             -21.40     3800.00
01004              25.00     3800.00
01005               6.60     4200.00
01006             -25.00     4200.00
01007              25.00     4000.00
01008              25.00     4200.00
01009             -25.00     4400.00
01010             -10.80     4600.00
01011              25.00     4600.00
01012             -12.40     4800.00
01013             -25.00     4600.00
01014              25.00     4600.00
01015              25.00     4800.00
01016             -25.00     4800.00
01017               9.40     4800.00
01018              25.00     5200.00
01019             -17.20     5200.00
01020             -18.20     5200.00
01021              25.00     5400.00
01022              10.80     5400.00
01023             -25.00     5400.00
01024              20.20     5400.00
01025              25.00     5600.00
01026             -17.80     5600.00
01027               2.80     5600.00
01028              25.00     5600.00
01029              -2.60     6000.00
01030              -9.40     6000.00
01031              25.00     6000.00
01032              13.40     6000.00
01033             -12.20     6000.00
01034              16.20     6200.00
01035              23.00     6000.00
01036              -5.80     6200.00
01037               4.60     6200.00
01038              25.00     6200.00
01039               3.80     6200.00
01040              -1.80     6200.00
01041              21.00     6400.00
01042              13.80     6200.00
01043              -2.00     6400.00
01044              12.60     6400.00
01045              20.00     6400.00
01046               2.80     6400.00
01047               5.80     6400.00
01048              20.00     6400.00
01049              11.20     6600.00
01050               3.00     6400.00
01051              15.40     6600.00
01052              17.00     6400.00
01053               5.40     6400.00
01054              10.00     6600.00
01055              18.00     6600.00
01056              11.00     6600.00
01057               7.00     6800.00
01058              15.60     6600.00
01059              15.40     6600.00
01060               7.80     6800.00
01061              11.80     6600.00
01062              16.80     6800.00
01063              11.60     6800.00
01064               9.40     6600.00
01065              15.00     6800.00
01066              13.80     6600.00
01067               9.80     6600.00
01068              12.20     6600.00
01069              14.20     6400.00
01070              11.00     6600.00
01071              10.20     6600.00
01072              12.40     6400.00
01073              12.20     6400.00
01074               9.80     6400.00
01075              10.40     6400.00
01076              11.80     6400.00
01077              10.20     6400.00
01078               9.40     6400.00
01079              10.00     6400.00
01080              10.40     6400.00
01081               9.20     6200.00
01082               8.40     6200.00
01083               9.40     6200.00
01084               9.80     6200.00
01085               8.60     6200.00
01086               8.40     6000.00
01087               9.80     6000.00
01088               7.80     6000.00
01089               7.40     6000.00
01090               8.00     6000.00
01091               8.20     5800.00
01092               7.00     5800.00
01093               7.00     5600.00
01094               7.80     5600.00
01095               7.40     5600.00
01096               6.00     5400.00
01097               6.60     5600.00
01098               7.60     5400.00
01099               6.00     5400.00
01100               5.60     5200.00
01101               7.00     5200.00
01102               6.20     5200.00
01103               4.60     5000.00
01104               6.00     5000.00
01105               6.00     4800.00
01106               4.60     4800.00
01107               4.60     4800.00
01108               5.80     4600.00
01109               4.80     4600.00
01110               3.60     4600.00
01111               4.60     4400.00
01112               5.00     4400.00
01113               3.80     4200.00
01114               3.60     4000.00
01115               5.00     4000.00
01116               4.20     4000.00
01117               3.00     4000.00
01118               3.80     3800.00
01119               3.80     3800.00
01120               2.80     3600.00
01121               3.00     3600.00
01122               3.60     3600.00
01123               3.20     3400.00
01124               2.80     3200.00
01125               2.60     3200.00
01126               3.00     3000.00
01127               2.60     3000.00
01128               2.40     3000.00
01129               2.60     3000.00
01130               2.60     2800.00
01131               2.00     2800.00
01132               2.00     2600.00
01133               2.20     2400.00
01134               2.20     2400.00
01135               1.40     2200.00
01136               1.80     2200.00
01137               1.80     2000.00
01138               1.40     2000.00
01139               1.20     1800.00
01140               1.40     1600.00
01141               1.60     1600.00
01142               1.20     1400.00
01143               1.00     1800.00
01144               1.20     1200.00
01145               1.00     1000.00
01146               0.60     1200.00
01147               0.60     1200.00
01148               1.00      800.00
01149               0.40      800.00
01150               0.20      600.00
01151               0.40      600.00
01152               0.40      400.00
01153               0.20      200.00
01154               0.00      200.00
01155               0.00        0.00
01156               0.20        0.00
01157               0.20        0.00
01158              -0.20     -200.00
01159               0.40     -400.00
01160               0.20     -400.00
01161              -1.20     -600.00
01162              -1.00     -800.00
01163              -0.20     -800.00
01164              -0.80    -1000.00
01165               6.80     -800.00
01166              17.40    -1200.00
01167             -25.00    -1600.00
01168             -25.00    -1200.00
01169              25.00    -1400.00
01170              25.00    -1600.00
01171             -25.00    -2000.00
01172             -25.00    -1400.00
01173              25.00    -1800.00
01174              25.00    -2200.00
01175             -25.00    -2000.00
01176             -25.00    -2000.00
01177              25.00    -2400.00
01178              25.00    -2800.00
01179             -25.00    -2000.00
01180              25.00    -2600.00
01181              25.00    -3000.00
01182             -25.00    -2600.00
01183             -25.00    -2800.00
01184              25.00    -3200.00
01185             -13.40    -3200.00
01186             -25.00    -3200.00
01187              25.00    -3400.00
01188              25.00    -3400.00
01189             -25.00    -3400.00
01190              25.00    -3600.00
01191              25.00    -3600.00
01192             -25.00    -3800.00
01193             -25.00    -3800.00
01194              25.00    -4000.00
01195              25.00    -4000.00
01196             -25.00    -4200.00
01197             -25.00    -4200.00
01198              25.00    -4200.00
01199             -25.00    -4400.00
01200             -25.00    -4400.00
01201              25.00    -4600.00
01202              17.20    -4400.00
01203             -25.00    -4800.00
01204              25.00    -4600.00
01205              25.00    -4800.00
01206             -25.00    -5000.00
01207             -20.60    -5000.00
01208              25.00    -5000.00
01209              -8.60    -5000.00
01210             -25.00    -5200.00
01211              13.80    -5200.00
01212              17.80    -5200.00
01213             -25.00    -5200.00
01214              -7.40    -5600.00
01215              22.80    -5600.00
01216             -25.00    -5600.00
01217             -19.00    -5600.00
01218              16.20    -5800.00
01219             -11.00    -5600.00
01220             -25.00    -6000.00
01221               4.20    -5800.00
01222               1.40    -6000.00
01223             -25.00    -5800.00
01224              -7.40    -6200.00
01225               8.60    -6000.00
01226             -21.40    -6200.00
01227             -18.60    -6400.00
01228               8.00    -6200.00
01229             -12.20    -6200.00
01230             -24.60    -6400.00
01231               0.20    -6400.00
01232              -1.40    -6400.00
01233             -24.40    -6400.00
01234             -11.80    -6400.00
01235               3.40    -6600.00
01236             -17.80    -6600.00
01237             -21.00    -6600.00
01238              -0.20    -6600.00
01239              -8.20    -6600.00
01240             -23.20    -6600.00
01241              -9.80    -6600.00
01242              -2.60    -6600.00
01243             -18.80    -6600.00
01244             -18.20    -6600.00
01245              -3.80    -6600.00
01246             -10.80    -6600.00
01247             -21.80    -6800.00
01248             -10.40    -6600.00
01249              -6.20    -6800.00
01250             -18.80    -6800.00
01251             -16.60    -6800.00
01252              -7.00    -6800.00
01253             -12.60    -6800.00
01254             -18.80    -6600.00
01255             -11.40    -6800.00
01256              -9.40    -6600.00
01257             -16.40    -6600.00
01258             -15.20    -6800.00
01259              -9.80    -6600.00
01260             -11.80    -6600.00
01261             -15.80    -6600.00
01262             -12.20    -6600.00
01263              -9.20    -6600.00
01264             -12.60    -6600.00
01265             -13.40    -6600.00
01266              -9.40    -6400.00
01267             -10.20    -6600.00
01268             -12.60    -6600.00
01269             -11.60    -6400.00
01270              -8.60    -6400.00
01271             -10.20    -6400.00
01272             -11.80    -6200.00
01273              -9.00    -6400.00
01274              -8.40    -6400.00
01275             -11.00    -6200.00
01276             -10.40    -6200.00
01277              -7.60    -6000.00
01278              -8.40    -6000.00
01279             -10.20    -6000.00
01280              -8.60    -6000.00
01281              -7.00    -6000.00
01282              -9.00    -5800.00
01283              -9.40    -5800.00
01284              -6.40    -5800.00
01285              -6.80    -5800.00
01286              -9.00    -5600.00
01287              -7.40    -5600.00
01288              -6.00    -5600.00
01289              -7.60    -5400.00
01290              -8.20    -5600.00
01291              -5.80    -5200.00
01292              -5.80    -5200.00
01293              -8.00    -5200.00
01294              -6.80    -5000.00
01295              -4.80    -5000.00
01296              -6.80    -5000.00
01297              -7.60    -4800.00
01298              -4.60    -4600.00
01299              -4.40    -4800.00
01300              -7.00    -4400.00
01301              -5.80    -4400.00
01302              -3.80    -4600.00
01303              -6.20    -4400.00
01304              -6.20    -4200.00
01305              -3.80    -4200.00
01306              -4.40    -4200.00
01307              -6.00    -4000.00
01308              -4.40    -4000.00
01309              -4.20    -4000.00
01310              -4.40    -3800.00
01311              -4.60    -3600.00
01312              -3.80    -3600.00
01313              -3.60    -3600.00
01314              -4.20    -3600.00
01315              -4.60    -3400.00
01316              -3.00    -3200.00
01317              -3.00    -3200.00
01318              -3.80    -3000.00
01319              -3.60    -3000.00
01320              -2.40    -2800.00
01321              -3.40    -2800.00
01322              -3.80    -2800.00
01323              -2.80    -2600.00
01324              -2.60    -2400.00
01325              -2.80    -2400.00
01326              -2.80    -2400.00
01327              -1.80    -2200.00
01328              -2.20    -2000.00
01329              -2.80    -2000.00
01330              -2.20    -1800.00
01331              -1.60    -1800.00
01332              -1.80    -1800.00
01333              -2.20    -1600.00
01334              -1.20    -1400.00
01335              -1.20    -1400.00
01336              -1.80    -1200.00
01337              -1.80    -1200.00
01338              -0.60    -1000.00
01339              -0.80     -800.00
01340              -1.40     -800.00
01341              -1.00     -800.00
01342              -0.20     -600.00
01343              -0.60     -400.00
01344              -1.40     -200.00
01345              -0.40     -200.00
01346               0.00     -200.00
01347              -0.40     -200.00
01348              -0.20        0.00
01349               0.40      400.00
01350               1.00      200.00
01351               0.20      400.00
01352              -0.40      600.00
01353               0.40      600.00
01354               0.80      800.00
01355               0.60      800.00
01356               4.80     1000.00
01357              16.20     1200.00
01358              -4.20     1200.00
01359             -25.00     1200.00
01360              -8.20     1400.00
01361              25.00     1400.00
01362              11.60     1800.00
01363             -25.00     1600.00
01364              20.60     2000.00
01365              25.00     2000.00
01366             -25.00     2000.00
01367             -25.00     2000.00
01368              25.00     2200.00
01369              25.00     2400.00
01370             -25.00     2200.00
01371              -2.00     2400.00
01372              25.00     2600.00
01373             -25.00     2400.00
01374             -25.00     3000.00
01375              25.00     2800.00
01376              25.00     2800.00
01377             -25.00     3200.00
01378              25.00     3200.00
01379              25.00     3200.00
01380             -25.00     3400.00
01381             -25.00     3600.00
01382              25.00     3400.00
01383              15.20     3600.00
01384             -25.00     3800.00
01385              25.00     3800.00
01386              25.00     4000.00
01387             -25.00     4000.00
01388             -25.00     4200.00
01389              25.00     4000.00
01390              17.00     4400.00
01391             -25.00     4400.00
01392              25.00     4400.00
01393              25.00     4400.00
01394             -25.00     4600.00
01395             -11.20     4600.00
01396              25.00     4600.00
01397              -7.00     5000.00
01398             -25.00     5000.00
01399              25.00     5200.00
01400              25.00     5200.00
01401             -25.00     5200.00
01402               5.20     5200.00
01403              25.00     5400.00
01404             -12.40     5400.00
01405             -14.80     5400.00
01406              25.00     5400.00
01407              10.40     5600.00
01408             -20.60     5600.00
01409              21.00     5600.00
01410              25.00     5800.00
01411             -15.80     5800.00
01412               4.60     5800.00
01413              25.00     5800.00
01414              -2.00     6000.00
01415              -6.00     6000.00
01416              25.00     6000.00
01417              12.60     6200.00
01418              -9.00     6200.00
01419              15.80     6200.00
01420              20.80     6200.00
01421              -3.40     6400.00
01422               6.20     6400.00
01423              23.40     6400.00
01424               6.00     6400.00
01425               0.40     6400.00
01426              19.00     6400.00
01427              14.20     6400.00
01428               0.80     6400.00
01429              11.60     6400.00
01430              19.20     6400.00
01431               6.40     6600.00
01432               6.20     6400.00
01433              18.00     6600.00
01434              13.20     6600.00
01435               5.00     6400.00
01436              13.60     6600.00
01437              17.80     6600.00
01438               7.80     6600.00
01439               9.00     6600.00
01440              17.80     6600.00
01441              12.40     6400.00
01442               7.40     6600.00
01443              15.00     6600.00
01444              15.60     6800.00
01445               8.60     6600.00
01446              11.80     6800.00
01447              15.80     6600.00
01448              11.80     6600.00
01449              10.00     6400.00
01450              13.40     6400.00
01451              13.40     6600.00
01452              10.20     6600.00
01453              10.60     6400.00
01454              13.20     6400.00
01455              11.20     6400.00
01456               9.40     6400.00
01457              11.20     6400.00
01458              11.60     6400.00
01459               9.40     6400.00
01460               9.00     6400.00
01461              10.60     6400.00
01462              10.00     6400.00
01463               9.00     6400.00
01464               9.00     6200.00
01465               9.80     6200.00
01466               8.40     6200.00
01467               7.80     6000.00
01468               8.40     6000.00
01469               9.60     6000.00
01470               7.60     6000.00
01471               7.80     6000.00
01472               8.60     6000.00
01473               7.60     5800.00
01474               6.40     5800.00
01475               7.40     5600.00
01476               8.20     5600.00
01477               6.60     5600.00
01478               6.20     5600.00
01479               7.20     5400.00
01480               7.00     5400.00
01481               5.40     5400.00
01482               6.00     5200.00
01483               7.00     5400.00
01484               5.80     5000.00
01485               5.00     5200.00
01486               6.20     5000.00
01487               6.00     4800.00
01488               4.40     4800.00
01489               5.20     4600.00
01490               6.20     4800.00
01491               4.60     4600.00
01492               3.60     4400.00
01493               5.60     4400.00
01494               4.60     4400.00
01495               3.40     4200.00
01496               4.40     4000.00
01497               5.00     4000.00
01498               3.60     4000.00
01499               3.60     4000.00
01500               4.20     3800.00
01501               3.80     3800.00
01502               2.80     3600.00
01503               3.60     3600.00
01504               3.60     3600.00
01505               2.80     3200.00
01506               2.60     3200.00
01507               3.00     3000.00
01508               3.00     3200.00
01509               2.20     3000.00
01510               2.20     2800.00
01511               2.80     2800.00
01512               2.60     2800.00
01513               1.80     2400.00
01514               2.00     2400.00
01515               2.60     2400.00
01516               1.80     2200.00
01517               1.20     2200.00
01518               2.00     2000.00
01519               1.80     2000.00
01520               1.20     1800.00
01521               1.40     1600.00
01522               1.80     1600.00
01523               1.40     1400.00
01524               1.20     1400.00
01525               1.20     1400.00
01526               0.80     1200.00
01527               1.00     1200.00
01528               0.60     1000.00
01529               0.40     1000.00
01530               1.00      800.00
01531               0.60      800.00
01532               0.20      600.00
01533               0.20      400.00
01534               0.40      400.00
01535               0.40      400.00
01536              -0.40        0.00
01537              -0.40        0.00
01538               0.40        0.00
01539              -0.20     -200.00
01540              -0.40     -200.00
01541               0.80     -400.00
01542              -0.20     -400.00
01543              -1.40     -400.00
01544              -0.60     -800.00
01545               0.20     -800.00
01546              -0.20     -800.00
01547              13.40    -1000.00
01548               7.40    -1400.00
01549             -25.00    -1600.00
01550             -25.00    -1200.00
01551              25.00    -1400.00
01552              25.00    -1800.00
01553             -25.00    -1800.00
01554             -17.40    -1600.00
01555              25.00    -2000.00
01556              -3.00    -2400.00
01557             -25.00    -1800.00
01558              25.00    -2400.00
01559              25.00    -2400.00
01560             -25.00    -2600.00
01561             -25.00    -2400.00
01562              25.00    -2800.00
01563              25.00    -3000.00
01564             -25.00    -2600.00
01565              25.00    -3200.00
01566              25.00    -3200.00
01567             -25.00    -3000.00
01568             -25.00    -3200.00
01569              25.00    -3400.00
01570             -25.00    -3400.00
01571             -25.00    -3400.00
01572              25.00    -3600.00
01573              25.00    -3600.00
01574             -25.00    -3800.00
01575             -25.00    -4000.00
01576              25.00    -4000.00
01577               9.20    -4000.00
01578             -25.00    -4000.00
01579              25.00    -4400.00
01580              25.00    -4400.00
01581             -25.00    -4400.00
01582             -19.00    -4400.00
01583              25.00    -4600.00
01584             -25.00    -4600.00
01585             -25.00    -4800.00
01586              25.00    -4800.00
01587               3.20    -4800.00
01588             -25.00    -5000.00
01589               8.40    -5000.00
01590              25.00    -5200.00
01591             -25.00    -5200.00
01592             -25.00    -5200.00
01593              25.00    -5400.00
01594              -6.80    -5600.00
01595             -25.00    -5600.00
01596              13.80    -5600.00
01597               8.20    -5600.00
01598             -25.00    -5600.00
01599              -2.00    -5800.00
01600              12.20    -5800.00
01601             -23.60    -5800.00
01602             -16.60    -6000.00
01603              10.00    -5800.00
01604             -10.20    -5800.00
01605             -25.00    -6000.00
01606               4.20    -6200.00
01607               0.40    -6000.00
01608             -25.00    -6200.00
01609              -6.40    -6200.00
01610               5.80    -6400.00
01611             -22.00    -6400.00
01612             -17.20    -6400.00
01613               5.20    -6400.00
01614             -11.00    -6400.00
01615             -24.20    -6400.00
01616              -2.80    -6600.00
01617              -2.20    -6600.00
01618             -22.80    -6400.00
01619             -13.20    -6600.00
01620               0.60    -6600.00
01621             -14.80    -6600.00
01622             -20.60    -6800.00
01623              -4.80    -6800.00
01624              -6.60    -6600.00
01625             -21.40    -6600.00
01626             -13.20    -6600.00
01627              -3.40    -6800.00
01628             -16.20    -6800.00
01629             -19.60    -6600.00
01630              -6.80    -6800.00
01631             -10.00    -6800.00
01632             -19.80    -6800.00
01633             -13.00    -6800.00
01634              -7.00    -6600.00
01635             -16.00    -6800.00
01636             -17.60    -6800.00
01637              -9.20    -6800.00
01638             -10.80    -6600.00
01639             -17.80    -6800.00
01640             -13.00    -6600.00
01641              -8.60    -6600.00
01642             -14.00    -6600.00
01643             -15.80    -6600.00
01644             -10.00    -6600.00
01645             -10.20    -6600.00
01646             -14.80    -6600.00
01647             -12.40    -6600.00
01648              -8.60    -6600.00
01649             -11.00    -6600.00
01650             -13.80    -6400.00
01651             -10.00    -6400.00
01652              -8.20    -6400.00
01653             -12.20    -6400.00
01654             -11.80    -6200.00
01655              -7.00    -6400.00
01656              -9.20    -6400.00
01657             -12.20    -6200.00
01658              -9.20    -6400.00
01659              -6.80    -6000.00
01660             -10.00    -6000.00
01661             -10.60    -6000.00
01662              -6.80    -6000.00
01663              -6.80    -6000.00
01664             -10.40    -6000.00
01665              -8.60    -6000.00
01666              -5.40    -5800.00
01667              -7.80    -5800.00
01668             -10.00    -5600.00
01669              -6.20    -5600.00
01670              -5.00    -5600.00
01671              -9.20    -5400.00
01672              -7.80    -5200.00
01673              -4.20    -5400.00
01674              -6.80    -5200.00
01675              -9.00    -5200.00
01676              -5.80    -5200.00
01677              -4.40    -5000.00
01678              -7.00    -5000.00
01679              -7.00    -4800.00
01680              -4.00    -4800.00
01681              -5.40    -4600.00
01682              -7.00    -4600.00
01683              -4.40    -4600.00
01684              -3.40    -4400.00
01685              -6.80    -4400.00
01686              -5.40    -4400.00
01687              -3.60    -4400.00
01688              -5.20    -4200.00
01689              -6.00    -4000.00
01690              -4.20    -4000.00
01691              -3.80    -4000.00
01692              -4.40    -4000.00
01693              -5.00    -3600.00
01694              -3.80    -3800.00
01695              -3.60    -3600.00
01696              -4.60    -3400.00
01697              -4.60    -3400.00
01698              -2.60    -3200.00
01699              -3.00    -3200.00
01700              -4.20    -3000.00
01701              -2.80    -2800.00
01702              -2.80    -2800.00
01703              -4.40    -2800.00
01704              -3.40    -2600.00
01705              -2.00    -2600.00
01706              -2.20    -2600.00
01707              -3.40    -2400.00
01708              -2.20    -2200.00
01709              -2.00    -2200.00
01710              -3.00    -2000.00
01711              -2.80    -2000.00
01712              -1.40    -2000.00
01713              -1.80    -1800.00
01714              -2.20    -1600.00
01715              -1.40    -1600.00
01716              -0.80    -1400.00
01717              -1.80    -1200.00
01718              -2.00    -1200.00
01719              -1.40    -1000.00
01720              -0.40    -1000.00
01721              -1.20     -800.00
01722              -1.40     -800.00
01723              -0.60     -600.00
01724              -0.60     -600.00
01725              -1.20     -400.00
01726              -0.60     -400.00
01727              -0.80     -200.00
01728               0.00     -200.00
01729               0.40        0.00
01730              -0.20        0.00
01731               0.40        0.00
01732               1.20      200.00
01733              -0.40      400.00
01734              -0.20      400.00
01735               0.80      600.00
01736               1.00      600.00
01737               1.40      800.00
01738               8.20     1200.00
01739              13.80     1200.00
01740             -17.20     1200.00
01741             -25.00     1200.00
01742              25.00     1800.00
01743              25.00     1600.00
01744             -25.00     1800.00
01745             -25.00     1600.00
01746              25.00     1800.00
01747              25.00     2000.00
01748             -25.00     1800.00
01749             -25.00     2200.00
01750              25.00     2400.00
01751              15.00     2200.00
01752             -25.00     2600.00
01753              25.00     2400.00
01754              25.00     2400.00
01755             -25.00     2800.00
01756              -7.80     2800.00
01757              25.00     3000.00
01758             -25.00     2800.00
01759             -25.00     3400.00
01760              25.00     3200.00
01761              25.00     3200.00
01762             -25.00     3600.00
01763              22.80     3600.00
01764              25.00     3600.00
01765             -25.00     3800.00
01766             -25.00     4000.00
01767              25.00     3800.00
01768              25.00     4000.00
01769             -25.00     4000.00
01770               3.80     4000.00
01771              25.00     4000.00
01772             -25.00     4400.00
01773             -25.00     4400.00
01774              25.00     4400.00
01775              19.00     4600.00
01776             -25.00     4600.00
01777              25.00     4800.00
01778              25.00     4800.00
01779             -25.00     4800.00
01780             -14.60     5000.00
01781              25.00     4800.00
01782               2.60     5200.00
01783             -25.00     5200.00
01784              25.00     5200.00
01785              25.00     5400.00
01786             -25.00     5400.00
01787               5.00     5600.00
01788              25.00     5400.00
01789              -8.60     5600.00
01790              -9.80     5600.00
01791              25.00     5600.00
01792              10.20     5800.00
01793             -15.80     6000.00
01794              18.80     6000.00
01795              23.40     6000.00
01796             -10.80     6000.00
01797               6.00     6000.00
01798              25.00     6000.00
01799               0.60     6200.00
01800              -3.80     6200.00
01801              23.80     6200.00
01802              12.20     6200.00
01803              -5.40     6200.00
01804              15.40     6400.00
01805              21.00     6400.00
01806              -0.40     6400.00
01807               6.00     6400.00
01808              22.00     6400.00
01809               8.40     6400.00
01810               1.40     6600.00
01811              17.40     6400.00
01812              16.60     6400.00
01813               2.60     6600.00
01814              10.20     6600.00
01815              19.80     6600.00
01816               8.40     6600.00
01817               5.80     6600.00
01818              18.20     6800.00
01819              14.60     6400.00
01820               5.40     6600.00
01821              13.80     6600.00
01822              17.40     6800.00
01823               8.20     6600.00
01824              10.00     6600.00
01825              18.40     6800.00
01826              12.20     6800.00
01827               7.60     6600.00
01828              15.40     6600.00
01829              15.20     6600.00
01830               8.40     6400.00
01831              11.60     6600.00
01832              16.20     6400.00
01833              10.60     6400.00
01834               9.20     6400.00
01835              13.80     6400.00
01836              12.20     6400.00
01837               8.40     6400.00
01838              11.80     6400.00
01839              13.00     6400.00
01840               8.00     6400.00
01841               9.00     6400.00
01842              12.40     6200.00
01843              10.00     6400.00
01844               7.40     6200.00
01845               9.40     6400.00
01846              11.40     6200.00
01847               8.20     6200.00
01848               8.40     6000.00
01849               9.80     6200.00
01850               9.00     6000.00
01851               7.20     6000.00
01852               7.40     6000.00
01853               9.00     6000.00
01854               8.20     6000.00
01855               6.20     5800.00
01856               8.20     5600.00
01857               8.20     5600.00
01858               6.60     5600.00
01859               6.20     5600.00
01860               6.80     5400.00
01861               6.80     5400.00
01862               6.80     5400.00
01863               6.00     5400.00
01864               6.20     5200.00
01865               6.80     5000.00
01866               5.40     5000.00
01867               4.40     4800.00
01868               6.80     4800.00
01869               6.00     4800.00
01870               3.80     4800.00
01871               5.80     4800.00
01872               7.00     4600.00
01873               4.20     4600.00
01874               2.80     4600.00
01875               5.80     4400.00
01876               5.00     4400.00
01877               3.40     4200.00
01878               5.00     4000.00
01879               5.00     4000.00
01880               3.40     4000.00
01881               3.60     3800.00
01882               4.80     3800.00
01883               3.20     3800.00
01884               2.60     3600.00
01885               4.40     3400.00
01886               3.60     3400.00
01887               2.20     3400.00
01888               3.00     3200.00
01889               3.40     3000.00
01890               2.00     3000.00
01891               2.20     2800.00
01892               2.80     2800.00
01893               2.60     2800.00
01894               1.80     2800.00
01895               2.40     2600.00
01896               2.60     2400.00
01897               1.60     2400.00
01898               1.80     2200.00
01899               1.80     2200.00
01900               1.80     2000.00
01901               1.40     2000.00
01902               1.20     1800.00
01903               1.20     1800.00
01904               1.40     1600.00
01905               1.40     1400.00
01906               0.60     1400.00
01907               1.20     1200.00
01908               1.40     1200.00
01909               0.40     1000.00
01910               0.60     1000.00
01911               0.80      800.00
01912               0.40      800.00
01913               0.20      600.00
01914               0.20      400.00
01915               0.40      400.00
01916               0.40      400.00
01917              -0.40      200.00
01918              -0.60        0.00
01919               0.20        0.00
01920               0.00     -200.00
01921              -0.40     -400.00
01922              -0.20     -400.00
01923               0.20     -400.00
01924              -0.60     -600.00
01925              -2.00     -400.00
01926               0.60     -800.00
01927              -0.60     -800.00
01928               2.00     -800.00
01929              19.80    -1200.00
01930             -11.00    -1400.00
01931             -25.00    -1200.00
01932              22.60    -1200.00
01933              25.00    -1600.00
01934             -22.20    -1800.00
01935             -25.00    -1400.00
01936              25.00    -1800.00
01937              25.00    -2000.00
01938             -25.00    -2400.00
01939             -25.00    -1800.00
01940              25.00    -2400.00
01941              25.00    -2600.00
01942             -25.00    -2200.00
01943              10.00    -2600.00
01944              25.00    -2800.00
01945             -25.00    -2800.00
01946             -25.00    -2600.00
01947              25.00    -3200.00
01948              25.00    -3200.00
01949             -25.00    -3000.00
01950              25.00    -3400.00
01951              25.00    -3400.00
01952             -25.00    -3400.00
01953             -11.80    -3600.00
01954              25.00    -3800.00
01955              -9.80    -3600.00
01956             -25.00    -4000.00
01957              15.00    -3800.00
01958              25.00    -4000.00
01959             -25.00    -4200.00
01960             -25.00    -4000.00
01961              25.00    -4400.00
01962              19.80    -4400.00
01963             -25.00    -4400.00
01964              25.00    -4600.00
01965              25.00    -4600.00
01966             -25.00    -4600.00
01967              -7.20    -4800.00
01968              25.00    -5000.00
01969             -25.00    -4800.00
01970             -25.00    -5000.00
01971              25.00    -5000.00
01972              10.20    -5000.00
01973             -25.00    -5200.00
01974              -3.80    -5400.00
01975              25.00    -5200.00
01976             -25.00    -5200.00
01977             -24.20    -5600.00
01978              24.80    -5600.00
01979             -13.40    -5600.00
01980             -25.00    -5600.00
01981              11.40    -5800.00
01982               0.20    -5800.00
01983             -25.00    -6000.00
01984              -4.60    -6000.00
01985               7.80    -6000.00
01986             -21.60    -6000.00
01987             -16.80    -6000.00
01988              10.00    -6400.00
01989             -12.20    -6200.00
01990             -25.00    -6200.00
01991               3.60    -6400.00
01992              -3.00    -6000.00
01993             -25.00    -6400.00
01994              -6.80    -6400.00
01995               3.80    -6400.00
01996             -20.20    -6400.00
01997             -18.20    -6600.00
01998               2.60    -6400.00
01999             -10.60    -6600.00
02000             -23.60    -6600.00
02001              -5.00    -6600.00
02002              -2.60    -6600.00
02003             -21.00    -6800.00
02004             -15.00    -6600.00
02005              -1.40    -6800.00
02006             -13.60    -6800.00
02007             -21.20    -6600.00
02008              -6.60    -6800.00
02009              -6.20    -6800.00
02010             -20.20    -6800.00
02011             -15.00    -6600.00
02012              -5.20    -6800.00
02013             -14.20    -6800.00
02014             -19.80    -6800.00
02015              -9.40    -6600.00
02016              -8.60    -6800.00
02017             -18.80    -6800.00
02018             -15.60    -6600.00
02019              -7.60    -6600.00
02020             -13.40    -6600.00
02021             -18.00    -6800.00
02022              -9.80    -6800.00
02023              -9.40    -6800.00
02024             -16.40    -6600.00
02025             -14.00    -6600.00
02026              -8.60    -6600.00
02027             -11.80    -6600.00
02028             -14.80    -6600.00
02029             -10.80    -6600.00
02030              -8.40    -6600.00
02031             -12.40    -6600.00
02032             -13.40    -6400.00
02033              -8.60    -6400.00
02034              -8.40    -6600.00
02035             -13.80    -6400.00
02036             -10.40    -6400.00
02037              -6.20    -6400.00
02038             -11.20    -6400.00
02039             -12.40    -6200.00
02040              -6.20    -6200.00
02041              -8.00    -6200.00
02042             -11.40    -6000.00
02043              -8.40    -6000.00
02044              -6.20    -6000.00
02045              -9.00    -5800.00
02046              -9.40    -5800.00
02047              -7.60    -5800.00
02048              -6.20    -5800.00
02049              -8.60    -5800.00
02050              -9.20    -5600.00
02051              -5.80    -5600.00
02052              -6.80    -5600.00
02053              -8.20    -5600.00
02054              -6.40    -5200.00
02055              -5.20    -5200.00
02056              -7.00    -5200.00
02057              -7.00    -5200.00
02058              -5.00    -5000.00
02059              -6.80    -5000.00
02060              -8.40    -5000.00
02061              -4.60    -4600.00
02062              -3.80    -4800.00
02063              -7.60    -4600.00
02064              -6.00    -4400.00
02065              -2.20    -4600.00
02066              -5.20    -4600.00
02067              -7.20    -4400.00
02068              -3.60    -4400.00
02069              -4.20    -4200.00
02070              -6.80    -4200.00
02071              -4.00    -4000.00
02072              -3.00    -3800.00
02073              -4.80    -4000.00
02074              -5.00    -3800.00
02075              -3.80    -3600.00
02076              -3.80    -3600.00
02077              -3.80    -3600.00
02078              -4.60    -3400.00
02079              -3.00    -3200.00
02080              -2.60    -3400.00
02081              -3.80    -3200.00
02082              -3.80    -3200.00
02083              -2.20    -2800.00
02084              -3.00    -2800.00
02085              -4.40    -2800.00
02086              -2.80    -2600.00
02087              -2.00    -2600.00
02088              -3.40    -2600.00
02089              -3.40    -2400.00
02090              -1.60    -2200.00
02091              -2.00    -2000.00
02092              -3.00    -2000.00
02093              -2.00    -2000.00
02094              -1.20    -1800.00
02095              -2.40    -1600.00
02096              -2.80    -1600.00
02097              -1.40    -1600.00
02098              -1.40    -1400.00
02099              -2.40    -1200.00
02100              -1.60    -1000.00
02101              -0.60    -1200.00
02102              -1.80    -1000.00
02103              -1.80     -800.00
02104              -0.60     -800.00
02105              -1.00     -600.00
02106              -1.20     -600.00
02107              -0.60     -400.00
02108              -1.00     -200.00
02109              -1.00     -200.00
02110               0.20     -200.00
02111               0.20        0.00
02112              -0.40        0.00
02113               0.60      400.00
02114               1.00      400.00
02115              -0.60      400.00
02116              -0.40      400.00
02117               1.20      600.00
02118               0.40      800.00
02119               2.60      800.00
02120              13.00     1000.00
02121               5.20     1200.00
02122             -25.00     1200.00
02123             -25.00     1200.00
02124              25.00     1400.00
02125              25.00     1800.00
02126             -25.00     1400.00
02127             -25.00     2000.00
02128              25.00     2000.00
02129              25.00     2200.00
02130             -25.00     2000.00
02131              25.00     2200.00
02132              25.00     2400.00
02133             -25.00     2200.00
02134             -25.00     2600.00
02135              25.00     2800.00
02136              25.00     2600.00
02137             -25.00     3000.00
02138              25.00     2800.00
02139              25.00     3000.00
02140             -25.00     3200.00
02141              -5.80     3200.00
02142              25.00     3200.00
02143             -25.00     3200.00
02144             -25.00     3600.00
02145              25.00     3400.00
02146              25.00     3600.00
02147             -25.00     3800.00
02148             -10.20     3800.00
02149              25.00     3800.00
02150              -5.20     4000.00
02151             -25.00     4000.00
02152              25.00     4000.00
02153              25.00     4200.00
02154             -25.00     4400.00
02155              -1.00     4400.00
02156              25.00     4400.00
02157             -21.20     4600.00
02158             -25.00     4800.00
02159              25.00     4600.00
02160              20.20     4800.00
02161             -25.00     4800.00
02162              16.20     5200.00
02163              25.00     5000.00
02164             -22.00     5200.00
02165             -13.40     5000.00
02166              25.00     5200.00
02167               5.20     5400.00
02168             -23.60     5600.00
02169              23.80     5400.00
02170              24.40     5600.00
02171             -19.40     5600.00
02172               7.00     5600.00
02173              25.00     5600.00
02174              -6.00     5800.00
02175              -7.00     6000.00
02176              25.00     5800.00
02177              10.00     6000.00
02178             -11.80     6000.00
02179              18.60     6000.00
02180              21.00     6000.00
02181              -7.20     6200.00
02182               7.40     6200.00
02183              24.60     6200.00
02184               2.00     6200.00
02185              -0.60     6200.00
02186              22.60     6400.00
02187              12.60     6200.00
02188              -2.20     6400.00
02189              14.20     6400.00
02190              19.80     6400.00
02191               2.80     6400.00
02192               6.00     6600.00
02193              20.20     6400.00
02194              12.40     6400.00
02195               2.20     6400.00
02196              15.60     6600.00
02197              17.40     6600.00
02198               5.20     6400.00
02199               9.80     6600.00
02200              18.80     6400.00
02201              11.80     6800.00
02202               6.20     6600.00
02203              16.40     6600.00
02204              16.60     6600.00
02205               6.80     6600.00
02206              12.00     6400.00
02207              17.20     6600.00
02208              12.40     6400.00
02209               8.60     6600.00
02210              13.80     6600.00
02211              15.60     6400.00
02212              10.00     6400.00
02213              10.60     6400.00
02214              14.80     6600.00
02215              12.80     6400.00
02216               8.80     6400.00
02217              10.80     6600.00
02218              14.60     6400.00
02219              10.20     6400.00
02220               7.80     6400.00
02221              13.00     6400.00
02222              12.20     6400.00
02223               7.00     6200.00
02224               9.40     6400.00
02225              12.40     6400.00
02226               9.20     6200.00
02227               7.00     6200.00
02228              10.60     6200.00
02229               9.80     6200.00
02230               6.20     6000.00
02231               8.40     6000.00
02232              11.00     6000.00
02233               7.00     6000.00
02234               7.00     6000.00
02235               9.20     6000.00
02236               8.20     5800.00
02237               6.00     5800.00
02238               7.00     5600.00
02239               8.20     5600.00
02240               7.40     5600.00
02241               5.80     5600.00
02242               6.80     5400.00
02243               7.40     5400.00
02244               5.80     5400.00
02245               5.60     5200.00
02246               7.40     5200.00
02247               6.20     5200.00
02248               5.00     5000.00
02249               6.00     4800.00
02250               5.80     4800.00
02251               4.80     4800.00
02252               5.00     4800.00
02253               6.00     4800.00
02254               5.20     4600.00
02255               4.20     4600.00
02256               5.20     4400.00
02257               5.00     4400.00
02258               3.60     4200.00
02259               4.60     4200.00
02260               5.20     4000.00
02261               3.60     4000.00
02262               4.20     4000.00
02263               4.60     3800.00
02264               3.40     3800.00
02265               3.00     3600.00
02266               4.20     3600.00
02267               3.60     3600.00
02268               2.80     3200.00
02269               3.60     3200.00
02270               3.60     3200.00
02271               2.60     3000.00
02272               2.60     3000.00
02273               3.20     2800.00
02274               2.40     2800.00
02275               2.00     2800.00
02276               2.80     2600.00
02277               2.20     2400.00
02278               1.80     2400.00
02279               2.20     2200.00
02280               1.80     2200.00
02281               1.40     2000.00
02282               1.80     2000.00
02283               1.60     2000.00
02284               1.60     1600.00
02285               1.00     1800.00
02286               1.00     1600.00
02287               1.20     1400.00
02288               0.60     1600.00
02289               0.40     1200.00
02290               1.20     1200.00
02291               1.00     1200.00
02292               0.20      800.00
02293               0.60      800.00
02294               0.60      600.00
02295              -0.20      600.00
02296               0.00      400.00
02297               0.20      400.00
02298               0.20      400.00
02299              -0.40      200.00
02300              -0.40        0.00
02301               0.20     -200.00
02302              -0.20        0.00
02303              -0.60     -200.00
02304               0.20     -400.00
02305               0.40     -600.00
02306              -1.20     -400.00
02307              -1.00     -600.00
02308              -0.20     -800.00
02309              -0.60     -800.00
02310               8.20    -1000.00
02311              15.80    -1200.00
02312             -25.00    -1600.00
02313             -25.00    -1200.00
02314              25.00    -1400.00
02315              25.00    -1600.00
02316             -25.00    -2000.00
02317             -25.00    -1400.00
02318              25.00    -1800.00
02319              25.00    -2200.00
02320             -25.00    -2000.00
02321              -9.20    -2000.00
02322              25.00    -2400.00
02323               3.60    -2600.00
02324             -25.00    -2000.00
02325              25.00    -2800.00
02326              25.00    -3000.00
02327             -25.00    -2600.00
02328             -14.60    -3000.00
02329              25.00    -3200.00
02330             -25.00    -3000.00
02331             -25.00    -3000.00
02332              25.00    -3400.00
02333              21.80    -3400.00
02334             -25.00    -3400.00
02335              25.00    -3600.00
02336              25.00    -3600.00
02337             -25.00    -3800.00
02338             -25.00    -3800.00
02339              25.00    -4000.00
02340              25.00    -4000.00
02341             -25.00    -4000.00
02342             -11.60    -4200.00
02343              25.00    -4400.00
02344             -25.00    -4400.00
02345             -25.00    -4400.00
02346              25.00    -4600.00
02347               1.80    -4400.00
02348             -25.00    -4600.00
02349              25.00    -4800.00
02350              25.00    -5000.00
02351             -25.00    -5000.00
02352             -13.40    -5000.00
02353              25.00    -5000.00
02354             -15.40    -5000.00
02355             -25.00    -5200.00
02356              18.80    -5400.00
02357              12.60    -5400.00
02358             -25.00    -5400.00
02359              -1.80    -5600.00
02360              20.60    -5600.00
02361             -25.00    -5600.00
02362             -15.60    -5600.00
02363              16.20    -5800.00
02364             -14.60    -5800.00
02365             -24.60    -5800.00
02366               6.00    -6000.00
02367              -0.60    -5800.00
02368             -25.00    -6000.00
02369              -4.60    -6000.00
02370               7.80    -6200.00
02371             -23.40    -6200.00
02372             -16.40    -6400.00
02373               8.20    -6400.00
02374             -14.60    -6200.00
02375             -23.60    -6200.00
02376               2.20    -6400.00
02377              -3.40    -6400.00
02378             -25.00    -6400.00
02379              -9.20    -6400.00
02380               2.00    -6600.00
02381             -19.00    -6600.00
02382             -18.60    -6600.00
02383               0.00    -6600.00
02384              -9.40    -6600.00
02385             -22.00    -6600.00
02386              -8.60    -6600.00
02387              -3.60    -6600.00
02388             -18.80    -6600.00
02389             -17.00    -6600.00
02390              -3.60    -6600.00
02391             -11.60    -6600.00
02392             -20.80    -6600.00
02393              -9.40    -6800.00
02394              -7.00    -6600.00
02395             -18.20    -6800.00
02396             -15.80    -6600.00
02397              -7.00    -6600.00
02398             -12.80    -6800.00
02399             -18.60    -6600.00
02400             -11.00    -6600.00
02401              -9.20    -6800.00
02402             -16.40    -6600.00
02403             -15.00    -6800.00
02404              -8.80    -6600.00
02405             -12.20    -6600.00
02406             -16.20    -6600.00
02407             -11.60    -6800.00
02408              -9.40    -6600.00
02409             -13.40    -6600.00
02410             -13.40    -6600.00
02411              -9.40    -6600.00
02412             -10.20    -6600.00
02413             -13.00    -6400.00
02414             -10.80    -6600.00
02415              -8.60    -6400.00
02416             -10.80    -6400.00
02417             -11.60    -6400.00
02418              -9.20    -6400.00
02419              -8.60    -6200.00
02420             -10.80    -6400.00
02421             -10.20    -6200.00
02422              -7.80    -6200.00
02423              -8.20    -6000.00
02424             -10.80    -6000.00
02425              -9.20    -6000.00
02426              -6.60    -6000.00
02427              -9.20    -5800.00
02428             -10.00    -5800.00
02429              -6.20    -5800.00
02430              -7.00    -5800.00
02431              -9.20    -5600.00
02432              -7.40    -5600.00
02433              -5.80    -5600.00
02434              -7.80    -5600.00
02435              -8.20    -5400.00
02436              -5.40    -5600.00
02437              -5.80    -5200.00
02438              -8.20    -5200.00
02439              -6.80    -5200.00
02440              -5.40    -5000.00
02441              -6.20    -5000.00
02442              -7.00    -4600.00
02443              -5.00    -4600.00
02444              -5.20    -4800.00
02445              -6.60    -4600.00
02446              -5.20    -4600.00
02447              -3.80    -4600.00
02448              -6.40    -4400.00
02449              -5.20    -4400.00
02450              -3.80    -4200.00
02451              -4.40    -4200.00
02452              -5.80    -4000.00
02453              -4.60    -4000.00
02454              -3.40    -4000.00
02455              -4.40    -3800.00
02456              -4.60    -3800.00
02457              -3.40    -3600.00
02458              -3.40    -3600.00
02459              -4.60    -3400.00
02460              -4.40    -3400.00
02461              -2.60    -3400.00
02462              -3.00    -3200.00
02463              -4.40    -3200.00
02464              -2.80    -2800.00
02465              -2.20    -2800.00
02466              -4.20    -2800.00
02467              -3.80    -2800.00
02468              -1.80    -2600.00
02469              -2.80    -2400.00
02470              -3.80    -2400.00
02471              -2.20    -2400.00
02472              -2.00    -2200.00
02473              -2.60    -2000.00
02474              -2.80    -2000.00
02475              -1.80    -2000.00
02476              -2.00    -1800.00
02477              -2.60    -1600.00
02478              -1.80    -1600.00
02479              -1.40    -1600.00
02480              -2.00    -1400.00
02481              -1.80    -1200.00
02482              -1.60    -1000.00
02483              -1.20    -1200.00
02484              -1.20    -1000.00
02485              -1.20     -800.00
02486              -1.20     -600.00
02487              -0.60     -400.00
02488              -1.00     -600.00
02489              -1.20     -400.00
02490              -0.60     -200.00
02491              -0.40        0.00
02492              -0.40        0.00
02493               0.20        0.00
02494               0.20        0.00
02495               0.60      400.00
02496              -0.20      200.00
02497              -0.60      400.00
02498               0.40      600.00
02499               0.60      800.00
02500               0.80      800.00
02501               5.20     1000.00
02502              15.80     1200.00
02503              -6.60     1200.00
02504             -25.00     1200.00
02505              -0.60     1400.00
02506              25.00     1400.00
02507               3.60     1800.00
02508             -25.00     1400.00
02509              25.00     2000.00
02510              25.00     2000.00
02511             -25.00     1800.00
02512             -25.00     2200.00
02513              25.00     2200.00
02514              25.00     2200.00
02515             -25.00     2400.00
02516              19.80     2600.00
02517              25.00     2800.00
02518             -25.00     2600.00
02519             -25.00     2800.00
02520              25.00     2800.00
02521              25.00     2800.00
02522             -25.00     3400.00
02523              25.00     3000.00
02524              25.00     3200.00
02525             -25.00     3400.00
02526             -24.60     3600.00
02527              25.00     3600.00
02528               2.80     3800.00
02529             -25.00     3800.00
02530              25.00     3800.00
02531              25.00     4000.00
02532             -25.00     4000.00
02533             -25.00     4000.00
02534              25.00     4000.00
02535               7.80     4400.00
02536             -25.00     4400.00
02537              25.00     4400.00
02538              25.00     4600.00
02539             -25.00     4600.00
02540              -3.80     4600.00
02541              25.00     4600.00
02542             -13.00     4800.00
02543             -25.00     5000.00
02544              25.00     4800.00
02545              23.80     5200.00
02546             -25.00     5200.00
02547              10.20     5200.00
02548              25.00     5200.00
02549             -15.60     5400.00
02550             -10.60     5400.00
02551              25.00     5400.00
02552               6.20     5600.00
02553             -18.20     5600.00
02554              22.80     5600.00
02555              22.80     5800.00
02556             -15.60     5800.00
02557               7.40     5800.00
02558              25.00     6000.00
02559              -3.60     6000.00
02560              -3.80     6000.00
02561              25.00     6000.00
02562              10.00     6000.00
02563              -7.80     6200.00
02564              17.80     6200.00
02565              18.80     6000.00
02566              -3.80     6200.00
02567               8.40     6200.00
02568              23.00     6200.00
02569               4.20     6400.00
02570               2.00     6400.00
02571              19.80     6400.00
02572              13.00     6400.00
02573               1.00     6400.00
02574              13.40     6400.00
02575              18.80     6600.00
02576               5.80     6600.00
02577               7.20     6400.00
02578              18.60     6600.00
02579              12.20     6400.00
02580               5.20     6600.00
02581              15.00     6600.00
02582              17.00     6400.00
02583               7.40     6800.00
02584              10.60     6600.00
02585              17.60     6600.00
02586              11.60     6800.00
02587               8.20     6600.00
02588              15.60     6800.00
02589              15.40     6600.00
02590               9.00     6600.00
02591              12.20     6800.00
02592              15.60     6600.00
02593              11.80     6600.00
02594              10.00     6600.00
02595              13.80     6600.00
02596              13.40     6400.00
02597              10.20     6600.00
02598              11.00     6600.00
02599              13.00     6400.00
02600              10.80     6600.00
02601               9.80     6400.00
02602              11.20     6400.00
02603              11.40     6400.00
02604               9.40     6400.00
02605               9.40     6400.00
02606              10.80     6400.00
02607               9.80     6200.00
02608               8.80     6400.00
02609               9.20     6200.00
02610               9.80     6200.00
02611               8.20     6200.00
02612               7.40     6200.00
02613               8.60     6000.00
02614               9.40     6000.00
02615               7.00     6000.00
02616               7.60     6000.00
02617               8.40     5800.00
02618               7.60     5800.00
02619               6.60     6000.00
02620               7.40     5600.00
02621               7.80     5600.00
02622               6.60     5600.00
02623               6.20     5600.00
02624               6.80     5400.00
02625               6.60     5400.00
02626               5.40     5400.00
02627               6.00     5400.00
02628               6.80     5200.00
02629               5.80     5000.00
02630               5.00     5000.00
02631               6.20     4800.00
02632               6.00     4800.00
02633               4.20     4600.00
02634               5.20     4800.00
02635               5.80     4600.00
02636               4.40     4600.00
02637               4.20     4400.00
02638               5.40     4400.00
02639               4.60     4400.00
02640               3.60     4200.00
02641               4.40     4000.00
02642               5.20     4000.00
02643               3.60     4000.00
02644               3.60     4000.00
02645               4.40     3800.00
02646               3.60     3600.00
02647               3.20     3600.00
02648               3.80     3600.00
02649               3.80     3600.00
02650               2.80     3400.00
02651               3.00     3200.00
02652               3.40     3200.00
02653               2.80     3000.00
02654               2.40     3000.00
02655               2.60     2800.00
02656               2.80     2800.00
02657               2.40     2800.00
02658               2.20     2400.00
02659               2.60     2400.00
02660               2.00     2400.00
02661               2.00     2200.00
02662               2.20     2200.00
02663               1.80     2000.00
02664               1.40     2000.00
02665               1.80     1800.00
02666               1.20     1600.00
02667               1.00     1600.00
02668               1.40     1400.00
02669               1.00     1400.00
02670               0.40     1400.00
02671               1.00     1200.00
02672               0.60     1200.00
02673               0.40      800.00
02674               0.40      600.00
02675               0.60      800.00
02676               0.40      600.00
02677              -0.20      400.00
02678               0.20      400.00
02679               0.60      400.00
02680              -0.60      200.00
02681              -1.00        0.00
02682               0.40        0.00
02683               0.20     -200.00
02684              -0.60     -200.00
02685              -0.20     -200.00
02686               0.60     -400.00
02687              -0.60     -400.00
02688              -1.80     -600.00
02689              -0.60     -800.00
02690              -0.40     -800.00
02691               0.40     -800.00
02692              15.40    -1000.00
02693               3.60    -1400.00
02694             -25.00    -1600.00
02695             -20.60    -1000.00
02696              25.00    -1400.00
02697              17.20    -1800.00
02698             -25.00    -1800.00
02699               3.60    -1600.00
02700              25.00    -2000.00
02701             -24.60    -2400.00
02702             -25.00    -1800.00
02703              25.00    -2400.00
02704              25.00    -2600.00
02705             -25.00    -2400.00
02706             -25.00    -2400.00
02707              25.00    -2600.00
02708              25.00    -3200.00
02709             -25.00    -2600.00
02710              25.00    -3200.00
02711              25.00    -3200.00
02712             -25.00    -2800.00
02713              -5.00    -3200.00
02714              25.00    -3400.00
02715             -25.00    -3400.00
02716             -25.00    -3600.00
02717              25.00    -3600.00
02718              25.00    -3600.00
02719             -25.00    -3600.00
02720             -22.00    -4000.00
02721              25.00    -4000.00
02722              -3.80    -4000.00
02723             -25.00    -4000.00
02724              25.00    -4400.00
02725              25.00    -4200.00
02726             -25.00    -4400.00
02727              -3.80    -4400.00
02728              25.00    -4800.00
02729             -25.00    -4400.00
02730             -25.00    -4600.00
02731              25.00    -4800.00
02732              -6.00    -4600.00
02733             -25.00    -5000.00
02734              13.80    -5000.00
02735              25.00    -5200.00
02736             -25.00    -5000.00
02737             -23.40    -5400.00
02738              25.00    -5400.00
02739             -12.20    -5200.00
02740             -25.00    -5400.00
02741              16.60    -5600.00
02742               3.40    -5600.00
02743             -25.00    -5600.00
02744               1.00    -5600.00
02745              10.00    -5600.00
02746             -25.00    -5800.00
02747             -14.60    -6000.00
02748               9.80    -6000.00
02749             -12.60    -6000.00
02750             -24.60    -6000.00
02751               5.80    -6200.00
02752              -2.00    -6200.00
02753             -25.00    -6200.00
02754              -4.40    -6000.00
02755               4.00    -6400.00
02756             -23.20    -6400.00
02757             -15.00    -6400.00
02758               5.40    -6400.00
02759             -12.80    -6400.00
02760             -23.60    -6400.00
02761              -1.60    -6600.00
02762              -3.40    -6400.00
02763             -23.80    -6600.00
02764             -11.80    -6600.00
02765               1.00    -6600.00
02766             -16.60    -6600.00
02767             -20.40    -6600.00
02768              -3.60    -6800.00
02769              -8.20    -6600.00
02770             -22.00    -6800.00
02771             -11.20    -6600.00
02772              -3.00    -6600.00
02773             -17.40    -6800.00
02774             -18.20    -6800.00
02775              -6.00    -6800.00
02776             -10.80    -6800.00
02777             -19.80    -6800.00
02778             -11.60    -6600.00
02779              -7.00    -6600.00
02780             -17.00    -6600.00
02781             -16.60    -6800.00
02782              -8.20    -6800.00
02783             -11.80    -6800.00
02784             -17.40    -6800.00
02785             -11.80    -6600.00
02786              -9.20    -6600.00
02787             -14.20    -6600.00
02788             -15.00    -6600.00
02789              -9.40    -6800.00
02790             -10.60    -6600.00
02791             -14.40    -6600.00
02792             -12.00    -6600.00
02793              -8.80    -6400.00
02794             -11.60    -6600.00
02795             -13.20    -6400.00
02796              -9.40    -6400.00
02797              -9.00    -6400.00
02798             -11.80    -6400.00
02799             -11.00    -6200.00
02800              -8.20    -6400.00
02801              -9.40    -6400.00
02802             -11.60    -6200.00
02803              -8.80    -6200.00
02804              -7.60    -6000.00
02805             -10.00    -6000.00
02806             -10.00    -6000.00
02807              -7.60    -6000.00
02808              -8.20    -6000.00
02809              -9.80    -6000.00
02810              -8.40    -5800.00
02811              -6.20    -5800.00
02812              -8.20    -5600.00
02813              -9.00    -5600.00
02814              -6.60    -5600.00
02815              -6.20    -5600.00
02816              -8.40    -5600.00
02817              -7.60    -5400.00
02818              -5.00    -5400.00
02819              -7.00    -5200.00
02820              -8.40    -5200.00
02821              -5.80    -5000.00
02822              -5.80    -5000.00
02823              -7.40    -5000.00
02824              -6.00    -4800.00
02825              -4.40    -4600.00
02826              -6.00    -4600.00
02827              -6.40    -4600.00
02828              -4.80    -4600.00
02829              -4.20    -4600.00
02830              -7.00    -4400.00
02831              -5.20    -4400.00
02832              -3.40    -4400.00
02833              -5.20    -4200.00
02834              -5.40    -4000.00
02835              -3.80    -4000.00
02836              -4.40    -4000.00
02837              -4.40    -3600.00
02838              -4.40    -3800.00
02839              -3.80    -3600.00
02840              -3.80    -3600.00
02841              -4.00    -3400.00
02842              -4.20    -3400.00
02843              -3.40    -3200.00
02844              -3.20    -3000.00
02845              -3.80    -3200.00
02846              -3.00    -2800.00
02847              -2.40    -2800.00
02848              -3.40    -2800.00
02849              -3.40    -2800.00
02850              -2.00    -2600.00
02851              -2.80    -2600.00
02852              -3.00    -2400.00
02853              -2.20    -2400.00
02854              -1.80    -2000.00
02855              -2.80    -2000.00
02856              -2.80    -1800.00
02857              -1.20    -1800.00
02858              -2.00    -1800.00
02859              -2.60    -1600.00
02860              -1.80    -1600.00
02861              -1.20    -1400.00
02862              -2.00    -1200.00
02863              -2.00    -1200.00
02864              -1.00    -1200.00
02865              -1.20    -1000.00
02866              -1.20    -1000.00
02867              -1.80     -800.00
02868              -1.20     -800.00
02869              -0.60     -400.00
02870              -1.00     -400.00
02871              -1.20     -200.00
02872              -0.40     -400.00
02873               0.00        0.00
02874              -0.60        0.00
02875              -0.60        0.00
02876               0.60      200.00
02877               0.60        0.00
02878              -0.60      400.00
02879               0.40      400.00
02880               0.60      600.00
02881               0.00      600.00
02882               2.00      800.00
02883               9.20     1000.00
02884              12.20     1200.00
02885             -20.40     1200.00
02886             -25.00     1200.00
02887              25.00     1400.00
02888              25.00     1800.00
02889             -25.00     1600.00
02890             -25.00     1800.00
02891              25.00     2000.00
02892              25.00     2000.00
02893             -25.00     1800.00
02894             -24.40     2200.00
02895              25.00     2200.00
02896              -6.00     2000.00
02897             -25.00     2800.00
02898              25.00     2600.00
02899              25.00     2600.00
02900             -25.00     2800.00
02901              13.20     2800.00
02902              25.00     3000.00
02903             -25.00     3000.00
02904             -25.00     3400.00
02905              25.00     3000.00
02906              25.00     3200.00
02907             -25.00     3600.00
02908              25.00     3400.00
02909              25.00     3600.00
02910             -25.00     3800.00
02911             -25.00     3800.00
02912              25.00     3800.00
02913              25.00     4000.00
02914             -25.00     4000.00
02915              12.60     4000.00
02916              25.00     4200.00
02917             -25.00     4400.00
02918             -25.00     4400.00
02919              25.00     4400.00
02920              11.60     4600.00
02921             -25.00     4600.00
02922              25.00     4800.00
02923              25.00     4800.00
02924             -25.00     4800.00
02925              -8.60     4800.00
02926              25.00     4800.00
02927              -2.20     5200.00
02928             -25.00     5200.00
02929              25.00     5200.00
02930              23.60     5400.00
02931             -24.60     5600.00
02932               8.40     5400.00
02933              25.00     5400.00
02934             -10.20     5600.00
02935              -6.60     5600.00
02936              25.00     5800.00
02937               7.40     5800.00
02938             -14.00     5800.00
02939              20.40     5800.00
02940              20.40     6000.00
02941             -11.00     6000.00
02942               8.60     6200.00
02943              25.00     6000.00
02944              -1.20     6200.00
02945              -1.20     6000.00
02946              24.40     6200.00
02947               9.00     6200.00
02948              -5.40     6200.00
02949              18.00     6400.00
02950              19.00     6400.00
02951              -1.40     6200.00
02952               9.00     6400.00
02953              21.60     6400.00
02954               5.80     6400.00
02955               2.80     6600.00
02956              18.80     6400.00
02957              15.00     6400.00
02958               3.40     6600.00
02959              12.40     6400.00
02960              18.00     6600.00
02961               7.00     6400.00
02962               7.40     6600.00
02963              17.00     6600.00
02964              14.20     6600.00
02965               8.20     6800.00
02966              13.20     6400.00
02967              15.60     6600.00
02968               9.80     6600.00
02969              10.40     6800.00
02970              15.80     6800.00
02971              14.00     6600.00
02972              10.00     6800.00
02973              13.40     6600.00
02974              14.20     6800.00
02975              10.80     6600.00
02976              10.80     6600.00
02977              14.00     6600.00
02978              12.60     6600.00
02979              10.60     6600.00
02980              12.20     6400.00
02981              12.60     6600.00
02982              10.00     6400.00
02983              10.00     6400.00
02984              11.60     6400.00
02985              10.80     6400.00
02986               9.80     6400.00
02987              10.00     6400.00
02988              10.60     6200.00
02989               9.00     6200.00
02990               8.40     6200.00
02991              10.00     6200.00
02992               9.60     6200.00
02993               8.20     6200.00
02994               8.20     6000.00
02995               8.60     6000.00
02996               8.60     6000.00
02997               6.80     6000.00
02998               7.80     5800.00
02999               8.60     5800.00
03000               6.80     5600.00
03001               6.80     5800.00
03002               7.80     5600.00
03003               7.40     5600.00
03004               6.00     5600.00
03005               6.40     5600.00
03006               6.80     5600.00
03007               6.20     5400.00
03008               5.20     5400.00
03009               6.60     5200.00
03010               6.60     5200.00
03011               5.00     5200.00
03012               5.40     5000.00
03013               6.20     4800.00
03014               5.00     4800.00
03015               4.40     4600.00
03016               5.80     4400.00
03017               5.60     4600.00
03018               4.20     4400.00
03019               4.20     4400.00
03020               5.20     4400.00
03021               4.20     4200.00
03022               3.60     4200.00
03023               4.60     4000.00
03024               4.40     4000.00
03025               3.20     4000.00
03026               3.80     3800.00
03027               4.20     3600.00
03028               3.40     3600.00
03029               3.40     3600.00
03030               3.60     3600.00
03031               3.60     3600.00
03032               2.80     3400.00
03033               2.80     3200.00
03034               3.40     3000.00
03035               2.60     3000.00
03036               2.20     3000.00
03037               2.60     2800.00
03038               2.80     2800.00
03039               2.20     2800.00
03040               2.00     2600.00
03041               2.20     2400.00
03042               2.20     2400.00
03043               2.00     2200.00
03044               2.00     2200.00
03045               2.20     2000.00
03046               1.80     2000.00
03047               1.40     1800.00
03048               1.40     1800.00
03049               1.80     1600.00
03050               1.00     1400.00
03051               1.00     1400.00
03052               1.00     1200.00
03053               1.00     1200.00
03054               0.60     1200.00
03055               0.60     1000.00
03056               0.60      600.00
03057               0.40      800.00
03058               0.20      600.00
03059               0.20      400.00
03060               0.40      400.00
03061               0.00      400.00
03062               0.00        0.00
03063              -0.60        0.00
03064               0.20        0.00
03065               0.20     -200.00
03066              -0.60     -200.00
03067              -0.20     -200.00
03068               0.40     -400.00
03069              -1.40     -600.00
03070              -1.20     -600.00
03071              -0.20     -800.00
03072              -0.80     -800.00
03073               3.40    -1000.00
03074              19.00    -1200.00
03075             -15.80    -1400.00
03076             -25.00    -1400.00
03077              25.00    -1200.00
03078              25.00    -1400.00
03079             -25.00    -2000.00
03080             -25.00    -1400.00
03081              25.00    -1800.00
03082              25.00    -2000.00
03083             -25.00    -2400.00
03084             -25.00    -1800.00
03085              25.00    -2200.00
03086              25.00    -2600.00
03087             -25.00    -2000.00
03088              25.00    -2600.00
03089              25.00    -2800.00
03090             -25.00    -2800.00
03091             -25.00    -2600.00
03092              25.00    -3000.00
03093              25.00    -3200.00
03094             -25.00    -2800.00
03095              25.00    -3400.00
03096              25.00    -3400.00
03097             -25.00    -3400.00
03098               1.80    -3600.00
03099              25.00    -3600.00
03100             -20.20    -3600.00
03101             -25.00    -3800.00
03102              24.60    -4000.00
03103              25.00    -4000.00
03104             -25.00    -4000.00
03105             -25.00    -4200.00
03106              25.00    -4400.00
03107               4.60    -4200.00
03108             -25.00    -4200.00
03109              25.00    -4400.00
03110              25.00    -4600.00
03111             -25.00    -4600.00
03112               3.60    -4800.00
03113              25.00    -4600.00
03114             -25.00    -5000.00
03115             -25.00    -5200.00
03116              25.00    -5000.00
03117               5.20    -5000.00
03118             -25.00    -5200.00
03119               1.00    -5400.00
03120              25.00    -5200.00
03121             -25.00    -5200.00
03122             -19.80    -5600.00
03123              25.00    -5600.00
03124             -17.80    -5600.00
03125             -25.00    -5800.00
03126              13.40    -5800.00
03127              -2.80    -5800.00
03128             -25.00    -5800.00
03129              -2.00    -6000.00
03130               6.20    -6000.00
03131             -23.60    -6000.00
03132             -14.80    -6000.00
03133              10.00    -6000.00
03134             -14.80    -6400.00
03135             -24.40    -6200.00
03136               5.00    -6400.00
03137              -5.40    -6200.00
03138             -25.00    -6400.00
03139              -5.40    -6400.00
03140               3.20    -6400.00
03141             -21.60    -6400.00
03142             -17.60    -6400.00
03143               3.40    -6600.00
03144             -12.40    -6600.00
03145             -23.80    -6600.00
03146              -3.80    -6400.00
03147              -3.60    -6600.00
03148             -21.80    -6600.00
03149             -14.00    -6600.00
03150              -2.00    -6800.00
03151             -14.60    -6600.00
03152             -20.60    -6600.00
03153              -6.20    -6600.00
03154              -7.00    -6600.00
03155             -20.80    -6800.00
03156             -13.80    -6800.00
03157              -5.40    -6800.00
03158             -15.60    -6600.00
03159             -18.60    -6800.00
03160              -8.60    -6800.00
03161             -10.00    -6600.00
03162             -18.40    -6800.00
03163             -14.00    -6600.00
03164              -8.60    -6800.00
03165             -14.60    -6800.00
03166             -16.60    -6600.00
03167             -10.20    -6800.00
03168             -10.20    -6600.00
03169             -15.40    -6600.00
03170             -13.20    -6600.00
03171              -9.00    -6600.00
03172             -11.80    -6600.00
03173             -14.20    -6600.00
03174             -10.20    -6600.00
03175              -9.20    -6600.00
03176             -12.60    -6600.00
03177             -12.40    -6400.00
03178              -8.60    -6400.00
03179              -9.80    -6400.00
03180             -12.00    -6400.00
03181              -9.80    -6400.00
03182              -7.80    -6400.00
03183             -10.20    -6200.00
03184             -10.80    -6200.00
03185              -8.00    -6000.00
03186              -7.80    -6000.00
03187             -10.60    -6000.00
03188              -9.40    -6000.00
03189              -7.00    -6000.00
03190              -8.60    -6000.00
03191              -9.80    -6000.00
03192              -7.40    -5800.00
03193              -6.20    -5600.00
03194              -9.20    -5600.00
03195              -8.40    -5600.00
03196              -5.80    -5600.00
03197              -7.40    -5600.00
03198              -8.60    -5600.00
03199              -6.20    -5200.00
03200              -5.40    -5200.00
03201              -7.80    -5000.00
03202              -7.40    -5200.00
03203              -5.20    -5200.00
03204              -6.20    -5000.00
03205              -7.80    -5000.00
03206              -5.00    -4800.00
03207              -4.60    -4600.00
03208              -7.00    -4600.00
03209              -6.20    -4600.00
03210              -3.80    -4600.00
03211              -5.80    -4400.00
03212              -6.80    -4400.00
03213              -4.20    -4200.00
03214              -3.80    -4200.00
03215              -5.80    -4200.00
03216              -4.60    -4000.00
03217              -3.80    -4000.00
03218              -4.20    -4000.00
03219              -4.60    -3800.00
03220              -4.20    -3600.00
03221              -3.60    -3600.00
03222              -4.20    -3600.00
03223              -4.40    -3400.00
03224              -3.40    -3400.00
03225              -2.80    -3200.00
03226              -3.80    -3000.00
03227              -3.40    -2800.00
03228              -2.20    -2800.00
03229              -3.00    -2800.00
03230              -3.60    -2800.00
03231              -2.20    -2600.00
03232              -2.20    -2600.00
03233              -3.40    -2400.00
03234              -2.20    -2400.00
03235              -1.80    -2400.00
03236              -2.80    -2000.00
03237              -2.20    -2000.00
03238              -1.40    -1800.00
03239              -2.00    -1800.00
03240              -2.20    -1600.00
03241              -1.40    -1600.00
03242              -1.40    -1600.00
03243              -2.20    -1400.00
03244              -1.20    -1200.00
03245              -0.60    -1000.00
03246              -2.00    -1000.00
03247              -1.20    -1000.00
03248              -0.60     -800.00
03249              -1.80     -800.00
03250              -1.20     -600.00
03251              -0.60     -600.00
03252              -1.00     -400.00
03253              -0.60     -200.00
03254              -0.80     -200.00
03255               0.20        0.00
03256               0.40        0.00
03257              -1.00      200.00
03258               0.40        0.00
03259               2.00      400.00
03260              -1.20      400.00
03261              -1.00      600.00
03262               2.80      600.00
03263               0.40      800.00
03264               1.20      800.00
03265              14.80     1200.00
03266               3.20     1200.00
03267             -25.00     1200.00
03268             -25.00     1200.00
03269              25.00     1400.00
03270              25.00     1800.00
03271             -25.00     1400.00
03272             -25.00     2000.00
03273              25.00     2000.00
03274              13.20     1800.00
03275             -25.00     2000.00
03276              25.00     2200.00
03277              25.00     2400.00
03278             -25.00     2400.00
03279             -25.00     2800.00
03280              25.00     2600.00
03281              13.00     2400.00
03282             -25.00     3000.00
03283              25.00     2800.00
03284              25.00     2800.00
03285             -25.00     3200.00
03286              10.80     3200.00
03287              25.00     3200.00
03288             -25.00     3200.00
03289             -25.00     3600.00
03290              25.00     3400.00
03291              25.00     3600.00
03292             -25.00     3800.00
03293               0.00     3800.00
03294              25.00     3800.00
03295             -15.80     4000.00
03296             -25.00     4200.00
03297              25.00     4200.00
03298              25.00     4400.00
03299             -25.00     4400.00
03300               8.80     4400.00
03301              25.00     4600.00
03302             -25.00     4600.00
03303             -25.00     4800.00
03304              25.00     4800.00
03305              13.80     4600.00
03306             -25.00     5000.00
03307              22.00     4800.00
03308              25.00     5000.00
03309             -25.00     5200.00
03310              -9.20     5200.00
03311              25.00     5200.00
03312               0.60     5400.00
03313             -22.40     5600.00
03314              25.00     5600.00
03315              22.20     5600.00
03316             -20.60     5600.00
03317              10.20     5800.00
03318              25.00     5800.00
03319              -9.00     5800.00
03320              -4.40     5800.00
03321              25.00     6000.00
03322               7.00     6000.00
03323             -11.00     6000.00
03324              21.00     6000.00
03325              18.80     6000.00
03326              -8.20     6200.00
03327               9.40     6200.00
03328              23.60     6000.00
03329               0.20     6200.00
03330               1.00     6200.00
03331              22.20     6400.00
03332              10.60     6400.00
03333              -1.80     6200.00
03334              15.40     6400.00
03335              18.20     6400.00
03336               1.80     6400.00
03337               7.80     6400.00
03338              20.40     6600.00
03339               9.20     6400.00
03340               3.80     6600.00
03341              16.40     6600.00
03342              15.60     6600.00
03343               4.80     6400.00
03344              11.40     6600.00
03345              18.60     6600.00
03346               9.80     6800.00
03347               7.40     6800.00
03348              17.20     6600.00
03349              14.60     6600.00
03350               7.40     6800.00
03351              13.20     6800.00
03352              16.80     6600.00
03353              10.20     6800.00
03354              10.40     6600.00
03355              15.60     6600.00
03356              13.20     6600.00
03357               9.80     6400.00
03358              12.60     6600.00
03359              14.20     6600.00
03360              10.80     6600.00
03361              10.00     6600.00
03362              12.80     6600.00
03363              12.20     6400.00
03364               9.80     6400.00
03365              10.60     6400.00
03366              11.60     6400.00
03367              10.20     6400.00
03368               9.20     6400.00
03369              10.40     6200.00
03370              10.60     6200.00
03371               9.40     6200.00
03372               8.20     6200.00
03373               9.40     6200.00
03374               9.20     6200.00
03375               8.00     6000.00
03376               8.40     6000.00
03377              10.00     6000.00
03378               7.40     6000.00
03379               7.40     6000.00
03380               8.40     5800.00
03381               8.20     5800.00
03382               6.40     5600.00
03383               6.80     5600.00
03384               8.20     5600.00
03385               6.80     5600.00
03386               5.80     5600.00
03387               7.40     5600.00
03388               6.80     5400.00
03389               5.40     5400.00
03390               5.80     5200.00
03391               7.00     5200.00
03392               5.80     5200.00
03393               4.40     5200.00
03394               6.00     4800.00
03395               6.00     4800.00
03396               4.40     4800.00
03397               4.60     4600.00
03398               6.00     4600.00
03399               5.00     4600.00
03400               3.60     4600.00
03401               5.20     4400.00
03402               5.20     4400.00
03403               3.60     4200.00
03404               4.20     4200.00
03405               4.60     4000.00
03406               3.80     4000.00
03407               3.40     3800.00
03408               4.20     4000.00
03409               4.20     3800.00
03410               2.80     3600.00
03411               3.60     3600.00
03412               3.80     3600.00
03413               2.80     3600.00
03414               2.60     3200.00
03415               3.40     3200.00
03416               2.80     3200.00
03417               2.20     3000.00
03418               2.80     3000.00
03419               2.80     2800.00
03420               2.20     2800.00
03421               2.20     2600.00
03422               2.60     2600.00
03423               2.00     2400.00
03424               2.00     2400.00
03425               1.80     2200.00
03426               2.00     2200.00
03427               1.80     2000.00
03428               1.80     2000.00
03429               1.80     1800.00
03430               1.20     1800.00
03431               1.40     1600.00
03432               1.20     1400.00
03433               1.00     1400.00
03434               1.20     1200.00
03435               1.00     1200.00
03436               0.60      800.00
03437               0.60      800.00
03438               1.00      800.00
03439               0.40      600.00
03440               0.40      800.00
03441               0.40      400.00
03442               0.40      400.00
03443              -0.20      400.00
03444              -0.20      200.00
03445              -0.20        0.00
03446               0.40        0.00
03447              -0.40     -200.00
03448               0.20     -200.00
03449               0.40     -400.00
03450              -0.60     -400.00
03451              -1.40     -600.00
03452              -0.60     -600.00
03453              -0.60     -800.00
03454              -0.60     -800.00
03455              10.00    -1000.00
03456              14.00    -1200.00
03457             -25.00    -1600.00
03458             -25.00    -1000.00
03459              25.00    -1200.00
03460              25.00    -1600.00
03461             -25.00    -2000.00
03462             -25.00    -1600.00
03463              25.00    -2000.00
03464              25.00    -2200.00
03465             -25.00    -2000.00
03466              13.80    -2000.00
03467              25.00    -2400.00
03468             -19.60    -2600.00
03469             -25.00    -2000.00
03470              25.00    -2600.00
03471              25.00    -2800.00
03472             -25.00    -2400.00
03473               8.60    -3200.00
03474              25.00    -3200.00
03475             -25.00    -3000.00
03476             -25.00    -3200.00
03477              25.00    -3400.00
03478               0.20    -3400.00
03479             -25.00    -3600.00
03480              25.00    -3600.00
03481              25.00    -3600.00
03482             -25.00    -3600.00
03483             -25.00    -3800.00
03484              25.00    -4000.00
03485              25.00    -4000.00
03486             -25.00    -4200.00
03487               1.80    -4200.00
03488              25.00    -4400.00
03489             -25.00    -4200.00
03490             -25.00    -4400.00
03491              25.00    -4800.00
03492             -11.20    -4600.00
03493             -25.00    -4800.00
03494              25.00    -4600.00
03495              25.00    -4800.00
03496             -25.00    -5000.00
03497              -7.80    -5000.00
03498              25.00    -5000.00
03499             -20.00    -5000.00
03500             -25.00    -5200.00
03501              22.60    -5200.00
03502               8.20    -5200.00
03503             -25.00    -5400.00
03504               2.60    -5600.00
03505              18.20    -5600.00
03506             -25.00    -5600.00
03507             -11.80    -5800.00
03508              16.20    -5800.00
03509             -17.20    -5800.00
03510             -23.40    -6000.00
03511               7.20    -6000.00
03512              -3.00    -6000.00
03513             -25.00    -6000.00
03514              -2.60    -6200.00
03515               6.20    -6200.00
03516             -24.60    -6000.00
03517             -14.00    -6200.00
03518               7.40    -6400.00
03519             -16.20    -6400.00
03520             -22.20    -6200.00
03521               2.20    -6400.00
03522              -5.00    -6600.00
03523             -24.60    -6600.00
03524              -8.60    -6400.00
03525               1.20    -6600.00
03526             -19.80    -6400.00
03527             -18.20    -6600.00
03528              -0.20    -6600.00
03529             -10.80    -6600.00
03530             -22.20    -6600.00
03531              -7.80    -6800.00
03532              -4.20    -6600.00
03533             -20.00    -6600.00
03534             -16.60    -6800.00
03535              -3.60    -6600.00
03536             -12.60    -6600.00
03537             -21.00    -6800.00
03538              -9.00    -6800.00
03539              -7.60    -6600.00
03540             -19.00    -6800.00
03541             -15.00    -6600.00
03542              -6.60    -6600.00
03543             -14.00    -6800.00
03544             -18.80    -6800.00
03545             -10.60    -6600.00
03546              -9.80    -6600.00
03547             -17.20    -6600.00
03548             -14.00    -6600.00
03549              -8.60    -6800.00
03550             -12.60    -6600.00
03551             -15.80    -6800.00
03552             -11.00    -6400.00
03553              -9.80    -6600.00
03554             -13.60    -6600.00
03555             -13.00    -6600.00
03556              -9.00    -6600.00
03557             -10.80    -6400.00
03558             -13.20    -6400.00
03559             -10.40    -6400.00
03560              -8.60    -6400.00
03561             -11.00    -6400.00
03562             -11.40    -6400.00
03563              -8.40    -6200.00
03564              -8.60    -6200.00
03565             -10.80    -6200.00
03566              -9.80    -6200.00
03567              -7.40    -6000.00
03568              -8.60    -6000.00
03569             -10.20    -6000.00
03570              -8.20    -6000.00
03571              -7.00    -6000.00
03572              -9.20    -6000.00
03573              -9.00    -5800.00
03574              -6.20    -5800.00
03575              -7.00    -5800.00
03576              -9.00    -5600.00
03577              -7.40    -5600.00
03578              -6.00    -5600.00
03579              -7.80    -5600.00
03580              -8.20    -5600.00
03581              -5.40    -5200.00
03582              -5.80    -5200.00
03583              -8.40    -5200.00
03584              -6.20    -5000.00
03585              -4.60    -5000.00
03586              -6.80    -5000.00
03587              -7.40    -5000.00
03588              -4.40    -4800.00
03589              -4.60    -4600.00
03590              -7.00    -4800.00
03591              -5.40    -4600.00
03592              -4.00    -4400.00
03593              -6.20    -4400.00
03594              -6.20    -4400.00
03595              -4.40    -4200.00
03596              -4.20    -4400.00
03597              -5.00    -4000.00
03598              -4.60    -4000.00
03599              -4.40    -4000.00
03600              -3.80    -3800.00
03601              -4.60    -3600.00
03602              -4.60    -3600.00
03603              -3.00    -3600.00
03604              -3.40    -3600.00
03605              -5.20    -3200.00
03606              -3.60    -3400.00
03607              -2.20    -3200.00
03608              -4.40    -3200.00
03609              -4.20    -3000.00
03610              -1.40    -3000.00
03611              -3.00    -2800.00
03612              -4.20    -2800.00
03613              -2.20    -2600.00
03614              -2.20    -2600.00
03615              -3.00    -2400.00
03616              -2.80    -2400.00
03617              -2.00    -2200.00
03618              -2.00    -2000.00
03619              -2.40    -2000.00
03620              -2.20    -1800.00
03621              -1.40    -1800.00
03622              -1.80    -1800.00
03623              -2.60    -1600.00
03624              -1.80    -1600.00
03625              -1.20    -1200.00
03626              -1.80    -1400.00
03627              -1.20    -1000.00
03628              -0.60    -1000.00
03629              -1.00    -1000.00
03630              -1.40     -800.00
03631              -1.20     -800.00
03632              -0.60     -600.00
03633              -0.60     -600.00
03634              -0.60     -400.00
03635              -0.60     -200.00
03636              -0.60        0.00
03637               0.20        0.00
03638              -0.40        0.00
03639               0.20        0.00
03640               1.40      200.00
03641               0.20      200.00
03642              -1.00      600.00
03643               0.40      600.00
03644               1.00      600.00
03645               0.60      800.00
03646               5.40      800.00
03647              16.00     1200.00
03648              -8.60     1200.00
03649             -25.00     1200.00
03650               8.20     1400.00
03651              25.00     1600.00
03652              -6.20     1800.00
03653             -25.00     1600.00
03654              25.00     2000.00
03655              25.00     2000.00
03656             -25.00     1600.00
03657             -25.00     2200.00
03658              25.00     2200.00
03659              25.00     2200.00
03660             -25.00     2400.00
03661              25.00     2800.00
03662              25.00     2800.00
03663             -25.00     2600.00
03664             -25.00     2800.00
03665              25.00     3000.00
03666               8.40     2800.00
03667             -25.00     3400.00
03668              25.00     3000.00
03669              25.00     3200.00
03670             -25.00     3600.00
03671             -11.20     3600.00
03672              25.00     3600.00
03673             -10.60     3800.00
03674             -25.00     4000.00
03675              25.00     3800.00
03676              25.00     4000.00
03677             -25.00     4000.00
03678             -21.00     4000.00
03679              25.00     4000.00
03680              -2.00     4400.00
03681             -25.00     4400.00
03682              25.00     4400.00
03683              25.00     4600.00
03684             -25.00     4600.00
03685               3.80     4600.00
03686              25.00     4600.00
03687             -19.00     5000.00
03688             -25.00     4800.00
03689              25.00     5000.00
03690              18.60     5200.00
03691             -25.00     5200.00
03692              15.60     5200.00
03693              25.00     5200.00
03694             -19.00     5600.00
03695              -6.60     5400.00
03696              25.00     5400.00
03697               2.00     5600.00
03698             -16.40     5600.00
03699              25.00     5800.00
03700              19.60     6000.00
03701             -16.20     6000.00
03702              10.60     5800.00
03703              25.00     6000.00
03704              -5.40     6000.00
03705              -1.40     5800.00
03706              25.00     6200.00
03707               7.60     6000.00
03708              -7.00     6200.00
03709              19.20     6200.00
03710              17.40     6200.00
03711              -4.40     6200.00
03712               9.40     6200.00
03713              22.60     6400.00
03714               3.00     6400.00
03715               2.60     6400.00
03716              19.80     6400.00
03717              12.60     6600.00
03718               0.60     6400.00
03719              13.40     6400.00
03720              18.60     6400.00
03721               5.20     6600.00
03722               7.40     6600.00
03723              18.80     6600.00
03724              11.60     6600.00
03725               5.00     6800.00
03726              15.00     6800.00
03727              16.80     6600.00
03728               6.60     6800.00
03729              11.00     6800.00
03730              17.00     6600.00
03731              11.00     6800.00
03732               8.60     6600.00
03733              14.80     6600.00
03734              15.00     6800.00
03735               9.60     6800.00
03736              12.20     6600.00
03737              14.80     6600.00
03738              12.20     6600.00
03739              11.00     6800.00
03740              13.00     6600.00
03741              12.60     6800.00
03742              11.00     6400.00
03743              11.20     6600.00
03744              11.80     6400.00
03745              11.00     6400.00
03746              10.60     6400.00
03747              11.00     6400.00
03748              11.40     6400.00
03749              10.00     6400.00
03750              10.20     6400.00
03751               9.80     6400.00
03752               9.80     6400.00
03753              10.60     6200.00
03754               8.60     6200.00
03755               8.40     6200.00
03756              10.00     6200.00
03757               9.00     6000.00
03758               7.40     6000.00
03759               9.00     6000.00
03760               8.60     6000.00
03761               7.20     6000.00
03762               7.60     6000.00
03763               8.60     6000.00
03764               7.40     6000.00
03765               6.60     5600.00
03766               7.60     5600.00
03767               7.40     5600.00
03768               6.60     5400.00
03769               6.80     5400.00
03770               7.00     5400.00
03771               5.80     5400.00
03772               6.00     5200.00
03773               6.20     5200.00
03774               5.20     5200.00
03775               5.20     5000.00
03776               6.60     5000.00
03777               5.80     4800.00
03778               4.20     4600.00
03779               5.40     4600.00
03780               6.00     4600.00
03781               3.60     4600.00
03782               3.80     4600.00
03783               6.20     4400.00
03784               4.40     4400.00
03785               2.60     4200.00
03786               5.40     4000.00
03787               5.40     4000.00
03788               2.20     4000.00
03789               2.80     3800.00
03790               5.20     3800.00
03791               4.20     3600.00
03792               2.00     3600.00
03793               3.60     3600.00
03794               3.80     3400.00
03795               2.40     3200.00
03796               2.60     3200.00
03797               3.80     3200.00
03798               2.60     3200.00
03799               2.20     3000.00
03800               3.00     2800.00
03801               2.60     2800.00
03802               2.00     2600.00
03803               2.40     2600.00
03804               2.00     2400.00
03805               2.00     2200.00
03806               2.20     2200.00
03807               2.00     2200.00
03808               1.80     2200.00
03809               2.00     2000.00
03810               1.20     2000.00
03811               1.20     1800.00
03812               1.40     1600.00
03813               1.40     1600.00
03814               1.20     1400.00
03815               1.20     1200.00
03816               1.40     1400.00
03817               1.00     1200.00
03818               0.00     1000.00
03819               0.60     1000.00
03820               1.00      800.00
03821               0.20      800.00
03822               0.20      600.00
03823               1.00      400.00
03824               0.60      400.00
03825              -0.40      400.00
03826              -0.20        0.00
03827               0.20        0.00
03828              -0.20        0.00
03829               0.20     -200.00
03830               0.40     -200.00
03831               0.40     -400.00
03832              -1.00     -600.00
03833              -1.20     -400.00
03834              -0.60     -800.00
03835              -0.60     -800.00
03836               0.60     -800.00
03837              17.00    -1200.00
03838              -0.40    -1400.00
03839             -25.00    -1600.00
03840             -10.20    -1200.00
03841              25.00    -1400.00
03842               7.60    -1800.00
03843             -25.00    -1600.00
03844              21.40    -1600.00
03845              25.00    -2000.00
03846             -25.00    -2400.00
03847             -25.00    -1800.00
03848              25.00    -2400.00
03849              25.00    -2600.00
03850             -25.00    -2400.00
03851             -25.00    -2200.00
03852              25.00    -2800.00
03853              25.00    -3000.00
03854             -25.00    -2600.00
03855              25.00    -3200.00
03856              25.00    -3200.00
03857             -25.00    -2800.00
03858              18.40    -3400.00
03859              25.00    -3400.00
03860             -25.00    -3400.00
03861             -25.00    -3600.00
03862              25.00    -3600.00
03863              20.80    -3600.00
03864             -25.00    -3600.00
03865             -12.60    -4000.00
03866              25.00    -4000.00
03867             -17.20    -4200.00
03868             -25.00    -4000.00
03869              25.00    -4200.00
03870              25.00    -4400.00
03871             -25.00    -4400.00
03872              10.00    -4400.00
03873              25.00    -4600.00
03874             -25.00    -4400.00
03875             -25.00    -4800.00
03876              25.00    -4800.00
03877             -14.00    -4600.00
03878             -25.00    -5200.00
03879              19.20    -5000.00
03880              22.60    -5200.00
03881             -25.00    -5000.00
03882             -18.00    -5200.00
03883              25.00    -5200.00
03884             -18.20    -5200.00
03885             -25.00    -5600.00
03886              20.40    -5600.00
03887              -1.00    -5600.00
03888             -25.00    -5600.00
03889               5.00    -5800.00
03890               8.20    -5800.00
03891             -25.00    -5800.00
03892             -11.60    -5800.00
03893              10.00    -6000.00
03894             -15.60    -6000.00
03895             -23.00    -6000.00
03896               7.80    -6200.00
03897              -4.60    -6200.00
03898             -25.00    -6200.00
03899              -1.20    -6200.00
03900               2.20    -6400.00
03901             -24.80    -6400.00
03902             -13.00    -6400.00
03903               5.60    -6400.00
03904             -15.40    -6400.00
03905             -22.60    -6400.00
03906              -0.40    -6600.00
03907              -5.40    -6400.00
03908             -24.40    -6600.00
03909              -9.80    -6600.00
03910              -0.40    -6600.00
03911             -18.20    -6600.00
03912             -18.80    -6800.00
03913              -3.60    -6600.00
03914              -9.80    -6800.00
03915             -21.80    -6600.00
03916             -10.20    -6800.00
03917              -4.20    -6600.00
03918             -17.60    -6600.00
03919             -18.20    -6800.00
03920              -6.20    -6600.00
03921             -11.40    -6800.00
03922             -19.80    -6800.00
03923             -12.20    -6800.00
03924              -7.40    -6600.00
03925             -16.20    -6800.00
03926             -17.20    -6800.00
03927              -9.20    -6800.00
03928             -11.40    -6600.00
03929             -17.40    -6800.00
03930             -12.40    -6600.00
03931              -8.80    -6600.00
03932             -14.40    -6800.00
03933             -15.00    -6600.00
03934             -10.00    -6600.00
03935             -10.60    -6600.00
03936             -14.20    -6400.00
03937             -11.80    -6600.00
03938              -8.40    -6600.00
03939             -12.40    -6400.00
03940             -13.00    -6400.00
03941              -8.60    -6400.00
03942              -9.00    -6400.00
03943             -12.40    -6400.00
03944             -10.80    -6400.00
03945              -7.00    -6400.00
03946              -9.40    -6200.00
03947             -11.80    -6200.00
03948              -9.20    -6000.00
03949              -6.00    -6000.00
03950              -9.20    -6200.00
03951             -11.40    -6000.00
03952              -7.00    -6000.00
03953              -6.00    -6000.00
03954             -10.40    -5800.00
03955              -9.80    -5800.00
03956              -4.60    -5800.00
03957              -6.80    -5800.00
03958             -10.80    -5600.00
03959              -6.60    -5600.00
03960              -4.40    -5600.00
03961              -9.20    -5400.00
03962              -8.40    -5400.00
03963              -3.60    -5200.00
03964              -6.00    -5200.00
03965              -8.60    -5200.00
03966              -5.40    -5000.00
03967              -4.80    -5000.00
03968              -7.60    -5000.00
03969              -6.60    -4600.00
03970              -3.80    -4800.00
03971              -5.40    -4600.00
03972              -7.20    -4600.00
03973              -4.60    -4400.00
03974              -4.20    -4400.00
03975              -7.60    -4400.00
03976              -5.00    -4200.00
03977              -3.60    -4200.00
03978              -4.80    -4200.00
03979              -5.20    -4000.00
03980              -4.20    -4000.00
03981              -4.20    -4000.00
03982              -4.40    -3800.00
03983              -4.40    -3600.00
03984              -3.80    -3600.00
03985              -3.60    -3600.00
03986              -4.60    -3400.00
03987              -4.00    -3200.00
03988              -2.80    -3200.00
03989              -3.80    -3200.00
03990              -4.40    -3200.00
03991              -2.20    -3000.00
03992              -2.80    -2800.00
03993              -4.60    -2800.00
03994              -2.80    -2600.00
03995              -1.40    -2600.00
03996              -3.40    -2400.00
03997              -3.40    -2400.00
03998              -1.20    -2200.00
03999              -1.60    -2000.00
04000              -3.40    -2000.00
04001              -2.00    -2000.00
04002              -1.20    -1800.00
04003              -2.40    -1800.00
04004              -2.20    -1600.00
04005              -1.20    -1600.00
04006              -1.40    -1200.00
04007              -2.00    -1200.00
04008              -1.40    -1000.00
04009              -1.00    -1200.00
04010              -1.20    -1000.00
04011              -1.00     -800.00
04012              -0.80     -800.00
04013              -1.20     -600.00
04014              -0.60     -400.00
04015              -0.60     -400.00
04016              -1.00     -200.00
04017              -0.40     -200.00
04018               0.40     -200.00
04019               0.20        0.00
04020              -0.20        0.00
04021               0.60      400.00
04022               1.00      400.00
04023              -0.60      400.00
04024               0.20      400.00
04025               1.40      800.00
04026               0.40      800.00
04027               1.40      800.00
04028              10.00     1200.00
04029              11.40     1200.00
04030             -24.20     1200.00
04031             -25.00     1000.00
04032              25.00     1400.00
04033              25.00     1600.00
04034             -25.00     1400.00
04035             -25.00     1800.00
04036              25.00     1800.00
04037              25.00     2200.00
04038             -25.00     2000.00
04039              -3.00     2200.00
04040              25.00     2400.00
04041             -25.00     2200.00
04042             -25.00     2600.00
04043              25.00     2600.00
04044              25.00     2600.00
04045             -25.00     2800.00
04046              25.00     2800.00
04047              25.00     3000.00
04048             -25.00     3000.00
04049             -25.00     3200.00
04050              25.00     3000.00
04051              16.40     3400.00
04052             -25.00     3600.00
04053              25.00     3400.00
04054              25.00     3600.00
04055             -25.00     3800.00
04056             -25.00     4000.00
04057              25.00     3800.00
04058              23.20     4000.00
04059             -25.00     4000.00
04060              22.00     4000.00
04061              25.00     4400.00
04062             -25.00     4600.00
04063             -25.00     4400.00
04064              25.00     4400.00
04065               4.20     4600.00
04066             -25.00     4800.00
04067              25.00     4600.00
04068              25.00     4800.00
04069             -25.00     5000.00
04070              -2.40     5200.00
04071              25.00     5200.00
04072              -7.00     5200.00
04073             -25.00     5200.00
04074              25.00     5400.00
04075              20.00     5200.00
04076             -25.00     5400.00
04077              12.20     5400.00
04078              25.00     5600.00
04079             -13.20     5600.00
04080              -3.00     5600.00
04081              25.00     5600.00
04082               3.40     5800.00
04083             -12.40     6000.00
04084              23.40     6000.00
04085              18.60     6000.00
04086             -13.40     6000.00
04087              14.60     6000.00
04088              21.00     6000.00
04089              -4.20     6200.00
04090               4.60     6000.00
04091              20.80     6200.00
04092              14.60     6200.00
04093              -3.00     6400.00
04094              15.80     6400.00
04095              16.40     6400.00
04096              -1.40     6400.00
04097               7.00     6200.00
04098              20.60     6400.00
04099               6.20     6600.00
04100               6.80     6400.00
04101              19.00     6600.00
04102              14.00     6600.00
04103               6.00     6400.00
04104               8.20     6600.00
04105              16.40     6600.00
04106               6.80     6600.00
04107               8.20     6600.00
04108              19.20     6800.00
04109              15.40     6600.00
04110               7.80     6600.00
04111              13.40     6600.00
04112              15.00     6600.00
04113               7.20     6400.00
04114              10.00     6600.00
04115              17.00     6800.00
04116              13.40     6600.00
04117               8.40     6800.00
04118              16.40     6600.00
04119              14.20     6800.00
04120              10.00     6400.00
04121              11.60     6600.00
04122              13.00     6600.00
04123              12.40     6600.00
04124               9.80     6600.00
04125              12.00     6600.00
04126              12.60     6600.00
04127              11.60     6400.00
04128               9.80     6600.00
04129               9.60     6400.00
04130              11.80     6400.00
04131              10.60     6400.00
04132               8.60     6200.00
04133               9.80     6400.00
04134              11.60     6400.00
04135               8.40     6200.00
04136               7.40     6200.00
04137              11.60     6200.00
04138              10.40     6000.00
04139               5.40     6200.00
04140               9.20     6000.00
04141              10.20     6000.00
04142               6.80     6000.00
04143               5.80     6000.00
04144               9.80     5800.00
04145               8.60     6000.00
04146               5.40     5800.00
04147               8.20     5600.00
04148               9.00     5600.00
04149               5.20     5600.00
04150               5.20     5400.00
04151               8.60     5600.00
04152               6.80     5400.00
04153               5.00     5400.00
04154               7.00     5200.00
04155               7.60     5200.00
04156               4.00     5200.00
04157               5.00     5000.00
04158               6.80     4800.00
04159               5.00     4800.00
04160               4.40     4800.00
04161               6.20     4600.00
04162               5.40     4600.00
04163               3.40     4600.00
04164               5.00     4600.00
04165               5.40     4400.00
04166               3.60     4400.00
04167               3.80     4200.00
04168               5.20     4000.00
04169               4.20     4000.00
04170               3.00     4000.00
04171               4.20     3800.00
04172               3.80     3800.00
04173               2.80     3600.00
04174               3.40     3600.00
04175               4.20     3600.00
04176               3.00     3400.00
04177               1.80     3200.00
04178               3.40     3200.00
04179               3.80     3200.00
04180               2.00     3000.00
04181               2.00     2800.00
04182               3.40     3000.00
04183               2.00     2800.00
04184               1.00     2600.00
04185               2.60     2600.00
04186               2.60     2400.00
04187               1.20     2200.00
04188               1.80     2200.00
04189               2.80     2200.00
04190               1.80     2000.00
04191               1.00     2000.00
04192               1.80     1800.00
04193               1.80     1600.00
04194               0.60     1600.00
04195               1.40     1600.00
04196               1.40     1400.00
04197               0.60     1200.00
04198               1.00     1400.00
04199               0.80     1200.00
04200               0.40     1000.00
04201               0.60      800.00
04202               1.00      600.00
04203               0.80      600.00
04204               0.20      600.00
04205               0.20      400.00
04206               0.40      400.00
04207              -0.20      400.00
04208              -0.60        0.00
04209               0.40        0.00
04210               0.40     -200.00
04211              -0.40     -200.00
04212               0.40     -200.00
04213               0.60     -400.00
04214              -1.20     -400.00
04215              -1.40     -400.00
04216              -0.20     -800.00
04217              -0.60     -800.00
04218               4.40     -800.00
04219              18.80    -1200.00
04220             -19.80    -1600.00
04221             -25.00    -1200.00
04222              25.00    -1200.00
04223              25.00    -1600.00
04224             -25.00    -2000.00
04225             -25.00    -1200.00
04226              25.00    -1800.00
04227              25.00    -2000.00
04228             -25.00    -2200.00
04229             -25.00    -2000.00
04230              25.00    -2400.00
04231              25.00    -2800.00
04232             -25.00    -2000.00
04233              25.00    -2800.00
04234              25.00    -2800.00
04235             -25.00    -2800.00
04236             -25.00    -2800.00
04237              25.00    -3200.00
04238              25.00    -3200.00
04239             -25.00    -2800.00
04240              25.00    -3400.00
04241              25.00    -3400.00
04242             -25.00    -3400.00
04243              13.20    -3600.00
04244              25.00    -3600.00
04245             -25.00    -3600.00
04246             -25.00    -3800.00
04247              25.00    -4000.00
04248              25.00    -4000.00
04249             -25.00    -4200.00
04250             -25.00    -4000.00
04251              25.00    -4400.00
04252             -10.40    -4200.00
04253             -25.00    -4400.00
04254              25.00    -4600.00
04255              25.00    -4400.00
04256             -25.00    -4600.00
04257              13.00    -4600.00
04258              25.00    -4800.00
04259             -25.00    -4600.00
04260             -25.00    -5000.00
04261              25.00    -5000.00
04262               0.20    -5000.00
04263             -25.00    -5200.00
04264               6.20    -5400.00
04265              24.40    -5200.00
04266             -25.00    -5600.00
04267             -15.40    -5600.00
04268              25.00    -5600.00
04269             -21.60    -5400.00
04270             -24.60    -5600.00
04271              14.80    -5600.00
04272              -5.80    -5800.00
04273             -25.00    -5800.00
04274               0.60    -6000.00
04275               5.40    -6000.00
04276             -25.00    -6000.00
04277             -11.80    -6000.00
04278              10.40    -6200.00
04279             -17.80    -6200.00
04280             -22.20    -6000.00
04281               7.00    -6200.00
04282              -7.60    -6400.00
04283             -25.00    -6000.00
04284              -2.60    -6200.00
04285               1.80    -6600.00
04286             -23.00    -6400.00
04287             -14.80    -6400.00
04288               3.40    -6600.00
04289             -14.60    -6400.00
04290             -22.20    -6600.00
04291              -2.40    -6600.00
04292              -5.20    -6600.00
04293             -22.40    -6600.00
04294             -12.40    -6600.00
04295              -2.20    -6800.00
04296             -16.40    -6800.00
04297             -19.80    -6600.00
04298              -4.60    -6800.00
04299              -8.60    -6600.00
04300             -21.60    -6600.00
04301             -11.80    -6800.00
04302              -6.00    -6800.00
04303             -17.20    -6800.00
04304             -17.40    -6600.00
04305              -7.40    -6800.00
04306             -11.20    -6800.00
04307             -19.00    -6800.00
04308             -12.60    -6600.00
04309              -8.60    -6600.00
04310             -15.60    -6800.00
04311             -16.20    -6600.00
04312              -9.40    -6800.00
04313             -11.40    -6600.00
04314             -15.80    -6800.00
04315             -12.60    -6600.00
04316              -9.40    -6600.00
04317             -12.20    -6600.00
04318             -13.80    -6400.00
04319             -10.20    -6600.00
04320              -9.40    -6400.00
04321             -12.40    -6400.00
04322             -11.80    -6600.00
04323              -8.60    -6400.00
04324             -10.00    -6400.00
04325             -11.80    -6400.00
04326              -9.60    -6400.00
04327              -8.40    -6400.00
04328             -10.20    -6400.00
04329             -10.60    -6000.00
04330              -8.40    -6200.00
04331              -7.60    -6000.00
04332             -10.00    -6000.00
04333              -9.20    -6000.00
04334              -6.80    -6000.00
04335              -8.20    -5800.00
04336              -9.80    -5800.00
04337              -7.00    -5800.00
04338              -6.00    -5800.00
04339              -9.00    -5600.00
04340              -8.40    -5600.00
04341              -5.40    -5600.00
04342              -7.20    -5400.00
04343              -8.60    -5400.00
04344              -6.00    -5200.00
04345              -5.20    -5400.00
04346              -8.20    -5200.00
04347              -7.00    -5000.00
04348              -4.40    -5000.00
04349              -6.00    -5000.00
04350              -7.60    -5000.00
04351              -4.60    -4600.00
04352              -4.20    -4800.00
04353              -6.80    -4600.00
04354              -6.20    -4400.00
04355              -3.60    -4400.00
04356              -5.20    -4400.00
04357              -6.80    -4200.00
04358              -4.20    -4400.00
04359              -3.80    -4200.00
04360              -5.80    -4200.00
04361              -5.00    -4000.00
04362              -3.80    -4000.00
04363              -4.40    -4000.00
04364              -4.60    -3600.00
04365              -3.80    -3600.00
04366              -3.60    -3600.00
04367              -4.20    -3600.00
04368              -4.40    -3400.00
04369              -3.00    -3400.00
04370              -3.40    -3200.00
04371              -4.20    -3200.00
04372              -3.60    -3000.00
04373              -2.40    -3000.00
04374              -3.00    -2800.00
04375              -4.00    -2800.00
04376              -2.60    -2600.00
04377              -2.20    -2400.00
04378              -3.00    -2400.00
04379              -3.00    -2200.00
04380              -1.80    -2400.00
04381              -2.00    -2000.00
04382              -2.80    -2000.00
04383              -2.40    -2000.00
04384              -1.40    -1800.00
04385              -2.00    -1600.00
04386              -2.60    -1600.00
04387              -1.20    -1600.00
04388              -1.40    -1200.00
04389              -1.80    -1200.00
04390              -1.40    -1200.00
04391              -1.00    -1000.00
04392              -1.00    -1000.00
04393              -1.40     -800.00
04394              -1.40     -600.00
04395              -0.20     -600.00
04396               0.00     -400.00
04397              -1.40     -200.00
04398              -1.00     -200.00
04399               0.40     -200.00
04400              -0.60        0.00
04401              -0.60        0.00
04402               1.20      200.00
04403               0.40      400.00
04404               0.20      400.00
04405               0.20      400.00
04406              -0.20      400.00
04407               1.40      600.00
04408               1.00      800.00
04409               3.00     1000.00
04410              15.00     1200.00
04411               1.40     1200.00
04412             -25.00     1200.00
04413             -20.60     1400.00
04414              25.00     1400.00
04415              24.60     1800.00
04416             -25.00     1400.00
04417              -9.00     2000.00
04418              25.00     2000.00
04419              -6.20     2000.00
04420             -25.00     2000.00
04421              25.00     2000.00
04422              25.00     2400.00
04423             -25.00     2400.00
04424             -25.00     2800.00
04425              25.00     2800.00
04426             -10.20     2400.00
04427             -25.00     3000.00
04428              25.00     2800.00
04429              25.00     2800.00
04430             -25.00     3200.00
04431              25.00     3200.00
04432              25.00     3400.00
04433             -25.00     3200.00
04434             -25.00     3800.00
04435              25.00     3400.00
04436              25.00     3600.00
04437             -25.00     3800.00
04438              10.60     3800.00
04439              25.00     3800.00
04440             -25.00     4000.00
04441             -25.00     4000.00
04442              25.00     4000.00
04443              25.00     4400.00
04444             -25.00     4400.00
04445              17.20     4600.00
04446              25.00     4400.00
04447             -25.00     4600.00
04448             -24.80     4600.00
04449              25.00     4600.00
04450               6.20     4600.00
04451             -25.00     4800.00
04452              25.00     4800.00
04453              25.00     5200.00
04454             -25.00     5200.00
04455              -3.40     5200.00
04456              25.00     5200.00
04457              -4.40     5400.00
04458             -19.40     5400.00
04459              25.00     5400.00
04460              17.20     5600.00
04461             -20.60     5800.00
04462              14.60     5600.00
04463              25.00     5600.00
04464             -11.20     6000.00
04465              -0.60     6000.00
04466              25.00     6000.00
04467               3.80     6000.00
04468              -9.20     6000.00
04469              23.40     6000.00
04470              16.40     6200.00
04471              -8.60     6200.00
04472              12.60     6200.00
04473              23.40     6200.00
04474              -1.20     6200.00
04475               3.40     6400.00
04476              23.40     6200.00
04477               8.60     6400.00
04478              -0.60     6400.00
04479              17.40     6400.00
04480              16.60     6400.00
04481               1.00     6600.00
04482              10.20     6400.00
04483              20.20     6400.00
04484               8.00     6400.00
04485               5.40     6800.00
04486              17.60     6400.00
04487              14.60     6600.00
04488               5.00     6600.00
04489              13.00     6600.00
04490              18.20     6600.00
04491               8.60     6800.00
04492               8.40     6600.00
04493              17.40     6800.00
04494              13.20     6600.00
04495               7.40     6800.00
04496              14.00     6600.00
04497              16.20     6800.00
04498               9.80     6600.00
04499              11.00     6400.00
04500              15.60     6800.00
04501              12.40     6800.00
04502               9.80     6400.00
04503              13.20     6600.00
04504              13.80     6800.00
04505              10.60     6600.00
04506              10.60     6400.00
04507              13.00     6400.00
04508              11.40     6400.00
04509               9.80     6400.00
04510              10.80     6400.00
04511              11.60     6400.00
04512               9.80     6400.00
04513               9.20     6400.00
04514              10.20     6200.00
04515              10.40     6400.00
04516               9.20     6200.00
04517               9.00     6200.00
04518               9.60     6400.00
04519               9.00     6200.00
04520               7.80     6000.00
04521               8.40     6200.00
04522              10.00     6000.00
04523               7.60     6000.00
04524               7.40     6000.00
04525               8.40     5800.00
04526               8.20     5800.00
04527               6.20     6000.00
04528               7.40     5800.00
04529               8.20     5600.00
04530               7.00     5600.00
04531               6.00     5600.00
04532               7.40     5400.00
04533               7.40     5400.00
04534               5.40     5400.00
04535               6.00     5400.00
04536               7.20     5200.00
04537               5.80     5200.00
04538               4.60     5000.00
04539               6.20     5000.00
04540               6.20     4800.00
04541               4.40     4800.00
04542               5.20     4600.00
04543               5.80     4600.00
04544               5.20     4600.00
04545               3.60     4600.00
04546               5.20     4400.00
04547               5.20     4400.00
04548               3.60     4400.00
04549               4.40     4200.00
04550               4.80     4000.00
04551               3.60     4000.00
04552               3.40     4000.00
04553               4.20     3800.00
04554               3.60     3800.00
04555               2.80     3600.00
04556               3.40     3600.00
04557               3.60     3600.00
04558               2.60     3400.00
04559               2.60     3200.00
04560               2.80     3200.00
04561               2.80     3200.00
04562               2.20     3000.00
04563               2.60     2800.00
04564               2.60     2800.00
04565               2.00     2800.00
04566               2.00     2600.00
04567               2.20     2400.00
04568               2.20     2400.00
04569               1.80     2400.00
04570               1.60     2200.00
04571               1.80     2000.00
04572               1.40     2000.00
04573               1.40     2000.00
04574               1.20     1800.00
04575               1.20     1600.00
04576               1.20     1600.00
04577               1.00     1400.00
04578               1.00     1400.00
04579               1.20     1200.00
04580               1.00     1200.00
04581               0.40     1000.00
04582               0.60     1000.00
04583               1.00      800.00
04584               0.60      800.00
04585              -0.20      600.00
04586              -0.20      400.00
04587               0.40      400.00
04588              -0.40      400.00
04589              -0.40        0.00
04590              -0.20        0.00
04591              -0.20        0.00
04592               0.20     -200.00
04593              -0.20     -200.00
04594              -0.40     -400.00
04595               0.40     -400.00
04596              -1.20     -400.00
04597              -1.40     -600.00
04598               0.20     -800.00
04599               0.20     -800.00
04600              10.20    -1000.00
04601              12.20    -1400.00
04602             -25.00    -1600.00
04603             -25.00    -1200.00
04604              25.00    -1400.00
04605              25.00    -1600.00
04606             -25.00    -2000.00
04607             -25.00    -1400.00
04608              25.00    -1800.00
04609              25.00    -2400.00
04610             -25.00    -2000.00
04611              25.00    -2200.00
04612              25.00    -2400.00
04613             -25.00    -2600.00
04614             -25.00    -2200.00
04615              25.00    -2800.00
04616              25.00    -3000.00
04617             -25.00    -2400.00
04618              25.00    -3000.00
04619              25.00    -3000.00
04620             -25.00    -3000.00
04621             -25.00    -3200.00
04622              25.00    -3400.00
04623             -21.80    -3400.00
04624             -25.00    -3400.00
04625              25.00    -3600.00
04626              25.00    -3600.00
04627             -25.00    -3800.00
04628             -25.00    -3800.00
04629              25.00    -4000.00
04630              25.00    -4000.00
04631             -25.00    -4200.00
04632              15.80    -4200.00
04633              25.00    -4400.00
04634             -25.00    -4200.00
04635             -25.00    -4400.00
04636              25.00    -4600.00
04637             -25.00    -4400.00
04638             -25.00    -4800.00
04639              25.00    -5000.00
04640              15.80    -4800.00
04641             -25.00    -5000.00
04642              -1.20    -5000.00
04643              25.00    -5200.00
04644             -25.00    -5000.00
04645             -25.00    -5400.00
04646              25.00    -5200.00
04647               2.60    -5200.00
04648             -25.00    -5600.00
04649               7.80    -5400.00
04650              14.80    -5600.00
04651             -25.00    -5600.00
04652              -7.80    -5800.00
04653              15.40    -5800.00
04654             -20.40    -5800.00
04655             -20.80    -6000.00
04656               9.20    -6000.00
04657              -5.80    -6000.00
04658             -25.00    -6000.00
04659               1.20    -6000.00
04660               5.20    -6000.00
04661             -25.00    -6000.00
04662             -11.40    -6400.00
04663               8.00    -6400.00
04664             -19.00    -6400.00
04665             -21.20    -6400.00
04666               4.40    -6400.00
04667              -7.40    -6400.00
04668             -25.00    -6400.00
04669              -5.40    -6400.00
04670               1.00    -6600.00
04671             -21.80    -6600.00
04672             -15.80    -6600.00
04673               1.20    -6800.00
04674             -13.40    -6800.00
04675             -21.40    -6600.00
04676              -6.80    -6800.00
04677              -5.40    -6800.00
04678             -19.80    -6600.00
04679             -15.20    -6600.00
04680              -3.60    -6800.00
04681             -13.20    -6800.00
04682             -20.40    -6800.00
04683              -8.60    -6800.00
04684              -7.80    -6800.00
04685             -19.60    -6800.00
04686             -14.80    -6800.00
04687              -6.80    -6800.00
04688             -14.20    -6800.00
04689             -18.80    -6800.00
04690             -10.00    -6800.00
04691             -10.00    -6800.00
04692             -17.40    -6600.00
04693             -13.80    -6600.00
04694              -8.60    -6600.00
04695             -13.40    -6600.00
04696             -15.80    -6800.00
04697             -10.80    -6600.00
04698              -9.60    -6600.00
04699             -14.00    -6600.00
04700             -13.20    -6600.00
04701              -9.20    -6600.00
04702             -10.80    -6400.00
04703             -13.40    -6400.00
04704             -10.60    -6600.00
04705              -8.40    -6600.00
04706             -11.40    -6400.00
04707             -11.60    -6400.00
04708              -8.40    -6400.00
04709              -9.20    -6400.00
04710             -11.00    -6200.00
04711              -9.40    -6200.00
04712              -7.60    -6400.00
04713              -9.40    -6200.00
04714             -10.00    -6000.00
04715              -8.20    -6000.00
04716              -7.40    -6000.00
04717              -9.40    -5800.00
04718              -8.60    -5800.00
04719              -6.20    -5800.00
04720              -7.60    -5800.00
04721              -9.20    -5600.00
04722              -7.00    -5600.00
04723              -6.20    -5600.00
04724              -8.40    -5600.00
04725              -7.80    -5400.00
04726              -5.20    -5400.00
04727              -6.00    -5200.00
04728              -8.00    -5200.00
04729              -6.00    -5200.00
04730              -5.00    -5000.00
04731              -6.80    -5000.00
04732              -6.80    -5000.00
04733              -4.60    -4600.00
04734              -5.20    -4600.00
04735              -6.60    -4600.00
04736              -4.60    -4600.00
04737              -4.00    -4400.00
04738              -6.60    -4400.00
04739              -5.20    -4200.00
04740              -3.80    -4400.00
04741              -4.60    -4200.00
04742              -5.80    -4200.00
04743              -4.20    -4000.00
04744              -3.80    -4000.00
04745              -4.40    -3800.00
04746              -4.60    -3600.00
04747              -3.80    -3600.00
04748              -3.60    -3600.00
04749              -4.40    -3600.00
04750              -4.20    -3400.00
04751              -3.00    -3400.00
04752              -3.60    -3400.00
04753              -4.20    -3000.00
04754              -2.80    -3200.00
04755              -2.80    -2800.00
04756              -4.00    -2800.00
04757              -3.40    -2600.00
04758              -2.20    -2600.00
04759              -2.80    -2400.00
04760              -3.00    -2400.00
04761              -2.20    -2400.00
04762              -2.20    -2000.00
04763              -2.80    -2000.00
04764              -2.60    -2000.00
04765              -1.80    -2000.00
04766              -2.20    -1800.00
04767              -2.20    -1600.00
04768              -1.80    -1600.00
04769              -1.40    -1600.00
04770              -2.00    -1200.00
04771              -2.00    -1200.00
04772              -1.40    -1200.00
04773              -1.20    -1000.00
04774              -1.20    -1000.00
04775              -1.40     -800.00
04776              -1.40     -600.00
04777              -0.60     -800.00
04778              -1.00     -400.00
04779              -1.20     -400.00
04780              -0.40     -200.00
04781               0.20        0.00
04782              -0.40        0.00
04783              -0.20        0.00
04784               0.60        0.00
04785               0.80      400.00
04786              -0.40      400.00
04787               0.20      600.00
04788               0.60      400.00
04789               0.60      600.00
04790               1.20      800.00
04791               6.80     1200.00
04792              15.40     1200.00
04793             -11.80     1200.00
04794             -25.00     1200.00
04795              17.80     1400.00
04796              25.00     1600.00
04797             -15.60     1800.00
04798             -25.00     1400.00
04799              25.00     2000.00
04800              25.00     2000.00
04801             -25.00     1600.00
04802             -25.00     2200.00
04803              25.00     2400.00
04804              25.00     2200.00
04805             -25.00     2400.00
04806              25.00     2600.00
04807              25.00     2800.00
04808             -25.00     2600.00
04809             -25.00     3000.00
04810              25.00     3000.00
04811             -13.00     2800.00
04812             -25.00     3400.00
04813              25.00     3000.00
04814              25.00     3200.00
04815             -25.00     3400.00
04816               2.60     3600.00
04817              25.00     3400.00
04818             -23.60     3600.00
04819             -25.00     4000.00
04820              25.00     3600.00
04821              25.00     4000.00
04822             -25.00     4000.00
04823             -11.00     4000.00
04824              25.00     4400.00
04825             -12.20     4400.00
04826             -25.00     4400.00
04827              25.00     4400.00
04828              25.00     4600.00
04829             -25.00     4800.00
04830              12.20     4600.00
04831              25.00     4600.00
04832             -25.00     4800.00
04833             -23.80     4800.00
04834              25.00     5000.00
04835              12.20     5200.00
04836             -25.00     5200.00
04837              21.00     5200.00
04838              25.00     5400.00
04839             -21.80     5400.00
04840              -1.80     5400.00
04841              25.00     5600.00
04842              -2.60     5600.00
04843             -13.80     5600.00
04844              25.00     5600.00
04845              16.20     5800.00
04846             -16.40     5600.00
04847              14.00     6000.00
04848              25.00     6000.00
04849              -7.80     6000.00
04850               1.20     6000.00
04851              25.00     6000.00
04852               5.20     6000.00
04853              -6.00     6200.00
04854              21.40     6200.00
04855              15.40     6200.00
04856              -5.20     6400.00
04857              12.40     6200.00
04858              21.80     6400.00
04859               1.40     6200.00
04860               4.40     6400.00
04861              21.40     6400.00
04862              10.20     6400.00
04863               1.20     6400.00
04864              15.80     6400.00
04865              17.40     6400.00
04866               4.00     6400.00
04867               9.20     6400.00
04868              19.40     6400.00
04869              10.60     6600.00
04870               5.40     6600.00
04871              16.40     6600.00
04872              16.40     6800.00
04873               6.60     6800.00
04874              11.80     6400.00
04875              17.80     6600.00
04876              10.60     6600.00
04877               8.60     6800.00
04878              16.20     6600.00
04879              14.60     6600.00
04880               8.60     6600.00
04881              13.00     6600.00
04882              15.80     6600.00
04883              11.00     6400.00
04884              10.20     6600.00
04885              14.00     6600.00
04886              13.00     6600.00
04887               9.80     6400.00
04888              11.20     6400.00
04889              13.00     6400.00
04890              10.80     6600.00
04891               9.40     6400.00
04892              11.00     6400.00
04893              11.60     6400.00
04894               9.00     6400.00
04895               9.20     6400.00
04896              10.60     6400.00
04897               9.40     6200.00
04898               9.00     6200.00
04899               9.80     6200.00
04900               9.80     6200.00
04901               8.40     6200.00
04902               7.40     6000.00
04903               8.60     6000.00
04904               9.00     6000.00
04905               7.00     6000.00
04906               7.60     6000.00
04907               9.00     6000.00
04908               7.00     5600.00
04909               6.80     5600.00
04910               8.00     5600.00
04911               7.60     5600.00
04912               6.00     5600.00
04913               6.60     5400.00
04914               7.20     5400.00
04915               6.80     5400.00
04916               5.40     5200.00
04917               6.60     5200.00
04918               6.80     5200.00
04919               5.40     5000.00
04920               5.40     5200.00
04921               6.80     4800.00
04922               5.40     4800.00
04923               4.20     4800.00
04924               5.80     4600.00
04925               5.40     4600.00
04926               4.20     4600.00
04927               4.60     4400.00
04928               5.40     4400.00
04929               4.40     4400.00
04930               3.60     4400.00
04931               4.60     4200.00
04932               5.00     4000.00
04933               3.40     4000.00
04934               3.60     3800.00
04935               4.60     3600.00
04936               3.60     3600.00
04937               2.80     3600.00
04938               3.60     3600.00
04939               3.60     3600.00
04940               3.00     3400.00
04941               2.80     3200.00
04942               3.00     3200.00
04943               2.80     3000.00
04944               2.20     3000.00
04945               2.60     2800.00
04946               2.20     2600.00
04947               2.20     2600.00
04948               2.00     2600.00
04949               2.00     2400.00
04950               2.00     2200.00
04951               1.80     2200.00
04952               1.80     2000.00
04953               1.60     2200.00
04954               1.40     2000.00
04955               1.00     1800.00
04956               1.40     1800.00
04957               1.60     1600.00
04958               1.00     1600.00
04959               1.00     1400.00
04960               1.20     1400.00
04961               1.00     1200.00
04962               0.60     1000.00
04963               0.40      800.00
04964               0.80      800.00
04965               1.00      800.00
04966               0.20      600.00
04967              -0.20      400.00
04968               0.20      400.00
04969               0.20      200.00
04970              -0.40      200.00
04971              -0.40        0.00
04972               0.20        0.00
04973               0.60     -200.00
04974              -0.40     -200.00
04975              -0.60     -200.00
04976               1.20     -400.00
04977              -1.20     -400.00
04978              -1.80     -600.00
04979               0.20     -800.00
04980              -1.00     -800.00
04981               1.00     -800.00
04982              18.60    -1200.00
04983              -3.80    -1400.00
04984             -25.00    -1600.00
04985               1.40    -1000.00
04986              25.00    -1600.00
04987              -2.80    -1800.00
04988             -25.00    -1600.00
04989              25.00    -1800.00
04990              25.00    -2000.00
04991             -25.00    -2400.00
04992             -25.00    -1800.00
04993              25.00    -2400.00
04994              25.00    -2600.00
04995             -25.00    -2200.00
04996             -25.00    -2600.00
04997              25.00    -2600.00
04998               7.00    -3000.00
04999             -25.00    -2600.00
05000              25.00    -3200.00
