Unit:(mV)
                     CH1         CH2
Frequency              ? 262.193 kHz
00001               0.40     3200.00
00002               0.00     2800.00
00003              -0.40     2600.00
00004               0.00     2400.00
00005               0.40     2200.00
00006              -0.80     2000.00
00007              -0.40     2000.00
00008               0.40     1600.00
00009              -0.40     1400.00
00010              -0.40     1400.00
00011              -0.80     1000.00
00012              -0.40      800.00
00013              -0.40      600.00
00014              -0.40      400.00
00015               0.00      200.00
00016               0.00        0.00
00017              -0.40     -200.00
00018               1.20     -400.00
00019               1.20     -600.00
00020              -1.60     -800.00
00021              -0.80    -1000.00
00022               0.80    -1200.00
00023              -0.80    -1400.00
00024              -0.40    -1800.00
00025              13.20    -1800.00
00026              24.40    -2400.00
00027             -37.60    -2600.00
00028             -27.60    -2800.00
00029               6.00    -2800.00
00030              26.40    -2800.00
00031              50.00    -3400.00
00032             -50.00    -3200.00
00033             -18.80    -3200.00
00034              50.00    -4000.00
00035             -50.00    -4200.00
00036             -50.00    -4000.00
00037              50.00    -4800.00
00038             -45.60    -4400.00
00039             -50.00    -4800.00
00040              50.00    -5200.00
00041             -15.60    -5000.00
00042             -39.20    -5600.00
00043              13.60    -5600.00
00044              -3.20    -5800.00
00045              37.20    -6200.00
00046             -50.00    -6000.00
00047               4.80    -6400.00
00048              50.00    -6600.00
00049             -50.00    -6600.00
00050              -9.60    -7200.00
00051              32.40    -7000.00
00052               1.20    -7400.00
00053             -28.40    -7600.00
00054              -5.60    -7600.00
00055              45.60    -8000.00
00056             -34.00    -8200.00
00057             -16.40    -8200.00
00058              35.20    -8400.00
00059             -14.80    -8600.00
00060             -19.60    -9000.00
00061              11.60    -8800.00
00062              16.40    -9200.00
00063             -26.80    -9200.00
00064               2.80    -9400.00
00065              20.00    -9600.00
00066             -22.80    -9600.00
00067               1.20   -10000.00
00068               5.20   -10000.00
00069              -3.60   -10000.00
00070              -2.80   -10200.00
00071              -2.00   -10600.00
00072               4.40   -10400.00
00073              -7.20   -10600.00
00074              -1.60   -10800.00
00075               3.20   -10800.00
00076              -4.40   -11000.00
00077              -4.80   -11200.00
00078               5.60   -11200.00
00079              -1.20   -11400.00
00080              -8.80   -11400.00
00081               4.40   -11600.00
00082               1.20   -11600.00
00083              -9.20   -11800.00
00084               0.40   -12000.00
00085               6.00   -12200.00
00086              -7.60   -12000.00
00087              -2.80   -12200.00
00088               5.60   -12200.00
00089              -4.80   -12400.00
00090              -6.00   -12400.00
00091               2.80   -12400.00
00092               1.20   -12400.00
00093              -6.00   -12600.00
00094              -0.40   -12600.00
00095               2.40   -12800.00
00096              -4.00   -12800.00
00097              -3.60   -12800.00
00098               1.20   -13000.00
00099               0.40   -13000.00
00100              -4.80   -13000.00
00101              -0.40   -13000.00
00102               0.80   -13200.00
00103              -3.60   -13000.00
00104              -2.40   -13200.00
00105               0.80   -13000.00
00106              -0.80   -13000.00
00107              -2.80   -13200.00
00108              -0.40   -13200.00
00109              -0.40   -13200.00
00110              -2.40   -13200.00
00111              -1.20   -13200.00
00112              -0.40   -13200.00
00113              -1.20   -13000.00
00114              -2.00   -13000.00
00115              -2.00   -13200.00
00116              -0.80   -13000.00
00117              -2.00   -13200.00
00118              -2.40   -13000.00
00119              -0.40   -13000.00
00120              -1.20   -13200.00
00121              -2.40   -13000.00
00122              -1.20   -13000.00
00123              -1.20   -12800.00
00124              -2.40   -12800.00
00125              -1.20   -12800.00
00126              -0.80   -12800.00
00127              -2.00   -12800.00
00128              -1.20   -12800.00
00129              -1.20   -12600.00
00130              -2.00   -12400.00
00131              -1.20   -12400.00
00132              -1.20   -12400.00
00133              -2.40   -12400.00
00134              -1.60   -12200.00
00135              -1.20   -12200.00
00136              -2.00   -12000.00
00137              -2.00   -12000.00
00138              -0.80   -12000.00
00139              -1.60   -11800.00
00140              -2.40   -11600.00
00141              -1.20   -11600.00
00142              -0.80   -11400.00
00143              -1.60   -11200.00
00144              -1.20   -11000.00
00145              -0.80   -11200.00
00146              -1.20   -11000.00
00147              -2.00   -10800.00
00148              -1.20   -10600.00
00149              -0.80   -10600.00
00150              -2.00   -10400.00
00151              -1.60   -10400.00
00152               0.40   -10000.00
00153              -1.20   -10000.00
00154              -2.40    -9800.00
00155              -0.40    -9800.00
00156              -0.80    -9600.00
00157              -2.00    -9600.00
00158              -0.80    -9200.00
00159               0.00    -9200.00
00160              -1.20    -9000.00
00161              -1.20    -9000.00
00162              -0.80    -8800.00
00163              -0.80    -8600.00
00164              -2.00    -8400.00
00165              -0.40    -8200.00
00166               0.40    -8200.00
00167              -2.00    -8000.00
00168              -1.20    -7600.00
00169               0.40    -7400.00
00170              -1.20    -7400.00
00171              -1.20    -7200.00
00172              -0.80    -7000.00
00173              -0.40    -6800.00
00174               0.40    -6600.00
00175              -1.20    -6400.00
00176              -1.20    -6400.00
00177              -0.40    -6000.00
00178              -2.00    -5800.00
00179              -1.20    -5800.00
00180               0.40    -5600.00
00181              -1.20    -5400.00
00182              -1.20    -5000.00
00183              -0.80    -5000.00
00184              -0.80    -4600.00
00185              -1.20    -4400.00
00186              -1.20    -4200.00
00187              -0.40    -4200.00
00188              -0.40    -4000.00
00189              -2.00    -3600.00
00190              -0.40    -3600.00
00191              -0.40    -3200.00
00192              -2.40    -3000.00
00193              -0.40    -2800.00
00194               0.80    -2800.00
00195              -1.60    -2400.00
00196              -1.20    -2000.00
00197              -0.40    -2000.00
00198              -2.00    -1800.00
00199              -0.40    -1600.00
00200               0.40    -1400.00
00201              -1.20    -1000.00
00202              -0.80    -1000.00
00203              -0.40     -800.00
00204              -0.40     -400.00
00205              -0.80     -200.00
00206               0.00     -200.00
00207              -0.80        0.00
00208               0.80      400.00
00209               2.80      600.00
00210               0.40      600.00
00211              -1.20     1200.00
00212               0.80     1000.00
00213               0.80     1400.00
00214              -1.20     1800.00
00215               2.00     1800.00
00216               8.40     2200.00
00217              19.60     2400.00
00218             -14.80     2600.00
00219             -34.00     2800.00
00220               3.60     2800.00
00221               0.80     3000.00
00222              30.40     3400.00
00223              14.00     3600.00
00224             -50.00     3600.00
00225              50.00     4000.00
00226              50.00     4000.00
00227             -50.00     4200.00
00228              11.60     4600.00
00229              50.00     4400.00
00230             -50.00     4800.00
00231              -6.00     5400.00
00232              50.00     5200.00
00233             -24.80     5600.00
00234             -13.20     5800.00
00235               8.40     6000.00
00236              19.60     6200.00
00237             -13.60     6400.00
00238             -22.00     6600.00
00239              37.60     6800.00
00240               4.40     7000.00
00241             -31.20     7200.00
00242               6.40     7200.00
00243              22.00     7400.00
00244              -7.60     7800.00
00245             -23.20     8000.00
00246              20.00     8200.00
00247              14.00     8200.00
00248             -26.80     8400.00
00249               7.20     8400.00
00250              19.60     8600.00
00251             -19.60     8800.00
00252              -5.20     9000.00
00253              24.40     9200.00
00254              -8.80     9400.00
00255             -14.00     9600.00
00256              19.60     9600.00
00257              -0.80     9600.00
00258             -12.00    10000.00
00259               5.60    10200.00
00260               5.20    10400.00
00261              -2.40    10200.00
00262              -1.20    10400.00
00263               4.00    10600.00
00264               2.00    10800.00
00265              -4.00    10800.00
00266               1.20    11000.00
00267               5.20    11200.00
00268              -3.60    11200.00
00269              -0.80    11200.00
00270               7.20    11600.00
00271              -2.00    11600.00
00272              -4.00    11800.00
00273               6.40    11800.00
00274               0.80    11800.00
00275              -4.80    12000.00
00276               4.40    12200.00
00277               4.80    12000.00
00278              -4.00    12400.00
00279               1.20    12400.00
00280               5.20    12400.00
00281              -2.00    12400.00
00282              -1.20    12600.00
00283               6.00    12600.00
00284               0.80    12800.00
00285              -2.00    12800.00
00286               2.80    12800.00
00287               2.40    12800.00
00288              -1.20    13200.00
00289               0.80    13000.00
00290               4.00    13200.00
00291               0.40    13000.00
00292              -0.40    13200.00
00293               3.60    13200.00
00294               1.20    13200.00
00295              -1.20    13200.00
00296               1.20    13200.00
00297               2.40    13200.00
00298               0.40    13200.00
00299               1.20    13200.00
00300               3.60    13400.00
00301               0.80    13200.00
00302               0.40    13200.00
00303               2.40    13200.00
00304               0.80    13200.00
00305               0.80    13200.00
00306              -0.40    13200.00
00307               0.40    13200.00
00308               2.00    13200.00
00309              -0.40    13000.00
00310               0.80    13200.00
00311               4.40    13200.00
00312               0.80    13000.00
00313               0.40    13000.00
00314               2.80    13000.00
00315              -0.80    12800.00
00316              -1.60    12800.00
00317               2.00    12800.00
00318               0.80    12600.00
00319               0.40    12800.00
00320               2.80    12600.00
00321               2.80    12600.00
00322               0.80    12400.00
00323               0.80    12600.00
00324              -0.80    12200.00
00325              -1.20    12400.00
00326               0.80    12200.00
00327               0.80    12000.00
00328               1.20    12000.00
00329               2.40    12000.00
00330               2.00    11800.00
00331               0.40    11600.00
00332              -0.40    11800.00
00333              -0.40    11400.00
00334              -0.80    11400.00
00335               0.40    11200.00
00336               2.00    11000.00
00337               2.40    11000.00
00338               2.00    11000.00
00339               1.20    10800.00
00340               0.40    10600.00
00341              -0.40    10600.00
00342              -1.20    10400.00
00343               0.80    10200.00
00344               2.00    10000.00
00345               1.20    10000.00
00346               1.60     9600.00
00347               2.00     9600.00
00348              -0.80     9600.00
00349              -0.80     9200.00
00350               0.40     9200.00
00351               0.40     9000.00
00352               0.80     8800.00
00353               1.20     8800.00
00354               2.00     8600.00
00355               0.40     8400.00
00356               0.80     8400.00
00357               0.40     8200.00
00358               0.40     8000.00
00359              -0.40     7800.00
00360               0.40     7600.00
00361               1.20     7400.00
00362               0.80     7200.00
00363               0.80     6800.00
00364               0.80     7000.00
00365               0.40     6800.00
00366              -0.40     6400.00
00367               0.00     6200.00
00368               0.40     6200.00
00369               0.40     6000.00
00370               0.40     5800.00
00371               0.80     5600.00
00372               0.80     5400.00
00373               0.00     5000.00
00374               0.80     4800.00
00375              -0.40     4600.00
00376              -0.40     4400.00
00377               0.40     4400.00
00378              -0.40     4000.00
00379              -0.80     3800.00
00380               0.40     3600.00
00381               0.40     3600.00
00382              -0.40     3200.00
00383               0.40     3200.00
00384               0.40     2800.00
00385              -0.80     2400.00
00386              -0.40     2400.00
00387              -0.40     2400.00
00388              -0.80     2000.00
00389               0.40     1800.00
00390               0.40     1600.00
00391               0.00     1400.00
00392              -0.40     1000.00
00393              -0.40      800.00
00394              -0.80      800.00
00395              -0.80      400.00
00396              -0.80      200.00
00397               0.00        0.00
00398              -0.40     -200.00
00399               0.80     -400.00
00400               2.00     -400.00
00401              -1.20     -800.00
00402              -1.20    -1000.00
00403               0.40    -1200.00
00404               0.00    -1400.00
00405              -1.20    -1600.00
00406               4.80    -1800.00
00407              31.20    -2200.00
00408             -14.00    -2600.00
00409             -46.00    -2800.00
00410               0.40    -2800.00
00411               4.40    -2600.00
00412              50.00    -3200.00
00413             -24.80    -3600.00
00414             -50.00    -3200.00
00415              50.00    -3800.00
00416              43.60    -4200.00
00417             -50.00    -4000.00
00418              50.00    -4400.00
00419              50.00    -4600.00
00420             -50.00    -4600.00
00421              50.00    -5000.00
00422              50.00    -5000.00
00423             -50.00    -5200.00
00424              13.60    -5600.00
00425              -8.40    -5600.00
00426              31.20    -6000.00
00427             -17.20    -6200.00
00428             -48.40    -6200.00
00429              50.00    -6800.00
00430             -14.00    -6600.00
00431             -47.20    -7000.00
00432              31.60    -7200.00
00433              13.60    -7200.00
00434             -16.80    -7400.00
00435             -27.60    -7600.00
00436              38.80    -8000.00
00437               2.80    -8200.00
00438             -43.60    -8200.00
00439              30.00    -8400.00
00440               6.80    -8400.00
00441             -24.40    -8800.00
00442              -0.40    -9000.00
00443              20.40    -9000.00
00444             -12.00    -9400.00
00445             -18.00    -9200.00
00446              26.40    -9600.00
00447             -11.60    -9600.00
00448             -12.40   -10000.00
00449              10.40   -10000.00
00450              -2.40   -10000.00
00451              -2.80   -10400.00
00452              -3.60   -10400.00
00453               5.20   -10400.00
00454              -4.00   -10600.00
00455              -6.40   -10800.00
00456               4.40   -10800.00
00457              -1.60   -11000.00
00458              -7.20   -11000.00
00459               2.40   -11000.00
00460               4.00   -11400.00
00461              -8.80   -11400.00
00462              -1.20   -11600.00
00463               5.20   -11800.00
00464              -6.40   -12000.00
00465              -6.00   -12000.00
00466               7.20   -12000.00
00467              -1.60   -12000.00
00468              -8.40   -12000.00
00469               4.00   -12400.00
00470               0.80   -12200.00
00471              -7.60   -12400.00
00472              -1.20   -12400.00
00473               4.40   -12400.00
00474              -4.40   -12600.00
00475              -4.40   -12800.00
00476               2.40   -12800.00
00477              -1.20   -12800.00
00478              -5.20   -12800.00
00479              -0.80   -12800.00
00480               2.80   -12800.00
00481              -4.00   -13200.00
00482              -2.40   -12800.00
00483               2.80   -13000.00
00484              -2.40   -13000.00
00485              -4.40   -13200.00
00486               0.80   -13000.00
00487               0.40   -13200.00
00488              -3.20   -13200.00
00489              -1.20   -13200.00
00490               0.40   -13200.00
00491              -2.80   -13200.00
00492              -2.00   -13200.00
00493               0.00   -13200.00
00494              -1.20   -13200.00
00495              -1.20   -13200.00
00496              -1.20   -13000.00
00497              -1.20   -13200.00
00498              -1.60   -13200.00
00499              -1.60   -13000.00
00500              -1.20   -12800.00
00501              -1.20   -13000.00
00502              -0.80   -13200.00
00503              -2.00   -13000.00
00504              -2.00   -13000.00
00505              -0.80   -13000.00
00506              -2.00   -12800.00
00507              -2.40   -12800.00
00508              -0.80   -12800.00
00509              -1.20   -12800.00
00510              -2.00   -12600.00
00511              -2.00   -12600.00
00512              -1.20   -12400.00
00513              -1.20   -12400.00
00514              -1.60   -12200.00
00515              -1.20   -12200.00
00516              -0.80   -12200.00
00517              -2.00   -12200.00
00518              -2.40   -12000.00
00519              -1.20   -12000.00
00520              -0.80   -11600.00
00521              -2.40   -11600.00
00522              -1.20   -11600.00
00523              -1.20   -11600.00
00524              -1.60   -11400.00
00525              -2.40   -11000.00
00526              -1.20   -11000.00
00527              -1.20   -11000.00
00528              -2.40   -11000.00
00529              -1.20   -10800.00
00530              -0.80   -10600.00
00531              -2.00   -10400.00
00532              -2.00   -10400.00
00533              -0.80   -10200.00
00534              -0.80   -10000.00
00535              -1.20   -10000.00
00536              -1.20   -10000.00
00537              -0.80    -9600.00
00538              -2.00    -9400.00
00539              -1.20    -9400.00
00540              -0.80    -9200.00
00541              -1.20    -9000.00
00542              -1.20    -9000.00
00543              -0.80    -8800.00
00544              -0.80    -8600.00
00545              -1.20    -8400.00
00546              -1.20    -8400.00
00547              -0.40    -8200.00
00548              -1.20    -8000.00
00549              -1.20    -7600.00
00550              -0.80    -7600.00
00551              -1.60    -7600.00
00552              -1.20    -7200.00
00553              -0.40    -7200.00
00554              -0.80    -6800.00
00555              -0.40    -6600.00
00556              -1.20    -6400.00
00557              -1.20    -6400.00
00558              -0.40    -6200.00
00559              -0.80    -6000.00
00560              -1.20    -5800.00
00561               0.00    -5600.00
00562              -0.40    -5400.00
00563              -1.20    -5200.00
00564              -0.80    -5000.00
00565              -0.40    -4800.00
00566              -1.20    -4600.00
00567              -0.80    -4400.00
00568               0.00    -4200.00
00569              -0.80    -4000.00
00570              -1.20    -3800.00
00571              -0.40    -3600.00
00572              -0.40    -3200.00
00573              -1.20    -3000.00
00574              -0.80    -2800.00
00575              -0.40    -2600.00
00576              -0.80    -2400.00
00577              -0.40    -2400.00
00578              -0.80    -2000.00
00579              -1.20    -1800.00
00580              -0.40    -1800.00
00581              -0.80    -1400.00
00582              -0.80    -1400.00
00583              -0.40    -1200.00
00584              -0.80     -800.00
00585              -0.80     -600.00
00586              -0.40     -400.00
00587              -0.40     -200.00
00588              -0.80        0.00
00589               0.40      400.00
00590               1.20      600.00
00591               0.80      600.00
00592              -1.20     1000.00
00593               0.40     1200.00
00594               0.80     1400.00
00595              -0.40     1600.00
00596              -0.40     1800.00
00597               4.40     2000.00
00598              17.20     2200.00
00599               4.40     2800.00
00600             -35.60     2800.00
00601             -10.00     2800.00
00602               5.60     2800.00
00603               6.80     3200.00
00604              42.80     3600.00
00605             -50.00     3400.00
00606             -19.60     4000.00
00607              50.00     4000.00
00608             -50.00     4000.00
00609             -50.00     4600.00
00610              50.00     4600.00
00611             -17.60     4800.00
00612             -50.00     5400.00
00613              50.00     5200.00
00614               1.20     5600.00
00615             -25.20     5800.00
00616               3.60     6000.00
00617              16.80     6200.00
00618               5.20     6200.00
00619             -35.60     6800.00
00620              17.20     6800.00
00621              30.80     6800.00
00622             -29.60     7000.00
00623             -10.80     7200.00
00624              23.20     7400.00
00625               8.40     7800.00
00626             -24.40     7800.00
00627               1.60     8000.00
00628              29.20     8200.00
00629             -18.00     8400.00
00630             -12.00     8400.00
00631              25.20     8600.00
00632              -5.60     8800.00
00633             -20.00     9200.00
00634              19.60     9200.00
00635               8.40     9400.00
00636             -20.80     9400.00
00637              10.40     9400.00
00638              12.00     9800.00
00639             -12.40    10000.00
00640              -0.40    10000.00
00641               7.20    10200.00
00642              -0.80    10400.00
00643              -2.80    10200.00
00644               2.00    10600.00
00645               4.00    10800.00
00646              -1.20    10800.00
00647              -1.60    11000.00
00648               5.20    11000.00
00649               0.40    11200.00
00650              -4.40    11200.00
00651               5.60    11200.00
00652               2.80    11600.00
00653              -5.60    11600.00
00654               2.80    11800.00
00655               5.20    12000.00
00656              -4.40    12000.00
00657               0.80    12000.00
00658               6.00    12200.00
00659              -2.40    12200.00
00660              -1.60    12400.00
00661               5.20    12600.00
00662              -0.80    12400.00
00663              -2.00    12600.00
00664               3.60    12600.00
00665               2.40    12800.00
00666              -0.80    12800.00
00667               0.80    12800.00
00668               2.40    12800.00
00669               0.40    13000.00
00670              -0.80    12800.00
00671               2.40    13200.00
00672               2.40    13000.00
00673              -0.80    13000.00
00674               1.20    13200.00
00675               2.40    13200.00
00676              -1.20    13200.00
00677               0.80    13200.00
00678               2.80    13200.00
00679               0.40    13200.00
00680               0.40    13200.00
00681               2.40    13200.00
00682               0.80    13200.00
00683               0.00    13200.00
00684               0.80    13200.00
00685               2.00    13200.00
00686               1.20    13200.00
00687               0.40    13200.00
00688               1.20    13200.00
00689               0.80    13200.00
00690               0.80    13000.00
00691               1.20    13200.00
00692               1.20    13000.00
00693               0.80    13000.00
00694               2.00    13200.00
00695               0.80    13000.00
00696               0.80    12800.00
00697               2.00    12800.00
00698               0.80    12800.00
00699               0.80    12800.00
00700               2.00    12600.00
00701               0.40    12800.00
00702              -0.40    12600.00
00703               0.80    12600.00
00704               0.40    12400.00
00705               0.80    12400.00
00706               1.20    12200.00
00707               1.60    12200.00
00708              -0.40    12200.00
00709               0.80    12000.00
00710               0.80    11800.00
00711               0.40    12000.00
00712               0.40    11600.00
00713               1.20    11600.00
00714               0.40    11600.00
00715               0.80    11200.00
00716               0.80    11200.00
00717               0.40    11200.00
00718               0.80    11000.00
00719               1.20    10800.00
00720               0.40    10800.00
00721               0.40    10800.00
00722               0.80    10600.00
00723               0.80    10400.00
00724               0.40    10200.00
00725               0.40    10000.00
00726               0.80    10000.00
00727               0.80    10000.00
00728               0.40     9800.00
00729               0.40     9600.00
00730               1.20     9400.00
00731               0.40     9200.00
00732               0.40     9000.00
00733               1.20     8800.00
00734              -0.40     8800.00
00735              -0.40     8600.00
00736               0.80     8400.00
00737               0.40     8200.00
00738               0.40     8000.00
00739               0.80     8000.00
00740               0.80     7800.00
00741               0.40     7600.00
00742               0.80     7400.00
00743               0.80     7200.00
00744               0.40     7000.00
00745              -0.40     7000.00
00746               1.20     6800.00
00747               1.20     6800.00
00748               0.40     6400.00
00749               0.40     6200.00
00750               0.40     6000.00
00751              -0.40     5600.00
00752               0.40     5600.00
00753               0.40     5400.00
00754               0.80     5400.00
00755              -0.40     4800.00
00756              -0.40     4800.00
00757               0.80     4400.00
00758              -0.40     4400.00
00759              -0.40     4000.00
00760               0.80     4000.00
00761               0.40     3600.00
00762              -0.40     3400.00
00763               0.80     3200.00
00764               0.40     3000.00
00765              -0.80     2800.00
00766               0.00     2800.00
00767               0.00     2400.00
00768              -0.80     2200.00
00769               0.00     2200.00
00770               0.00     1800.00
00771              -0.40     1600.00
00772               0.40     1400.00
00773               0.40     1200.00
00774              -0.40     1000.00
00775              -0.80      800.00
00776              -0.80      400.00
00777              -0.40      400.00
00778              -0.40        0.00
00779              -0.40        0.00
00780               0.80     -200.00
00781               1.20     -600.00
00782              -0.40     -800.00
00783              -1.20    -1000.00
00784              -0.40    -1200.00
00785              -0.40    -1600.00
00786              -1.20    -1600.00
00787               1.20    -1800.00
00788              20.40    -1800.00
00789              11.60    -2400.00
00790             -46.80    -2800.00
00791             -15.60    -2800.00
00792               4.00    -2800.00
00793              42.00    -2800.00
00794              38.00    -3600.00
00795             -50.00    -3400.00
00796              43.60    -3400.00
00797              50.00    -4200.00
00798             -50.00    -4000.00
00799             -26.40    -4200.00
00800              50.00    -4600.00
00801             -50.00    -4400.00
00802             -43.20    -4800.00
00803              50.00    -5200.00
00804             -48.40    -5200.00
00805             -15.60    -5600.00
00806               5.20    -5800.00
00807               8.00    -5800.00
00808              26.00    -6200.00
00809             -50.00    -6000.00
00810              37.20    -6600.00
00811              42.40    -6600.00
00812             -50.00    -6800.00
00813              10.00    -7200.00
00814              27.60    -7200.00
00815              -5.20    -7400.00
00816             -32.40    -7800.00
00817              12.40    -7600.00
00818              37.20    -8200.00
00819             -45.60    -8000.00
00820               4.00    -8400.00
00821              29.20    -8400.00
00822             -22.00    -8600.00
00823             -13.20    -8800.00
00824              17.20    -8800.00
00825               7.60    -9200.00
00826             -28.00    -9200.00
00827              15.60    -9400.00
00828               9.20    -9600.00
00829             -22.80    -9800.00
00830               7.60    -9800.00
00831               2.40   -10000.00
00832              -4.00   -10200.00
00833              -4.40   -10000.00
00834               2.00   -10600.00
00835               2.40   -10400.00
00836              -8.80   -10600.00
00837               2.00   -10800.00
00838               2.80   -10800.00
00839              -6.80   -11200.00
00840              -2.80   -11000.00
00841               6.80   -11400.00
00842              -5.20   -11400.00
00843              -7.20   -11400.00
00844               6.00   -11600.00
00845              -2.00   -11800.00
00846              -8.80   -12000.00
00847               3.60   -11800.00
00848               3.60   -12000.00
00849              -8.80   -12200.00
00850               0.40   -12000.00
00851               4.00   -12200.00
00852              -6.00   -12400.00
00853              -4.40   -12400.00
00854               4.40   -12400.00
00855              -0.80   -12400.00
00856              -6.80   -12600.00
00857               1.60   -12800.00
00858               0.80   -12800.00
00859              -4.40   -12800.00
00860              -3.20   -12800.00
00861               2.40   -12800.00
00862              -1.20   -13000.00
00863              -5.20   -13000.00
00864               1.60   -13000.00
00865              -0.40   -13000.00
00866              -5.20   -13000.00
00867              -1.20   -13000.00
00868               1.20   -13200.00
00869              -2.00   -13000.00
00870              -3.60   -13200.00
00871               0.40   -13000.00
00872              -0.80   -13200.00
00873              -4.00   -13200.00
00874              -0.40   -13000.00
00875              -0.40   -13200.00
00876              -2.40   -13200.00
00877              -1.20   -13000.00
00878              -2.00   -13200.00
00879              -1.20   -13200.00
00880              -2.00   -13200.00
00881              -1.20   -13200.00
00882              -1.20   -13000.00
00883              -1.20   -13000.00
00884              -1.20   -13000.00
00885              -1.20   -13000.00
00886              -2.00   -13000.00
00887              -2.40   -12800.00
00888              -0.80   -12800.00
00889              -0.40   -12800.00
00890              -2.40   -12800.00
00891              -1.20   -12800.00
00892              -1.20   -12600.00
00893              -3.20   -12400.00
00894              -0.80   -12400.00
00895              -0.80   -12400.00
00896              -2.40   -12400.00
00897              -1.20   -12400.00
00898              -0.40   -12200.00
00899              -2.40   -12000.00
00900              -2.00   -12000.00
00901              -0.40   -11800.00
00902              -1.20   -11600.00
00903              -2.40   -11600.00
00904              -0.80   -11600.00
00905              -0.80   -11400.00
00906              -2.40   -11400.00
00907              -1.20   -11000.00
00908              -0.40   -11000.00
00909              -2.00   -11200.00
00910              -2.00   -10800.00
00911              -0.80   -10800.00
00912              -2.00   -10600.00
00913              -2.00   -10400.00
00914              -0.40   -10200.00
00915              -1.20   -10000.00
00916              -2.40   -10000.00
00917              -1.20    -9800.00
00918              -0.80    -9800.00
00919              -2.40    -9600.00
00920              -2.00    -9400.00
00921              -0.40    -9200.00
00922              -1.60    -9000.00
00923              -2.40    -9000.00
00924              -0.40    -8800.00
00925              -0.80    -8800.00
00926              -2.40    -8600.00
00927              -0.80    -8200.00
00928              -0.40    -8200.00
00929              -1.20    -8000.00
00930              -1.60    -8000.00
00931               0.00    -7600.00
00932              -2.00    -7400.00
00933              -1.20    -7200.00
00934              -0.40    -7000.00
00935              -0.80    -6800.00
00936              -1.60    -6800.00
00937              -0.40    -6800.00
00938              -1.20    -6400.00
00939              -1.20    -6200.00
00940              -0.40    -6000.00
00941              -0.80    -5800.00
00942              -1.20    -5600.00
00943               0.00    -5600.00
00944               0.00    -5200.00
00945              -2.00    -4800.00
00946              -0.80    -4600.00
00947               0.40    -4600.00
00948              -1.20    -4400.00
00949              -0.80    -4200.00
00950               0.00    -4000.00
00951              -0.80    -3800.00
00952              -0.80    -3600.00
00953              -0.40    -3200.00
00954              -0.80    -3200.00
00955               0.00    -3000.00
00956              -0.40    -2800.00
00957              -0.40    -2600.00
00958              -0.80    -2400.00
00959              -0.80    -2200.00
00960              -0.40    -2000.00
00961              -0.80    -1800.00
00962              -0.80    -1600.00
00963               0.40    -1200.00
00964              -0.40    -1000.00
00965              -0.80    -1000.00
00966              -0.80     -800.00
00967              -0.40     -400.00
00968              -0.80     -200.00
00969              -0.40        0.00
00970               0.00        0.00
00971               1.20      400.00
00972               2.00      600.00
00973              -1.20      600.00
00974              -0.80      800.00
00975               0.80     1200.00
00976               0.40     1400.00
00977              -0.40     1400.00
00978               2.40     1800.00
00979              11.60     2200.00
00980              18.40     2400.00
00981             -24.80     2800.00
00982             -29.20     2800.00
00983               7.60     2800.00
00984              -0.80     3000.00
00985              40.80     3400.00
00986              -9.20     3600.00
00987             -50.00     3800.00
00988              50.00     4000.00
00989              38.40     4000.00
00990             -50.00     4400.00
00991              50.00     4600.00
00992              50.00     4600.00
00993             -50.00     5000.00
00994              24.80     5400.00
00995              36.40     5400.00
00996             -31.20     5600.00
00997              -6.00     5800.00
00998              10.00     6000.00
00999              16.80     6200.00
01000             -24.80     6400.00
01001              -8.80     6400.00
01002              42.00     6800.00
01003             -10.40     7000.00
01004             -26.00     7200.00
01005              14.80     7200.00
01006              19.60     7600.00
01007             -16.00     7600.00
01008             -16.40     7800.00
01009              28.00     8200.00
01010               2.00     8200.00
01011             -24.80     8400.00
01012              17.20     8400.00
01013              11.20     8800.00
01014             -22.40     8800.00
01015               5.20     9200.00
01016              21.20     9200.00
01017             -15.60     9600.00
01018              -5.60     9600.00
01019              18.80     9600.00
01020              -6.00     9800.00
01021              -8.00    10000.00
01022               8.40    10000.00
01023               3.20    10200.00
01024              -2.80    10400.00
01025               0.00    10400.00
01026               5.20    10400.00
01027               0.80    10800.00
01028              -3.20    10800.00
01029               2.80    11000.00
01030               4.00    11000.00
01031              -4.40    11200.00
01032               0.80    11200.00
01033               6.80    11600.00
01034              -3.60    11400.00
01035              -2.00    11800.00
01036               6.80    11800.00
01037              -1.20    12000.00
01038              -2.80    12000.00
01039               6.00    12000.00
01040               1.20    12000.00
01041              -3.60    12400.00
01042               3.60    12400.00
01043               2.40    12400.00
01044              -2.80    12400.00
01045               1.20    12600.00
01046               3.60    12600.00
01047              -0.80    12600.00
01048              -0.40    12800.00
01049               2.40    12800.00
01050               0.80    12800.00
01051              -1.20    13000.00
01052               1.20    13000.00
01053               2.80    13000.00
01054              -0.40    13000.00
01055               0.40    12800.00
01056               2.80    13200.00
01057               0.40    13200.00
01058              -0.40    13200.00
01059               2.00    13200.00
01060               1.60    13000.00
01061               0.40    13200.00
01062               0.80    13200.00
01063               2.00    13200.00
01064               0.40    13200.00
01065               0.40    13200.00
01066               2.00    13200.00
01067               1.20    13200.00
01068               0.80    13200.00
01069               0.80    13200.00
01070               1.20    13200.00
01071               1.20    13200.00
01072               1.20    13200.00
01073               0.80    13000.00
01074               2.00    13200.00
01075               1.20    12800.00
01076               0.40    12800.00
01077               2.00    12800.00
01078               0.80    12800.00
01079               0.40    12800.00
01080               2.00    12800.00
01081               2.00    12800.00
01082               0.40    12800.00
01083               1.20    12600.00
01084               1.20    12600.00
01085               1.20    12400.00
01086               1.20    12400.00
01087               0.80    12400.00
01088               0.80    12400.00
01089               1.20    12200.00
01090               0.00    12000.00
01091               0.80    12000.00
01092               1.20    12000.00
01093               0.40    11600.00
01094               0.80    11800.00
01095               0.80    11600.00
01096               0.80    11400.00
01097               0.80    11200.00
01098               0.40    11200.00
01099               0.80    11000.00
01100               0.80    11000.00
01101               0.40    10800.00
01102               0.40    10800.00
01103               0.80    10600.00
01104               0.80    10400.00
01105               0.40    10200.00
01106               0.80    10000.00
01107               0.80    10000.00
01108              -0.40    10000.00
01109               0.80     9600.00
01110               0.80     9600.00
01111               0.40     9200.00
01112               0.80     9200.00
01113               0.80     9200.00
01114              -0.40     9000.00
01115               0.40     9000.00
01116               0.40     8600.00
01117               0.40     8600.00
01118               0.40     8400.00
01119               0.80     8200.00
01120               0.80     8000.00
01121               0.40     7800.00
01122               0.80     7600.00
01123               0.40     7600.00
01124               0.40     7200.00
01125               0.40     7000.00
01126               0.80     6800.00
01127               0.40     6800.00
01128               0.00     6600.00
01129               0.40     6400.00
01130               0.80     6200.00
01131               0.40     6000.00
01132               0.40     6000.00
01133               0.80     5800.00
01134               0.40     5400.00
01135               0.40     5200.00
01136               0.80     5000.00
01137              -0.40     4800.00
01138              -0.40     4600.00
01139               0.40     4400.00
01140               0.40     4200.00
01141               0.40     4000.00
01142               0.80     3800.00
01143               0.40     3600.00
01144               0.40     3400.00
01145              -0.40     3200.00
01146              -1.20     3000.00
01147               1.20     2800.00
01148               0.40     2400.00
01149              -0.40     2400.00
01150               0.80     2200.00
01151              -1.20     2000.00
01152              -0.40     1600.00
01153              -0.40     1600.00
01154              -0.40     1400.00
01155               0.80     1200.00
01156              -0.40      800.00
01157              -1.20      600.00
01158               0.80      400.00
01159              -0.40      200.00
01160              -1.60        0.00
01161               0.40     -200.00
01162               2.00     -400.00
01163               1.20     -600.00
01164              -2.00     -800.00
01165              -1.20    -1000.00
01166               0.80    -1200.00
01167              -1.20    -1600.00
01168              -0.80    -1600.00
01169               9.20    -1800.00
01170              30.40    -2400.00
01171             -29.20    -2600.00
01172             -37.60    -2800.00
01173               5.20    -2800.00
01174              14.80    -2600.00
01175              50.00    -3400.00
01176             -50.00    -3400.00
01177             -50.00    -3400.00
01178              50.00    -4000.00
01179             -37.60    -4200.00
01180             -50.00    -4000.00
01181              50.00    -4600.00
01182              18.40    -4400.00
01183             -50.00    -4800.00
01184              50.00    -5000.00
01185              17.20    -5000.00
01186             -50.00    -5600.00
01187              16.40    -5600.00
01188              -8.40    -5600.00
01189              38.80    -6000.00
01190             -44.40    -6000.00
01191             -21.20    -6400.00
01192              50.00    -6600.00
01193             -43.60    -6600.00
01194             -26.80    -7200.00
01195              35.60    -7200.00
01196               5.60    -7400.00
01197             -22.80    -7600.00
01198             -17.20    -7600.00
01199              45.60    -8000.00
01200             -18.40    -8000.00
01201             -30.80    -8400.00
01202              37.20    -8400.00
01203              -6.80    -8400.00
01204             -23.20    -9000.00
01205               8.40    -8800.00
01206              19.60    -9000.00
01207             -21.60    -9200.00
01208              -5.60    -9400.00
01209              24.80    -9600.00
01210             -19.60    -9600.00
01211              -4.00   -10000.00
01212               7.60   -10000.00
01213              -3.60   -10000.00
01214              -2.80   -10400.00
01215              -2.40   -10200.00
01216               6.00   -10600.00
01217              -6.40   -10600.00
01218              -3.60   -10800.00
01219               4.80   -10800.00
01220              -3.60   -11000.00
01221              -6.80   -11200.00
01222               4.40   -11000.00
01223               1.60   -11400.00
01224              -9.20   -11400.00
01225               2.00   -11600.00
01226               3.60   -11800.00
01227              -7.60   -12000.00
01228              -2.80   -11800.00
01229               6.80   -12000.00
01230              -5.60   -12000.00
01231              -6.00   -12200.00
01232               5.20   -12400.00
01233              -2.40   -12400.00
01234              -7.20   -12400.00
01235               1.20   -12400.00
01236               3.20   -12600.00
01237              -5.60   -12600.00
01238              -2.40   -12800.00
01239               2.80   -12800.00
01240              -2.80   -12800.00
01241              -4.80   -12800.00
01242               0.80   -13000.00
01243               0.80   -13000.00
01244              -4.80   -13000.00
01245              -1.60   -13000.00
01246               1.20   -13200.00
01247              -4.00   -13000.00
01248              -2.80   -13000.00
01249               0.80   -13200.00
01250              -0.80   -13200.00
01251              -2.80   -13200.00
01252              -1.20   -13200.00
01253              -0.40   -13200.00
01254              -2.40   -13200.00
01255              -2.40   -13200.00
01256              -0.40   -13200.00
01257              -1.20   -13200.00
01258              -2.00   -13200.00
01259              -1.20   -13200.00
01260              -1.20   -13200.00
01261              -1.60   -13200.00
01262              -1.20   -13200.00
01263              -1.20   -13000.00
01264              -1.20   -13000.00
01265              -0.80   -13000.00
01266              -2.40   -13000.00
01267              -1.60   -12800.00
01268              -0.40   -12800.00
01269              -2.00   -12800.00
01270              -1.60   -12800.00
01271              -0.40   -12600.00
01272              -1.20   -12800.00
01273              -2.00   -12600.00
01274              -1.20   -12600.00
01275              -0.80   -12400.00
01276              -1.60   -12400.00
01277              -1.20   -12400.00
01278              -0.80   -12200.00
01279              -1.20   -12200.00
01280              -2.00   -12000.00
01281              -1.20   -12000.00
01282              -0.80   -12000.00
01283              -1.20   -11800.00
01284              -1.60   -11600.00
01285              -0.80   -11600.00
01286              -1.20   -11400.00
01287              -2.40   -11200.00
01288              -1.20   -11200.00
01289              -0.80   -11000.00
01290              -1.20   -10800.00
01291              -2.00   -10800.00
01292              -1.20   -10800.00
01293              -1.20   -10800.00
01294              -2.00   -10400.00
01295              -1.20   -10400.00
01296              -0.80   -10200.00
01297              -1.20   -10200.00
01298              -2.00   -10000.00
01299              -0.80    -9800.00
01300              -1.20    -9600.00
01301              -2.00    -9600.00
01302              -0.80    -9400.00
01303              -1.20    -9200.00
01304              -1.20    -9000.00
01305              -2.00    -9000.00
01306              -1.20    -8800.00
01307              -1.20    -8800.00
01308              -1.20    -8400.00
01309              -1.20    -8200.00
01310               0.00    -8000.00
01311              -2.00    -8000.00
01312              -1.20    -7600.00
01313              -0.80    -7600.00
01314              -1.20    -7400.00
01315              -1.20    -7400.00
01316              -0.40    -7200.00
01317              -0.80    -6800.00
01318              -0.80    -6600.00
01319              -0.40    -6400.00
01320              -1.20    -6400.00
01321              -0.80    -6200.00
01322              -1.20    -6000.00
01323              -1.20    -5800.00
01324              -0.40    -5600.00
01325              -0.80    -5400.00
01326              -0.40    -5200.00
01327              -0.80    -5000.00
01328              -0.80    -4600.00
01329              -0.40    -4400.00
01330              -0.80    -4200.00
01331               0.40    -4000.00
01332              -0.80    -4000.00
01333              -0.80    -3600.00
01334              -0.40    -3400.00
01335              -0.40    -3400.00
01336              -1.20    -3000.00
01337              -0.80    -2800.00
01338               0.40    -2600.00
01339              -1.20    -2400.00
01340              -0.80    -2200.00
01341               0.40    -2000.00
01342              -0.40    -1800.00
01343              -0.80    -1600.00
01344               0.40    -1600.00
01345               0.40    -1200.00
01346              -1.20    -1000.00
01347              -0.40     -800.00
01348               0.40     -600.00
01349              -0.80     -400.00
01350              -0.40     -200.00
01351               0.40        0.00
01352               0.40      400.00
01353               1.20      400.00
01354               0.40      800.00
01355              -1.20      800.00
01356               0.40     1000.00
01357               1.20     1400.00
01358              -0.80     1400.00
01359               0.80     1600.00
01360               6.80     2000.00
01361              20.00     2400.00
01362              -6.80     2600.00
01363             -36.80     2800.00
01364              -1.20     2800.00
01365               2.80     2800.00
01366              18.40     3200.00
01367              30.00     3600.00
01368             -50.00     3600.00
01369              26.00     4000.00
01370              50.00     4000.00
01371             -50.00     4000.00
01372             -26.80     4600.00
01373              50.00     4400.00
01374             -50.00     4800.00
01375             -31.20     5400.00
01376              50.00     5200.00
01377             -16.40     5600.00
01378             -18.40     5800.00
01379               6.40     5800.00
01380              19.60     6000.00
01381              -4.40     6200.00
01382             -31.20     6600.00
01383              30.80     6800.00
01384              17.20     7000.00
01385             -33.20     7200.00
01386              -1.20     7400.00
01387              23.60     7600.00
01388              -1.20     7800.00
01389             -24.80     7800.00
01390              13.20     8000.00
01391              22.80     8200.00
01392             -24.40     8400.00
01393              -0.80     8600.00
01394              23.60     8600.00
01395             -14.00     8800.00
01396             -12.00     9000.00
01397              23.20     9200.00
01398              -1.20     9400.00
01399             -18.00     9400.00
01400              16.40     9600.00
01401               5.60     9800.00
01402             -12.40    10000.00
01403               3.60    10200.00
01404               6.80    10200.00
01405              -1.20    10400.00
01406              -2.00    10400.00
01407               3.60    10600.00
01408               4.00    10800.00
01409              -2.40    10800.00
01410              -0.40    10800.00
01411               5.60    11000.00
01412              -1.60    11200.00
01413              -2.40    11200.00
01414               7.20    11200.00
01415               0.80    11400.00
01416              -5.20    11600.00
01417               4.40    11800.00
01418               3.60    12000.00
01419              -5.20    11800.00
01420               2.40    12000.00
01421               5.60    12000.00
01422              -2.80    12000.00
01423              -0.80    12200.00
01424               5.20    12400.00
01425              -1.20    12600.00
01426              -2.00    12600.00
01427               4.40    12600.00
01428               0.80    12600.00
01429              -1.60    12600.00
01430               2.80    12800.00
01431               1.20    12800.00
01432              -1.20    12800.00
01433               0.80    13000.00
01434               2.40    13000.00
01435               1.20    12800.00
01436              -0.80    13000.00
01437               2.00    13200.00
01438               1.20    13200.00
01439               0.40    13000.00
01440               0.40    13200.00
01441               1.20    13200.00
01442               1.20    13200.00
01443               0.40    13200.00
01444               0.80    13200.00
01445               0.80    13200.00
01446               0.40    13200.00
01447               2.80    13200.00
01448               0.80    13200.00
01449               0.80    13200.00
01450               2.00    13200.00
01451              -0.40    13200.00
01452               0.80    13200.00
01453               1.60    13200.00
01454               0.40    13000.00
01455               2.00    13200.00
01456               2.80    13000.00
01457               0.40    12800.00
01458              -0.40    13000.00
01459               2.00    12800.00
01460               0.40    12800.00
01461               0.00    12800.00
01462               3.20    12800.00
01463               1.20    12800.00
01464              -0.40    12600.00
01465               1.20    12600.00
01466               0.80    12400.00
01467              -0.40    12400.00
01468               0.80    12400.00
01469               2.00    12400.00
01470               2.00    12200.00
01471               0.80    12200.00
01472               1.60    12000.00
01473               0.80    11800.00
01474               0.80    11800.00
01475               0.40    11600.00
01476               0.80    11600.00
01477               0.80    11400.00
01478               0.80    11200.00
01479               0.80    11200.00
01480               1.20    11000.00
01481               1.20    10800.00
01482               0.40    10800.00
01483              -0.40    10800.00
01484               0.80    10600.00
01485               1.60    10400.00
01486              -0.40    10200.00
01487               0.80    10200.00
01488               2.00    10000.00
01489              -0.80    10000.00
01490               0.40     9800.00
01491               1.20     9600.00
01492              -0.80     9600.00
01493              -0.40     9400.00
01494               2.00     9400.00
01495               0.80     9200.00
01496               0.40     8800.00
01497               0.80     8800.00
01498               0.40     8600.00
01499              -0.80     8400.00
01500               0.40     8400.00
01501               0.80     8200.00
01502               0.80     8000.00
01503               0.00     7800.00
01504               0.80     7600.00
01505               0.80     7400.00
01506               0.00     7200.00
01507              -0.40     7000.00
01508               0.40     6800.00
01509               0.40     6800.00
01510               0.40     6400.00
01511               1.20     6400.00
01512               0.80     6200.00
01513              -0.40     5800.00
01514               0.40     5800.00
01515               0.40     5400.00
01516              -0.40     5400.00
01517               0.80     5200.00
01518               0.80     4800.00
01519              -0.40     4600.00
01520               0.80     4400.00
01521               0.40     4400.00
01522              -0.40     4000.00
01523               0.40     3800.00
01524               0.40     3600.00
01525               0.40     3400.00
01526               0.40     3200.00
01527               0.80     3000.00
01528               0.40     2800.00
01529               0.00     2600.00
01530               0.40     2400.00
01531               0.00     2200.00
01532              -0.40     2000.00
01533               0.40     1800.00
01534               0.40     1600.00
01535              -0.40     1400.00
01536               0.40     1200.00
01537               0.40     1000.00
01538              -0.40      600.00
01539              -0.40      400.00
01540              -0.40      400.00
01541              -0.40        0.00
01542              -0.40     -200.00
01543               0.80     -400.00
01544               2.80     -400.00
01545              -0.40     -800.00
01546              -2.00    -1000.00
01547               0.40    -1200.00
01548               0.40    -1400.00
01549              -1.20    -1600.00
01550               2.80    -1800.00
01551              28.40    -2400.00
01552              -3.60    -2400.00
01553             -50.00    -2600.00
01554              -5.20    -2800.00
01555               2.00    -2600.00
01556              50.00    -3000.00
01557               8.80    -3600.00
01558             -50.00    -3200.00
01559              50.00    -3600.00
01560              50.00    -4200.00
01561             -50.00    -4000.00
01562              50.00    -4200.00
01563              50.00    -4800.00
01564             -50.00    -4400.00
01565              18.00    -5000.00
01566              50.00    -5200.00
01567             -50.00    -5200.00
01568               3.20    -5800.00
01569              -4.00    -5600.00
01570              22.00    -6000.00
01571               4.00    -6000.00
01572             -50.00    -6200.00
01573              50.00    -6600.00
01574              11.20    -6600.00
01575             -50.00    -7000.00
01576              25.20    -7200.00
01577              19.60    -7200.00
01578             -12.00    -7600.00
01579             -31.20    -7400.00
01580              28.40    -8000.00
01581              19.60    -8200.00
01582             -48.40    -8200.00
01583              21.20    -8400.00
01584              18.00    -8600.00
01585             -24.80    -8800.00
01586              -6.80    -9000.00
01587              20.00    -9000.00
01588              -2.40    -9200.00
01589             -24.40    -9200.00
01590              23.60    -9400.00
01591              -2.00    -9600.00
01592             -18.00    -9800.00
01593              10.00   -10000.00
01594              -0.40   -10000.00
01595              -2.80   -10200.00
01596              -4.40   -10400.00
01597               5.20   -10400.00
01598              -0.40   -10600.00
01599              -8.40   -10600.00
01600               4.00   -10800.00
01601               1.20   -11000.00
01602              -7.60   -11000.00
01603               0.40   -11200.00
01604               6.00   -11200.00
01605              -7.60   -11400.00
01606              -4.00   -11400.00
01607               6.40   -11600.00
01608              -4.40   -11600.00
01609              -7.60   -12000.00
01610               5.60   -12000.00
01611               0.80   -12000.00
01612              -9.20   -12200.00
01613               2.80   -12200.00
01614               2.40   -12400.00
01615              -7.60   -12400.00
01616              -2.80   -12400.00
01617               4.00   -12400.00
01618              -2.40   -12600.00
01619              -5.60   -12800.00
01620               2.00   -12800.00
01621               0.00   -12800.00
01622              -5.20   -12800.00
01623              -2.00   -13000.00
01624               2.40   -12800.00
01625              -2.40   -13000.00
01626              -4.40   -12800.00
01627               1.60   -13000.00
01628              -2.00   -13000.00
01629              -4.40   -13200.00
01630              -0.80   -13000.00
01631               0.40   -13200.00
01632              -3.60   -13200.00
01633              -2.80   -13200.00
01634               0.40   -13200.00
01635              -2.00   -13200.00
01636              -3.20   -13000.00
01637              -0.40   -13200.00
01638              -0.80   -13200.00
01639              -2.00   -13000.00
01640              -2.00   -13000.00
01641              -1.20   -13200.00
01642              -2.00   -13200.00
01643              -2.40   -13000.00
01644              -1.20   -13000.00
01645              -1.20   -13000.00
01646              -1.20   -13000.00
01647              -2.00   -12800.00
01648              -2.00   -13000.00
01649              -0.40   -13000.00
01650              -2.40   -12800.00
01651              -1.20   -12800.00
01652               0.40   -12800.00
01653              -3.60   -12800.00
01654              -1.20   -12600.00
01655              -0.80   -12600.00
01656              -2.40   -12600.00
01657              -1.20   -12400.00
01658              -0.80   -12200.00
01659              -2.00   -12200.00
01660              -1.20   -12200.00
01661              -0.80   -12200.00
01662              -2.00   -12000.00
01663              -1.60   -12000.00
01664              -0.40   -11800.00
01665              -1.20   -11600.00
01666              -1.60   -11600.00
01667              -0.80   -11600.00
01668              -0.80   -11400.00
01669              -2.00   -11400.00
01670              -0.80   -11000.00
01671              -0.40   -11000.00
01672              -2.00   -10800.00
01673              -1.20   -10800.00
01674              -0.40   -10800.00
01675              -1.60   -10600.00
01676              -2.00   -10400.00
01677              -0.80   -10200.00
01678              -0.80   -10200.00
01679              -2.00   -10000.00
01680              -1.60    -9800.00
01681              -0.80    -9800.00
01682              -2.00    -9600.00
01683              -1.20    -9600.00
01684              -0.40    -9200.00
01685              -0.80    -9200.00
01686              -2.00    -9000.00
01687              -1.20    -8800.00
01688              -0.80    -8800.00
01689              -1.60    -8400.00
01690              -2.00    -8400.00
01691              -0.40    -8200.00
01692              -0.80    -8000.00
01693              -2.00    -7800.00
01694              -0.80    -7600.00
01695              -1.20    -7400.00
01696              -1.20    -7200.00
01697              -0.80    -7200.00
01698              -0.80    -6800.00
01699              -1.20    -6800.00
01700              -0.80    -6600.00
01701              -1.20    -6400.00
01702              -1.20    -6200.00
01703              -0.80    -6000.00
01704              -1.20    -5800.00
01705              -1.20    -5600.00
01706              -0.40    -5400.00
01707              -0.80    -5200.00
01708              -1.20    -5000.00
01709              -0.40    -4800.00
01710              -0.40    -4400.00
01711              -1.60    -4200.00
01712              -0.40    -4200.00
01713              -0.40    -4000.00
01714              -1.20    -3800.00
01715              -0.80    -3600.00
01716              -0.40    -3400.00
01717              -0.40    -3200.00
01718              -0.40    -2800.00
01719              -0.40    -2600.00
01720              -0.40    -2600.00
01721              -0.80    -2400.00
01722              -0.80    -2000.00
01723               0.00    -1800.00
01724              -0.40    -1800.00
01725              -0.80    -1200.00
01726               0.40    -1200.00
01727              -0.40    -1000.00
01728              -0.80     -800.00
01729               0.40     -600.00
01730               0.40     -400.00
01731              -0.40     -200.00
01732              -0.80        0.00
01733               0.40      200.00
01734               1.20      400.00
01735               1.60      600.00
01736              -1.20      800.00
01737               0.40     1000.00
01738               0.80     1200.00
01739              -0.80     1400.00
01740              -0.40     1600.00
01741               3.60     1800.00
01742              14.80     2200.00
01743              12.00     2600.00
01744             -32.40     2600.00
01745             -18.80     2800.00
01746               7.20     3000.00
01747               0.80     3000.00
01748              45.20     3400.00
01749             -36.80     3400.00
01750             -50.00     4000.00
01751              50.00     4000.00
01752             -14.80     4000.00
01753             -50.00     4400.00
01754              50.00     4600.00
01755              18.00     4600.00
01756             -50.00     5200.00
01757              46.80     5200.00
01758              17.20     5600.00
01759             -29.60     5800.00
01760              -0.80     5800.00
01761              13.20     6000.00
01762              10.40     6000.00
01763             -33.20     6400.00
01764               6.40     6600.00
01765              37.60     6800.00
01766             -23.60     7200.00
01767             -17.20     7200.00
01768              20.40     7200.00
01769              13.20     7600.00
01770             -21.20     7800.00
01771              -7.60     8200.00
01772              30.40     8200.00
01773             -10.00     8200.00
01774             -19.60     8400.00
01775              22.80     8400.00
01776               2.40     8800.00
01777             -22.80     8800.00
01778              13.60     9200.00
01779              14.80     9200.00
01780             -19.60     9400.00
01781               3.60     9600.00
01782              15.60     9600.00
01783             -10.40     9800.00
01784              -3.60    10000.00
01785               7.60    10200.00
01786               0.80    10200.00
01787              -2.00    10400.00
01788               0.80    10200.00
01789               4.80    10600.00
01790              -0.80    10800.00
01791              -2.00    10800.00
01792               4.00    11200.00
01793               2.40    11200.00
01794              -4.40    11200.00
01795               4.00    11200.00
01796               5.20    11600.00
01797              -5.20    11600.00
01798               0.80    11800.00
01799               6.00    12000.00
01800              -3.60    12000.00
01801              -0.80    12000.00
01802               6.80    12000.00
01803              -0.80    12200.00
01804              -2.00    12400.00
01805               5.20    12400.00
01806               0.80    12400.00
01807              -2.40    12400.00
01808               2.40    12600.00
01809               3.20    12600.00
01810              -1.20    12600.00
01811               0.80    12800.00
01812               2.80    12800.00
01813               0.40    12800.00
01814              -1.20    12800.00
01815               2.00    13000.00
01816               2.80    13000.00
01817              -0.80    13200.00
01818               0.80    13200.00
01819               2.40    13200.00
01820              -0.80    13000.00
01821              -0.40    13000.00
01822               2.40    13200.00
01823               1.20    13200.00
01824              -0.40    13200.00
01825               1.20    13200.00
01826               2.00    13200.00
01827              -0.40    13200.00
01828               0.40    13200.00
01829               1.20    13200.00
01830               1.20    13200.00
01831               0.40    13200.00
01832               1.20    13200.00
01833               1.20    13200.00
01834               0.40    13000.00
01835               1.20    13200.00
01836               2.00    13000.00
01837               0.40    13200.00
01838               1.20    13200.00
01839               2.00    12800.00
01840               0.80    13000.00
01841               0.80    12800.00
01842               1.20    12800.00
01843               1.20    12800.00
01844               0.80    12800.00
01845               0.80    12800.00
01846               0.80    12600.00
01847               0.80    12600.00
01848               1.20    12400.00
01849               1.20    12400.00
01850               0.80    12400.00
01851               0.80    12200.00
01852               0.80    12000.00
01853               0.80    12000.00
01854               0.80    12000.00
01855               1.20    11800.00
01856               0.80    11800.00
01857               0.80    11600.00
01858               1.20    11600.00
01859               0.80    11600.00
01860               1.20    11200.00
01861               0.80    11200.00
01862               0.80    11000.00
01863               1.20    11000.00
01864               0.40    10800.00
01865               0.80    10600.00
01866               1.20    10600.00
01867               0.40    10400.00
01868               0.80    10400.00
01869               2.00    10200.00
01870               0.80    10000.00
01871               0.40     9800.00
01872               1.20     9800.00
01873               0.80     9600.00
01874               0.00     9400.00
01875               0.40     9400.00
01876               0.80     9200.00
01877               0.40     9000.00
01878               0.40     8800.00
01879               0.80     8600.00
01880               0.40     8400.00
01881               0.40     8200.00
01882               0.40     8200.00
01883               0.40     8000.00
01884               0.80     7800.00
01885               0.40     7800.00
01886              -0.40     7400.00
01887               0.80     7200.00
01888               0.80     7000.00
01889              -0.40     7000.00
01890               0.40     6800.00
01891               0.40     6600.00
01892               0.00     6400.00
01893               0.40     6200.00
01894               0.40     6000.00
01895              -0.40     5800.00
01896               0.40     5600.00
01897               0.80     5200.00
01898               0.40     5200.00
01899              -0.40     5000.00
01900               0.40     4800.00
01901               0.80     4400.00
01902               0.40     4400.00
01903              -0.40     4000.00
01904               0.80     4000.00
01905              -0.40     3800.00
01906               0.00     3400.00
01907               0.00     3400.00
01908               0.40     3000.00
01909              -0.40     3000.00
01910               0.40     2800.00
01911              -0.40     2400.00
01912              -0.40     2200.00
01913              -0.40     2200.00
01914              -0.40     2000.00
01915               0.00     1800.00
01916              -0.40     1400.00
01917               0.40     1200.00
01918               0.00     1000.00
01919              -0.40      800.00
01920              -0.40      600.00
01921               0.00      600.00
01922               0.00      200.00
01923              -0.40     -200.00
01924               0.00     -200.00
01925               1.20     -400.00
01926               0.80     -800.00
01927              -1.20     -800.00
01928              -0.40    -1000.00
01929               0.80    -1200.00
01930              -0.40    -1400.00
01931               0.40    -1600.00
01932              14.80    -1800.00
01933              22.80    -2400.00
01934             -40.40    -2600.00
01935             -25.20    -2800.00
01936               6.00    -2800.00
01937              29.60    -2600.00
01938              50.00    -3600.00
01939             -50.00    -3200.00
01940              -7.20    -3200.00
01941              50.00    -4200.00
01942             -50.00    -4000.00
01943             -50.00    -4200.00
01944              50.00    -4600.00
01945             -50.00    -4400.00
01946             -50.00    -4800.00
01947              50.00    -5200.00
01948             -23.60    -5000.00
01949             -34.40    -5800.00
01950              12.40    -5600.00
01951              -1.20    -5800.00
01952              35.20    -6200.00
01953             -50.00    -6000.00
01954              10.80    -6600.00
01955              50.00    -6600.00
01956             -50.00    -6800.00
01957              -5.60    -7200.00
01958              31.60    -7000.00
01959              -0.80    -7400.00
01960             -28.40    -7600.00
01961              -2.00    -7600.00
01962              43.60    -8000.00
01963             -36.40    -8000.00
01964             -12.00    -8400.00
01965              34.80    -8600.00
01966             -17.20    -8400.00
01967             -18.00    -9000.00
01968              13.60    -8800.00
01969              13.60    -9000.00
01970             -26.80    -9200.00
01971               6.00    -9600.00
01972              18.00    -9600.00
01973             -23.60    -9600.00
01974               3.20    -9800.00
01975               5.60   -10000.00
01976              -4.00   -10000.00
01977              -4.00   -10200.00
01978               0.40   -10400.00
01979               5.20   -10600.00
01980              -8.40   -10600.00
01981              -0.80   -10800.00
01982               4.00   -10800.00
01983              -4.40   -11000.00
01984              -5.20   -11000.00
01985               6.40   -11200.00
01986              -1.20   -11200.00
01987              -8.80   -11400.00
01988               4.40   -11400.00
01989               1.20   -11800.00
01990              -8.80   -11600.00
01991               0.80   -12000.00
01992               6.00   -12000.00
01993              -8.00   -12200.00
01994              -2.40   -12200.00
01995               5.20   -12400.00
01996              -4.80   -12400.00
01997              -5.60   -12400.00
01998               3.60   -12400.00
01999               1.20   -12600.00
02000              -6.80   -12600.00
02001              -0.80   -12600.00
02002               2.00   -12800.00
02003              -4.40   -12800.00
02004              -4.00   -12800.00
02005               1.60   -12800.00
02006              -0.40   -13000.00
02007              -5.20   -13000.00
02008               0.40   -13000.00
02009               0.80   -13200.00
02010              -4.00   -13000.00
02011              -2.40   -13000.00
02012               0.80   -13200.00
02013              -1.20   -13200.00
02014              -2.80   -13200.00
02015              -0.80   -13200.00
02016              -1.20   -13200.00
02017              -2.80   -13200.00
02018              -1.20   -13000.00
02019              -0.40   -13200.00
02020              -2.40   -13200.00
02021              -1.20   -13200.00
02022              -1.20   -13200.00
02023              -2.40   -13000.00
02024              -1.60   -13200.00
02025              -1.20   -13000.00
02026              -2.00   -13000.00
02027              -1.20   -13000.00
02028              -0.80   -13000.00
02029              -2.40   -13000.00
02030              -1.20   -12800.00
02031              -0.40   -12800.00
02032              -2.40   -12800.00
02033              -2.00   -12800.00
02034              -0.80   -12800.00
02035              -2.00   -12600.00
02036              -2.40   -12600.00
02037              -1.20   -12800.00
02038              -0.80   -12400.00
02039              -1.60   -12400.00
02040              -1.20   -12400.00
02041              -0.80   -12200.00
02042              -1.20   -12000.00
02043              -1.60   -12000.00
02044              -1.20   -12000.00
02045              -1.20   -12000.00
02046              -1.60   -11800.00
02047              -1.20   -11600.00
02048              -1.20   -11400.00
02049              -1.20   -11400.00
02050              -2.00   -11400.00
02051              -0.80   -11000.00
02052              -0.40   -11000.00
02053              -1.60   -10800.00
02054              -1.20   -10800.00
02055              -0.80   -10800.00
02056              -1.20   -10600.00
02057              -1.60   -10400.00
02058              -1.20   -10400.00
02059              -0.40   -10200.00
02060              -1.20   -10000.00
02061              -1.20   -10000.00
02062              -0.80    -9800.00
02063              -0.80    -9600.00
02064              -1.20    -9400.00
02065              -1.20    -9200.00
02066              -0.80    -9200.00
02067              -0.40    -9000.00
02068              -2.00    -9000.00
02069              -1.20    -8800.00
02070              -1.20    -8600.00
02071              -1.20    -8400.00
02072              -1.20    -8000.00
02073              -0.40    -8200.00
02074              -2.00    -7800.00
02075              -0.80    -7600.00
02076              -1.20    -7600.00
02077              -0.80    -7400.00
02078              -1.20    -7200.00
02079              -1.60    -7200.00
02080              -1.20    -6800.00
02081               0.40    -6600.00
02082              -1.20    -6400.00
02083              -2.40    -6200.00
02084              -0.40    -6000.00
02085              -0.40    -5800.00
02086              -2.00    -5800.00
02087              -0.40    -5400.00
02088              -0.40    -5200.00
02089              -1.60    -5000.00
02090              -1.20    -4600.00
02091              -0.80    -4600.00
02092              -0.80    -4400.00
02093              -1.20    -4400.00
02094              -0.80    -4200.00
02095              -1.20    -4000.00
02096              -1.20    -3600.00
02097              -0.40    -3400.00
02098               0.40    -3200.00
02099              -0.80    -3000.00
02100              -1.20    -2800.00
02101               0.00    -2600.00
02102              -0.80    -2400.00
02103              -1.60    -2400.00
02104               0.00    -2000.00
02105               0.40    -1600.00
02106              -0.40    -1600.00
02107              -0.40    -1400.00
02108               0.40    -1000.00
02109              -0.80    -1000.00
02110              -0.80     -800.00
02111               0.40     -400.00
02112              -0.40     -200.00
02113               0.80        0.00
02114              -0.40      200.00
02115               1.20      400.00
02116               2.80      600.00
02117              -1.20      800.00
02118              -0.80      800.00
02119               1.20     1200.00
02120               0.80     1400.00
02121               0.00     1800.00
02122               1.20     1800.00
02123               8.40     2000.00
02124              21.20     2400.00
02125             -17.20     2600.00
02126             -34.40     2800.00
02127               6.00     3000.00
02128               0.40     3000.00
02129              31.60     3400.00
02130              11.60     3400.00
02131             -50.00     3600.00
02132              50.00     4000.00
02133              50.00     4000.00
02134             -50.00     4200.00
02135              21.20     4600.00
02136              50.00     4600.00
02137             -50.00     4800.00
02138               0.80     5200.00
02139              49.20     5400.00
02140             -28.00     5600.00
02141             -11.60     5800.00
02142               8.40     6000.00
02143              19.20     6200.00
02144             -16.40     6400.00
02145             -20.00     6800.00
02146              38.00     6800.00
02147               0.80     7000.00
02148             -30.00     7000.00
02149               7.60     7200.00
02150              21.60     7600.00
02151              -9.20     7800.00
02152             -21.60     7800.00
02153              21.20     8200.00
02154              12.00     8200.00
02155             -26.40     8400.00
02156               8.80     8600.00
02157              18.00     8600.00
02158             -20.00     8800.00
02159              -2.80     9000.00
02160              23.60     9200.00
02161             -10.40     9600.00
02162             -12.00     9600.00
02163              18.80     9600.00
02164              -1.60     9800.00
02165             -10.80    10000.00
02166               6.00    10200.00
02167               4.40    10200.00
02168              -2.00    10400.00
02169              -1.60    10600.00
02170               4.40    10800.00
02171               2.00    10800.00
02172              -3.60    10800.00
02173               2.00    11000.00
02174               4.40    11000.00
02175              -2.40    11200.00
02176               0.00    11200.00
02177               6.80    11400.00
02178              -1.60    11600.00
02179              -3.60    11800.00
02180               6.00    12000.00
02181               0.80    11800.00
02182              -4.40    12000.00
02183               5.20    12000.00
02184               3.60    12000.00
02185              -4.00    12000.00
02186               2.00    12400.00
02187               4.00    12400.00
02188              -2.40    12400.00
02189               0.40    12400.00
02190               4.40    12600.00
02191               0.40    12800.00
02192              -1.20    12600.00
02193               2.40    12800.00
02194               2.00    13000.00
02195              -1.20    13000.00
02196               0.80    12800.00
02197               3.60    13000.00
02198               0.40    12800.00
02199              -0.40    13000.00
02200               2.80    13200.00
02201               0.40    13000.00
02202              -0.40    13200.00
02203               2.00    13200.00
02204               1.60    13200.00
02205               0.40    13200.00
02206               0.80    13200.00
02207               1.60    13200.00
02208               0.80    13200.00
02209               0.80    13200.00
02210               1.20    13200.00
02211               1.20    13200.00
02212               0.40    13200.00
02213               0.80    13200.00
02214               0.80    13200.00
02215               0.40    13200.00
02216               0.80    13000.00
02217               1.20    13000.00
02218               0.80    13200.00
02219               0.80    13000.00
02220               0.80    13000.00
02221               0.80    12800.00
02222               0.80    12800.00
02223               0.40    12800.00
02224               1.20    12800.00
02225               0.80    12800.00
02226               0.80    12600.00
02227               0.80    12600.00
02228               0.80    12600.00
02229               1.20    12600.00
02230               1.20    12400.00
02231               0.40    12400.00
02232               0.40    12200.00
02233               1.60    12200.00
02234               0.80    12200.00
02235               0.80    12000.00
02236               1.20    12000.00
02237               0.80    11600.00
02238               0.80    11800.00
02239               0.80    11800.00
02240               0.80    11400.00
02241               0.80    11400.00
02242               1.20    11200.00
02243               0.80    11200.00
02244               0.80    11000.00
02245               0.80    10800.00
02246               0.80    10800.00
02247               0.80    10800.00
02248               0.80    10400.00
02249               0.40    10400.00
02250               1.20    10200.00
02251               0.80    10200.00
02252               0.40    10000.00
02253               0.80    10000.00
02254               1.20     9600.00
02255               0.40     9400.00
02256               0.80     9400.00
02257               0.80     9200.00
02258               0.40     9200.00
02259               0.40     8800.00
02260               0.80     8800.00
02261               0.40     8600.00
02262               0.00     8400.00
02263               0.40     8200.00
02264               0.80     8000.00
02265               0.40     7800.00
02266               0.40     7600.00
02267               0.80     7600.00
02268               0.40     7600.00
02269               0.40     7000.00
02270               0.40     7000.00
02271               0.00     6800.00
02272               0.40     6800.00
02273               0.00     6200.00
02274              -0.40     6200.00
02275               0.40     6000.00
02276               0.40     5800.00
02277              -0.40     5600.00
02278              -0.40     5400.00
02279               0.40     5200.00
02280               0.40     4800.00
02281              -0.40     4800.00
02282               0.00     4600.00
02283               0.40     4400.00
02284              -0.40     4200.00
02285               0.40     3800.00
02286               0.00     3800.00
02287               0.00     3600.00
02288               0.00     3600.00
02289               0.00     3200.00
02290               0.40     3000.00
02291              -0.40     2800.00
02292              -0.40     2600.00
02293              -0.40     2400.00
02294               0.00     2000.00
02295              -0.80     2000.00
02296              -0.40     1800.00
02297               0.40     1400.00
02298              -0.80     1400.00
02299              -0.40     1200.00
02300               0.40      800.00
02301               0.00      600.00
02302              -0.80      400.00
02303               0.40      200.00
02304              -0.40        0.00
02305              -0.80        0.00
02306               0.80     -400.00
02307               2.00     -400.00
02308              -1.20     -800.00
02309              -0.80     -800.00
02310               0.80    -1200.00
02311              -0.40    -1400.00
02312              -0.80    -1600.00
02313               5.20    -1800.00
02314              31.20    -2400.00
02315             -18.00    -2600.00
02316             -44.80    -2800.00
02317               1.20    -2800.00
02318               5.60    -2600.00
02319              50.00    -3000.00
02320             -33.20    -3400.00
02321             -50.00    -3200.00
02322              50.00    -4000.00
02323              29.20    -4200.00
02324             -50.00    -4000.00
02325              50.00    -4400.00
02326              50.00    -4600.00
02327             -50.00    -4600.00
02328              50.00    -5000.00
02329              50.00    -5200.00
02330             -50.00    -5600.00
02331              14.80    -5600.00
02332              -8.80    -5800.00
02333              32.80    -6000.00
02334             -22.00    -6200.00
02335             -44.40    -6400.00
02336              50.00    -6800.00
02337             -20.40    -6600.00
02338             -44.00    -7000.00
02339              32.40    -7200.00
02340              12.00    -7200.00
02341             -18.40    -7600.00
02342             -26.40    -7600.00
02343              40.40    -8000.00
02344              -1.20    -8000.00
02345             -42.00    -8400.00
02346              32.00    -8400.00
02347               4.40    -8400.00
02348             -24.80    -8800.00
02349               0.80    -9000.00
02350              21.20    -9200.00
02351             -13.60    -9200.00
02352             -16.80    -9400.00
02353              26.80    -9600.00
02354             -13.20    -9600.00
02355             -12.00    -9800.00
02356              10.00   -10000.00
02357              -2.00   -10000.00
02358              -4.00   -10400.00
02359              -3.60   -10400.00
02360               7.20   -10400.00
02361              -5.20   -10600.00
02362              -6.00   -10600.00
02363               5.60   -10800.00
02364              -1.60   -11000.00
02365              -7.60   -11000.00
02366               3.60   -11200.00
02367               4.40   -11400.00
02368              -9.60   -11400.00
02369              -0.80   -11600.00
02370               5.60   -11600.00
02371              -7.20   -12000.00
02372              -5.20   -11800.00
02373               7.20   -12000.00
02374              -2.80   -12000.00
02375              -7.20   -12200.00
02376               4.80   -12200.00
02377              -0.40   -12400.00
02378              -7.20   -12400.00
02379              -0.80   -12400.00
02380               4.00   -12400.00
02381              -4.40   -12600.00
02382              -4.00   -12600.00
02383               2.80   -12800.00
02384              -2.00   -12800.00
02385              -4.40   -13000.00
02386              -0.80   -12800.00
02387               2.00   -13000.00
02388              -3.60   -13000.00
02389              -2.40   -13000.00
02390               1.60   -13200.00
02391              -2.40   -13200.00
02392              -4.00   -13000.00
02393               0.40   -13200.00
02394               0.00   -13200.00
02395              -3.60   -13200.00
02396              -2.00   -13200.00
02397               0.40   -13200.00
02398              -2.40   -13200.00
02399              -2.80   -13200.00
02400              -0.40   -13000.00
02401              -1.20   -13200.00
02402              -2.40   -13200.00
02403              -2.00   -13200.00
02404              -1.20   -13000.00
02405              -2.40   -13000.00
02406              -2.00   -13200.00
02407              -0.80   -13000.00
02408              -1.60   -13000.00
02409              -2.00   -13000.00
02410              -1.20   -13000.00
02411              -2.40   -13000.00
02412              -2.00   -12800.00
02413              -1.20   -13000.00
02414              -1.20   -12800.00
02415              -2.00   -12800.00
02416              -1.20   -12800.00
02417              -1.20   -12600.00
02418              -2.40   -12600.00
02419              -1.20   -12600.00
02420              -0.80   -12400.00
02421              -2.40   -12400.00
02422              -1.20   -12400.00
02423              -0.40   -12200.00
02424              -2.00   -12000.00
02425              -2.00   -12000.00
02426              -0.80   -12000.00
02427              -0.80   -11600.00
02428              -2.40   -11800.00
02429              -1.20   -11600.00
02430              -0.80   -11400.00
02431              -1.60   -11400.00
02432              -2.40   -11000.00
02433              -0.40   -11000.00
02434              -1.20   -11000.00
02435              -2.40   -10800.00
02436              -1.20   -10800.00
02437              -0.80   -10600.00
02438              -2.00   -10600.00
02439              -1.20   -10400.00
02440              -0.40   -10200.00
02441              -1.20   -10000.00
02442              -1.20   -10000.00
02443              -1.20    -9800.00
02444              -0.80    -9800.00
02445              -2.00    -9600.00
02446              -1.20    -9200.00
02447              -0.40    -9200.00
02448              -1.20    -9200.00
02449              -2.00    -9000.00
02450              -0.80    -8800.00
02451              -0.80    -8600.00
02452              -1.20    -8400.00
02453              -1.20    -8200.00
02454               0.40    -8200.00
02455              -1.20    -8000.00
02456              -1.60    -7600.00
02457              -0.40    -7600.00
02458              -1.20    -7400.00
02459              -1.20    -7200.00
02460              -0.40    -7000.00
02461              -1.20    -7000.00
02462              -0.80    -6600.00
02463              -1.20    -6400.00
02464              -1.20    -6400.00
02465              -1.20    -6200.00
02466              -0.80    -6000.00
02467              -1.60    -5600.00
02468              -0.40    -5600.00
02469              -0.40    -5400.00
02470              -1.20    -5000.00
02471              -0.80    -5000.00
02472              -0.80    -4800.00
02473              -1.20    -4400.00
02474              -0.80    -4200.00
02475              -0.40    -4200.00
02476              -1.20    -4000.00
02477              -1.20    -3600.00
02478              -0.80    -3400.00
02479              -0.80    -3200.00
02480              -0.80    -3200.00
02481              -0.40    -2800.00
02482              -0.80    -2600.00
02483              -1.20    -2400.00
02484              -0.80    -2400.00
02485              -0.80    -2000.00
02486              -0.80    -1800.00
02487              -0.80    -1600.00
02488              -0.40    -1600.00
02489              -0.40    -1200.00
02490              -0.40    -1000.00
02491              -0.40     -800.00
02492              -0.40     -400.00
02493              -0.80     -200.00
02494               0.00     -200.00
02495               0.00        0.00
02496              -0.40      200.00
02497               1.60      400.00
02498               0.80      800.00
02499              -1.20      800.00
02500               0.80     1200.00
02501               1.60     1400.00
02502              -0.40     1400.00
02503              -0.40     1800.00
02504               5.20     2000.00
02505              18.40     2400.00
02506               2.40     2800.00
02507             -36.40     2800.00
02508              -7.60     2800.00
02509               5.20     2800.00
02510               8.00     3400.00
02511              41.20     3600.00
02512             -50.00     3600.00
02513             -10.80     4000.00
02514              50.00     4000.00
02515             -50.00     4000.00
02516             -50.00     4600.00
02517              50.00     4400.00
02518             -25.20     4800.00
02519             -50.00     5200.00
02520              50.00     5200.00
02521              -2.40     5600.00
02522             -24.40     5600.00
02523               3.60     5800.00
02524              17.20     6000.00
02525               3.60     6200.00
02526             -35.60     6400.00
02527              20.00     6800.00
02528              28.00     6800.00
02529             -31.20     7000.00
02530              -8.80     7200.00
02531              22.80     7200.00
02532               6.00     7600.00
02533             -24.00     7800.00
02534               4.00     8200.00
02535              27.60     8200.00
02536             -19.60     8400.00
02537             -10.00     8400.00
02538              25.20     8400.00
02539              -7.20     8800.00
02540             -18.80     8800.00
02541              19.60     9200.00
02542               6.00     9400.00
02543             -20.40     9400.00
02544              10.80     9600.00
02545              10.80     9800.00
02546             -12.00    10000.00
02547               0.00    10000.00
02548               7.20    10200.00
02549               0.40    10400.00
02550              -2.80    10400.00
02551               2.00    10400.00
02552               5.20    10600.00
02553              -2.40    11000.00
02554              -2.40    11000.00
02555               6.00    11000.00
02556               0.00    11200.00
02557              -4.80    11200.00
02558               6.00    11600.00
02559               3.60    11400.00
02560              -6.00    11600.00
02561               4.00    11800.00
02562               5.20    11800.00
02563              -4.80    12000.00
02564               2.00    12000.00
02565               6.00    12000.00
02566              -2.40    12200.00
02567              -0.40    12400.00
02568               5.20    12400.00
02569              -0.80    12400.00
02570              -2.40    12600.00
02571               4.00    12600.00
02572               2.80    12800.00
02573              -2.00    12600.00
02574               0.80    12800.00
02575               2.80    12800.00
02576               0.40    13000.00
02577              -0.40    12800.00
02578               2.40    13200.00
02579               2.40    13000.00
02580               0.40    13200.00
02581               0.80    13000.00
02582               2.40    13200.00
02583               0.40    13200.00
02584               0.40    13200.00
02585               2.40    13200.00
02586               1.60    13200.00
02587              -0.40    13200.00
02588               1.20    13200.00
02589               0.80    13200.00
02590              -0.40    13200.00
02591               1.20    13200.00
02592               2.40    13200.00
02593               0.40    13200.00
02594               0.80    13200.00
02595               2.00    13200.00
02596              -0.40    13200.00
02597               0.40    13200.00
02598               2.00    13200.00
02599               0.80    13200.00
02600               0.40    13000.00
02601               1.20    13200.00
02602               0.80    12800.00
02603              -0.40    12800.00
02604               0.80    12800.00
02605               2.00    12600.00
02606               0.80    12600.00
02607               0.80    12600.00
02608               1.20    12600.00
02609              -0.40    12600.00
02610               0.40    12600.00
02611               1.20    12400.00
02612               0.80    12400.00
02613               0.80    12200.00
02614               2.00    12200.00
02615               0.40    12000.00
02616               0.80    12000.00
02617               0.80    12000.00
02618               0.80    11800.00
02619               0.80    11800.00
02620               0.80    11600.00
02621               0.40    11600.00
02622               0.80    11400.00
02623               0.40    11200.00
02624               0.80    11200.00
02625               1.20    11000.00
02626               0.80    10800.00
02627               0.40    10800.00
02628               0.80    10600.00
02629               0.80    10600.00
02630               0.40    10400.00
02631               0.80    10200.00
02632               2.00    10200.00
02633               0.40    10000.00
02634               0.40     9800.00
02635               1.20     9600.00
02636               0.40     9600.00
02637               0.40     9400.00
02638               0.80     9200.00
02639               0.80     9200.00
02640               0.80     9000.00
02641               0.40     8800.00
02642               0.40     8600.00
02643               0.80     8600.00
02644               0.00     8400.00
02645               0.40     8200.00
02646               2.00     8000.00
02647               0.40     7800.00
02648              -0.40     7800.00
02649               0.80     7400.00
02650               0.40     7200.00
02651              -0.40     7000.00
02652               0.80     6800.00
02653               0.40     6800.00
02654              -0.40     6400.00
02655               0.80     6400.00
02656              -0.40     6200.00
02657              -0.40     6000.00
02658               0.80     5600.00
02659               0.40     5600.00
02660              -0.80     5200.00
02661               0.00     5200.00
02662              -0.40     5000.00
02663              -0.40     4800.00
02664               0.40     4400.00
02665               0.40     4400.00
02666              -0.40     4000.00
02667              -0.40     3800.00
02668              -0.80     3600.00
02669              -0.40     3400.00
02670               0.40     3200.00
02671               0.00     3000.00
02672               0.40     2800.00
02673               0.40     2400.00
02674              -0.80     2400.00
02675              -0.40     2000.00
02676              -0.40     2200.00
02677              -0.80     1800.00
02678               0.00     1600.00
02679               0.40     1400.00
02680              -0.40     1200.00
02681              -0.40      800.00
02682              -0.40      800.00
02683              -0.80      600.00
02684              -0.40      400.00
02685              -0.40        0.00
02686              -0.40     -200.00
02687               0.40     -400.00
02688               2.00     -400.00
02689               0.40     -800.00
02690              -1.20    -1000.00
02691              -0.40    -1000.00
02692               0.40    -1200.00
02693              -1.20    -1600.00
02694               1.20    -1800.00
02695              21.60    -2000.00
02696              10.40    -2600.00
02697             -47.60    -2600.00
02698             -14.00    -3000.00
02699               3.20    -2800.00
02700              44.40    -2800.00
02701              33.60    -3600.00
02702             -50.00    -3200.00
02703              50.00    -3600.00
02704              50.00    -4200.00
02705             -50.00    -4000.00
02706             -12.00    -4200.00
02707              50.00    -4800.00
02708             -50.00    -4400.00
02709             -31.60    -4800.00
02710              50.00    -5200.00
02711             -50.00    -5200.00
02712             -12.00    -5600.00
02713               4.00    -5600.00
02714              10.40    -5800.00
02715              22.80    -6200.00
02716             -50.00    -6000.00
02717              42.40    -6600.00
02718              37.20    -6600.00
02719             -50.00    -6800.00
02720              13.20    -7200.00
02721              25.20    -7200.00
02722              -6.80    -7600.00
02723             -32.80    -7600.00
02724              14.80    -8000.00
02725              34.00    -8000.00
02726             -47.20    -8000.00
02727               6.80    -8400.00
02728              26.80    -8400.00
02729             -23.20    -8800.00
02730             -12.00    -9000.00
02731              18.00    -9000.00
02732               5.60    -9200.00
02733             -27.60    -9200.00
02734              16.40    -9200.00
02735               7.20    -9600.00
02736             -22.00    -9600.00
02737               7.60   -10000.00
02738               2.00   -10000.00
02739              -4.00   -10000.00
02740              -4.80   -10400.00
02741               2.40   -10400.00
02742               2.00   -10400.00
02743              -8.80   -10800.00
02744               2.00   -10800.00
02745               2.40   -11000.00
02746              -6.40   -11000.00
02747              -2.40   -11200.00
02748               7.20   -11400.00
02749              -5.20   -11200.00
02750              -6.00   -11400.00
02751               6.40   -11600.00
02752              -2.80   -11600.00
02753              -7.60   -12000.00
02754               3.60   -12000.00
02755               2.40   -12000.00
02756              -8.80   -12000.00
02757               0.40   -12200.00
02758               4.00   -12400.00
02759              -6.40   -12400.00
02760              -4.00   -12200.00
02761               4.00   -12400.00
02762              -1.20   -12600.00
02763              -5.60   -12600.00
02764               0.80   -12800.00
02765               0.80   -12800.00
02766              -4.40   -12800.00
02767              -2.40   -12800.00
02768               2.00   -13000.00
02769              -1.60   -13000.00
02770              -4.80   -13000.00
02771               0.80   -13000.00
02772              -0.40   -13200.00
02773              -4.40   -13000.00
02774              -1.20   -13200.00
02775               1.20   -13200.00
02776              -2.00   -13000.00
02777              -3.20   -13200.00
02778              -0.40   -13200.00
02779              -1.20   -13200.00
02780              -2.40   -13200.00
02781              -1.20   -13200.00
02782              -0.40   -13200.00
02783              -2.00   -13000.00
02784              -2.80   -13200.00
02785              -2.00   -13000.00
02786              -1.20   -13000.00
02787              -2.40   -13200.00
02788              -2.00   -13000.00
02789              -0.40   -13000.00
02790              -1.60   -13000.00
02791              -2.40   -13200.00
02792              -1.20   -13000.00
02793              -1.20   -13000.00
02794              -2.80   -12800.00
02795              -2.00   -12800.00
02796              -0.40   -12800.00
02797              -2.40   -12800.00
02798              -2.00   -12800.00
02799              -1.20   -12400.00
02800              -2.00   -12400.00
02801              -2.00   -12400.00
02802              -2.00   -12400.00
02803              -1.20   -12200.00
02804              -1.20   -12200.00
02805              -0.80   -12200.00
02806              -2.00   -12000.00
02807              -2.00   -12200.00
02808              -1.20   -12000.00
02809              -1.60   -11600.00
02810              -1.60   -11600.00
02811              -0.80   -11600.00
02812              -0.80   -11400.00
02813              -2.40   -11400.00
02814              -1.20   -11000.00
02815              -0.40   -11000.00
02816              -2.00   -11000.00
02817              -2.00   -10800.00
02818              -0.80   -10800.00
02819              -1.20   -10600.00
02820              -2.00   -10400.00
02821              -0.80   -10200.00
02822              -0.80   -10200.00
02823              -2.40   -10000.00
02824              -1.20    -9800.00
02825              -0.40    -9600.00
02826              -1.20    -9600.00
02827              -1.20    -9400.00
02828               0.00    -9400.00
02829              -1.20    -9200.00
02830              -2.00    -9000.00
02831              -1.20    -9000.00
02832              -0.80    -8800.00
02833              -1.20    -8600.00
02834              -0.80    -8400.00
02835              -0.40    -8200.00
02836              -0.40    -8000.00
02837              -2.00    -8000.00
02838              -0.40    -7800.00
02839              -1.20    -7600.00
02840              -1.20    -7400.00
02841              -0.80    -7000.00
02842               0.00    -7000.00
02843              -0.80    -6800.00
02844              -0.80    -6600.00
02845              -1.20    -6400.00
02846              -1.20    -6000.00
02847              -1.20    -6000.00
02848              -0.80    -5800.00
02849              -0.80    -5600.00
02850              -0.40    -5600.00
02851              -1.20    -5200.00
02852              -2.00    -5000.00
02853              -0.80    -4800.00
02854              -0.80    -4600.00
02855              -1.20    -4400.00
02856              -0.80    -4200.00
02857              -0.40    -4000.00
02858              -1.20    -3800.00
02859              -1.20    -3600.00
02860              -0.80    -3400.00
02861              -0.80    -3200.00
02862              -0.80    -3000.00
02863              -0.40    -2800.00
02864              -0.80    -2600.00
02865              -1.20    -2400.00
02866              -0.80    -2000.00
02867              -0.80    -2000.00
02868              -0.80    -1800.00
02869              -0.80    -1600.00
02870              -0.40    -1200.00
02871              -0.80    -1000.00
02872              -0.80    -1000.00
02873              -0.80     -800.00
02874              -0.40     -400.00
02875              -0.40     -200.00
02876              -0.40        0.00
02877              -0.40      400.00
02878               0.40      400.00
02879               2.00      600.00
02880              -0.40      800.00
02881              -0.80     1000.00
02882               1.20     1200.00
02883               0.40     1400.00
02884              -0.40     1800.00
02885               2.80     1800.00
02886              12.40     2200.00
02887              16.80     2400.00
02888             -26.00     2600.00
02889             -26.80     2800.00
02890               7.60     2800.00
02891              -0.40     3000.00
02892              42.40     3400.00
02893             -13.20     3600.00
02894             -50.00     3800.00
02895              50.00     4000.00
02896              30.00     4000.00
02897             -50.00     4400.00
02898              50.00     4800.00
02899              50.00     4600.00
02900             -50.00     5200.00
02901              29.20     5400.00
02902              32.80     5400.00
02903             -31.20     5600.00
02904              -4.40     6000.00
02905              10.40     6000.00
02906              16.40     6400.00
02907             -26.00     6400.00
02908              -7.20     6800.00
02909              41.20     6800.00
02910             -13.20     7000.00
02911             -24.80     7000.00
02912              15.60     7200.00
02913              18.80     7600.00
02914             -17.20     7800.00
02915             -15.60     8000.00
02916              28.40     8200.00
02917               0.80     8400.00
02918             -24.80     8400.00
02919              18.00     8600.00
02920              10.80     8600.00
02921             -23.60     9000.00
02922               6.00     9000.00
02923              20.40     9200.00
02924             -17.20     9400.00
02925              -4.40     9600.00
02926              18.40     9600.00
02927              -7.20     9800.00
02928              -7.20    10000.00
02929               7.20    10200.00
02930               2.40    10200.00
02931              -2.00    10400.00
02932              -0.80    10400.00
02933               4.00    10600.00
02934               0.80    10800.00
02935              -2.40    11000.00
02936               2.40    11000.00
02937               3.60    11200.00
02938              -4.00    11200.00
02939               1.20    11200.00
02940               6.00    11600.00
02941              -4.40    11600.00
02942              -0.80    11800.00
02943               6.80    12000.00
02944              -1.20    11800.00
02945              -2.80    12000.00
02946               6.00    12000.00
02947               0.80    12200.00
02948              -3.60    12400.00
02949               3.60    12600.00
02950               2.80    12600.00
02951              -2.40    12600.00
02952               2.00    12600.00
02953               4.40    12600.00
02954              -0.80    12600.00
02955              -0.40    12800.00
02956               2.80    13000.00
02957               1.60    12800.00
02958              -1.20    12800.00
02959               0.80    12800.00
02960               3.60    12800.00
02961               0.00    13200.00
02962               0.40    13000.00
02963               2.80    13200.00
02964               0.80    13000.00
02965              -0.80    13200.00
02966               2.40    13200.00
02967               2.00    13200.00
02968              -0.40    13200.00
02969               0.80    13400.00
02970               2.00    13200.00
02971               0.40    13200.00
02972               0.40    13200.00
02973               2.80    13400.00
02974               1.20    13200.00
02975               0.40    13200.00
02976               1.20    13200.00
02977               1.20    13200.00
02978               0.40    13200.00
02979               1.20    13200.00
02980               2.00    13000.00
02981               0.40    13000.00
02982               0.80    13200.00
02983               2.00    12800.00
02984               0.40    12800.00
02985               0.80    12800.00
02986               1.20    12800.00
02987               0.40    12600.00
02988               0.40    12600.00
02989               1.20    12600.00
02990               0.80    12600.00
02991               0.40    12600.00
02992               0.80    12600.00
02993               0.80    12400.00
02994               0.40    12200.00
02995               0.80    12200.00
02996               2.00    12400.00
02997               0.40    12000.00
02998               0.80    12000.00
02999               0.80    11800.00
03000               0.80    11600.00
03001               0.40    11800.00
03002               0.80    11400.00
03003               0.40    11600.00
03004              -0.40    11200.00
03005               0.80    11000.00
03006               0.80    11000.00
03007               0.80    11000.00
03008               0.80    10800.00
03009               0.80    10800.00
03010               0.80    10800.00
03011               0.40    10400.00
03012               0.40    10400.00
03013               0.80    10200.00
03014               0.80    10000.00
03015               0.40    10000.00
03016               0.80     9800.00
03017               0.40     9600.00
03018               1.20     9400.00
03019               0.40     9200.00
03020               0.40     9200.00
03021               1.60     9200.00
03022               0.00     8800.00
03023              -0.80     8800.00
03024               2.40     8600.00
03025               0.40     8400.00
03026              -0.40     8200.00
03027               2.00     8000.00
03028               0.80     8000.00
03029              -0.40     7800.00
03030               0.80     7400.00
03031               0.80     7200.00
03032               0.00     7200.00
03033               0.40     6800.00
03034               0.80     6800.00
03035              -0.40     6400.00
03036              -0.40     6400.00
03037               0.40     6200.00
03038               0.80     6000.00
03039               0.40     5600.00
03040               0.00     5600.00
03041               0.80     5400.00
03042               0.40     5200.00
03043              -0.40     5000.00
03044               0.40     4800.00
03045               0.40     4400.00
03046              -0.40     4200.00
03047               0.40     4000.00
03048               0.40     4000.00
03049              -0.40     3800.00
03050               0.40     3400.00
03051              -0.40     3600.00
03052              -0.40     3200.00
03053               0.40     3000.00
03054               0.40     2600.00
03055               0.00     2400.00
03056              -0.80     2400.00
03057              -0.40     2200.00
03058              -0.40     1800.00
03059              -0.80     1600.00
03060              -0.40     1400.00
03061              -0.40     1200.00
03062               0.00     1000.00
03063              -0.40      800.00
03064               0.40      600.00
03065              -0.40      400.00
03066              -0.80      200.00
03067              -0.40        0.00
03068              -0.80     -200.00
03069               0.80     -400.00
03070               1.20     -600.00
03071              -0.80     -800.00
03072              -1.20    -1000.00
03073               0.80    -1200.00
03074               0.40    -1400.00
03075              -0.80    -1600.00
03076               9.60    -1800.00
03077              29.60    -2400.00
03078             -31.20    -2600.00
03079             -34.80    -2800.00
03080               5.60    -2800.00
03081              16.40    -2800.00
03082              50.00    -3400.00
03083             -50.00    -3400.00
03084             -50.00    -3200.00
03085              50.00    -4000.00
03086             -50.00    -4200.00
03087             -50.00    -4000.00
03088              50.00    -4800.00
03089               3.60    -4400.00
03090             -50.00    -4800.00
03091              50.00    -5000.00
03092               8.40    -5000.00
03093             -50.00    -5600.00
03094              17.60    -5600.00
03095              -8.00    -5800.00
03096              38.80    -6200.00
03097             -47.20    -6000.00
03098             -16.80    -6400.00
03099              50.00    -6600.00
03100             -46.80    -6600.00
03101             -23.20    -7200.00
03102              34.80    -7000.00
03103               5.20    -7400.00
03104             -24.40    -7600.00
03105             -14.00    -7600.00
03106              46.00    -8000.00
03107             -22.80    -8200.00
03108             -26.80    -8400.00
03109              36.40    -8400.00
03110              -8.80    -8400.00
03111             -21.60    -9000.00
03112               8.40    -9000.00
03113              18.00    -9200.00
03114             -22.00    -9200.00
03115              -4.80    -9400.00
03116              23.60    -9600.00
03117             -20.40    -9800.00
03118              -2.80    -9800.00
03119               7.20   -10000.00
03120              -4.00   -10000.00
03121              -3.20   -10200.00
03122              -2.40   -10400.00
03123               5.60   -10600.00
03124              -6.80   -10600.00
03125              -2.80   -10800.00
03126               4.00   -11000.00
03127              -4.00   -11000.00
03128              -6.80   -11000.00
03129               5.20   -11200.00
03130               0.80   -11200.00
03131             -10.40   -11400.00
03132               2.80   -11600.00
03133               3.60   -11600.00
03134              -8.80   -12000.00
03135              -1.60   -12000.00
03136               7.20   -12000.00
03137              -6.80   -12200.00
03138              -5.60   -12200.00
03139               5.60   -12400.00
03140              -3.60   -12400.00
03141              -6.00   -12400.00
03142               1.60   -12400.00
03143               2.80   -12600.00
03144              -6.00   -12600.00
03145              -2.40   -12600.00
03146               3.60   -12800.00
03147              -3.60   -13000.00
03148              -5.20   -12800.00
03149               2.40   -12800.00
03150               0.80   -12800.00
03151              -5.60   -13000.00
03152               0.40   -13000.00
03153               1.20   -13200.00
03154              -4.00   -13000.00
03155              -2.40   -13200.00
03156               0.40   -13200.00
03157              -0.40   -13200.00
03158              -3.20   -13200.00
03159              -1.20   -13200.00
03160               0.40   -13200.00
03161              -2.80   -13200.00
03162              -2.00   -13200.00
03163               0.40   -13200.00
03164              -2.00   -13200.00
03165              -1.20   -13000.00
03166              -0.80   -13000.00
03167              -2.00   -13200.00
03168              -1.60   -13200.00
03169              -0.80   -13000.00
03170              -2.40   -13000.00
03171              -1.20   -13000.00
03172               0.40   -13200.00
03173              -3.20   -13000.00
03174              -2.40   -13000.00
03175               0.40   -12800.00
03176              -2.40   -13000.00
03177              -2.40   -12800.00
03178               0.40   -12800.00
03179              -1.20   -12800.00
03180              -2.80   -12600.00
03181              -1.20   -12600.00
03182              -0.80   -12600.00
03183              -2.00   -12400.00
03184              -2.00   -12400.00
03185              -0.80   -12200.00
03186              -1.60   -12200.00
03187              -2.40   -12000.00
03188              -1.20   -12000.00
03189              -1.20   -12000.00
03190              -2.40   -11600.00
03191              -1.60   -11800.00
03192              -0.80   -11600.00
03193              -1.20   -11400.00
03194              -2.00   -11400.00
03195              -1.20   -11400.00
03196              -0.80   -11000.00
03197              -2.00   -11000.00
03198              -2.00   -10800.00
03199              -0.40   -10800.00
03200              -1.20   -10600.00
03201              -2.40   -10400.00
03202              -0.80   -10400.00
03203              -0.80   -10000.00
03204              -2.00   -10200.00
03205              -0.80    -9800.00
03206              -0.80    -9800.00
03207              -1.20    -9800.00
03208              -1.20    -9400.00
03209              -0.40    -9400.00
03210              -0.80    -9200.00
03211              -0.80    -9200.00
03212              -1.60    -8800.00
03213              -0.80    -8800.00
03214              -0.80    -8600.00
03215              -2.00    -8600.00
03216              -0.40    -8200.00
03217               0.40    -8000.00
03218              -1.60    -8000.00
03219              -0.80    -7600.00
03220              -1.20    -7600.00
03221              -1.20    -7400.00
03222              -0.80    -7200.00
03223              -0.80    -6800.00
03224              -0.80    -6800.00
03225               0.40    -6600.00
03226              -0.80    -6400.00
03227               0.40    -6400.00
03228              -2.00    -6000.00
03229              -2.80    -5800.00
03230               4.00    -5800.00
03231             -10.00    -5600.00
03232               5.20    -5200.00
03233              -3.20    -5000.00
03234               4.00    -4800.00
03235               3.60    -4600.00
03236              -7.60    -4400.00
03237               1.20    -4400.00
03238              -2.80    -4000.00
03239              -1.20    -4000.00
03240              -2.80    -3600.00
03241               1.20    -3400.00
03242               2.80    -3400.00
03243              -0.80    -3000.00
03244              -0.80    -2800.00
03245               2.00    -2800.00
03246              -4.00    -2400.00
03247              -2.40    -2400.00
03248              -2.40    -2000.00
03249              -1.60    -1800.00
03250               3.60    -1600.00
03251               0.80    -1200.00
03252              -1.20    -1200.00
03253               0.40    -1000.00
03254              -1.20     -800.00
03255              -4.40     -600.00
03256               0.80     -200.00
03257              -0.40     -200.00
03258               0.40        0.00
03259               0.40      400.00
03260               2.00      600.00
03261               1.60      800.00
03262              -2.40     1000.00
03263              -0.40     1000.00
03264               0.40     1400.00
03265              -1.20     1400.00
03266               1.20     1800.00
03267               8.40     2000.00
03268              20.00     2400.00
03269              -8.40     2600.00
03270             -36.40     2800.00
03271               0.40     2800.00
03272               2.40     2800.00
03273              21.20     3200.00
03274              26.80     3600.00
03275             -50.00     3600.00
03276              34.40     4000.00
03277              50.00     4000.00
03278             -50.00     4200.00
03279             -18.80     4600.00
03280              50.00     4400.00
03281             -50.00     4800.00
03282             -26.00     5400.00
03283              50.00     5200.00
03284             -18.40     5600.00
03285             -16.80     6000.00
03286               6.80     6000.00
03287              20.00     6200.00
03288              -5.60     6400.00
03289             -29.60     6600.00
03290              31.60     6600.00
03291              15.20     7000.00
03292             -33.20     7200.00
03293               0.40     7200.00
03294              24.00     7600.00
03295              -2.00     7800.00
03296             -24.80     8000.00
03297              14.80     8200.00
03298              20.80     8200.00
03299             -25.20     8400.00
03300               0.80     8600.00
03301              22.00     8600.00
03302             -14.80     8800.00
03303             -10.40     8800.00
03304              23.60     9200.00
03305              -3.60     9400.00
03306             -17.20     9400.00
03307              16.80     9600.00
03308               3.60     9800.00
03309             -12.40    10000.00
03310               4.00    10000.00
03311               6.40    10200.00
03312              -2.00    10200.00
03313              -1.20    10400.00
03314               2.80    10600.00
03315               2.00    10800.00
03316              -2.80    10800.00
03317              -0.40    11000.00
03318               5.20    11000.00
03319              -1.60    11200.00
03320              -2.00    11200.00
03321               7.20    11400.00
03322              -0.40    11600.00
03323              -4.80    11600.00
03324               4.40    11800.00
03325               2.00    12000.00
03326              -4.80    12000.00
03327               4.00    12000.00
03328               4.40    12000.00
03329              -3.60    12200.00
03330               0.80    12400.00
03331               4.00    12400.00
03332              -2.00    12400.00
03333              -0.40    12400.00
03334               4.40    12600.00
03335               1.20    12600.00
03336              -0.80    12800.00
03337               2.00    12800.00
03338               2.00    12800.00
03339              -0.40    12800.00
03340              -1.20    12800.00
03341               3.60    13000.00
03342               2.40    13000.00
03343              -2.00    13200.00
03344               3.60    13000.00
03345               2.40    13200.00
03346              -2.40    13200.00
03347               1.20    13200.00
03348               2.80    13200.00
03349               0.40    13200.00
03350               1.20    13200.00
03351               2.00    13200.00
03352               0.40    13200.00
03353               0.40    13200.00
03354               1.60    13200.00
03355               2.00    13200.00
03356               0.00    13200.00
03357               2.00    13200.00
03358               2.00    13200.00
03359               0.80    13200.00
03360               0.00    13200.00
03361               0.80    12800.00
03362               2.00    13200.00
03363               0.80    13000.00
03364               0.40    13000.00
03365               1.60    12800.00
03366               1.20    12800.00
03367               1.20    12800.00
03368               0.80    12800.00
03369               2.00    12800.00
03370               1.20    12800.00
03371              -0.40    12600.00
03372               0.80    12600.00
03373               1.60    12600.00
03374              -0.40    12400.00
03375              -0.40    12400.00
03376               2.00    12400.00
03377               2.00    12200.00
03378              -0.40    12200.00
03379               0.80    12000.00
03380               1.20    12000.00
03381               0.40    11800.00
03382               1.60    11800.00
03383               1.20    11600.00
03384              -0.80    11400.00
03385               0.40    11200.00
03386               0.80    11200.00
03387               0.40    11000.00
03388               1.20    11000.00
03389               1.20    11000.00
03390               0.40    10800.00
03391               0.80    10800.00
03392               0.40    10400.00
03393               0.40    10400.00
03394               0.80    10200.00
03395               0.80    10000.00
03396               0.40    10000.00
03397               0.40     9600.00
03398               0.80     9600.00
03399               0.40     9600.00
03400               0.80     9200.00
03401               1.20     9200.00
03402               0.80     9200.00
03403              -0.40     9000.00
03404               0.40     8600.00
03405               0.80     8600.00
03406              -0.40     8600.00
03407               0.80     8200.00
03408               1.20     8200.00
03409               0.80     7800.00
03410               0.40     7800.00
03411               1.20     7800.00
03412               0.00     7200.00
03413               0.00     7200.00
03414               1.20     7000.00
03415               1.20     6800.00
03416               0.40     6800.00
03417               0.80     6400.00
03418               0.40     6400.00
03419              -0.40     6000.00
03420               0.40     6000.00
03421               0.40     5600.00
03422              -0.40     5600.00
03423               0.80     5200.00
03424               0.80     5200.00
03425               0.40     4800.00
03426               0.40     4600.00
03427               0.00     4400.00
03428               0.40     4400.00
03429               0.40     4000.00
03430               0.40     3800.00
03431              -0.40     3600.00
03432               0.40     3200.00
03433               0.40     3200.00
03434              -0.80     3000.00
03435              -0.80     2800.00
03436               0.40     2800.00
03437              -0.40     2400.00
03438              -0.40     2200.00
03439               0.40     2000.00
03440              -0.40     1800.00
03441              -0.40     1600.00
03442              -0.80     1400.00
03443              -0.40     1200.00
03444              -0.40      800.00
03445              -0.80      800.00
03446               0.40      400.00
03447              -0.40      200.00
03448              -0.40        0.00
03449              -0.80     -200.00
03450               0.40     -400.00
03451               1.20     -400.00
03452              -1.20     -800.00
03453              -1.20    -1000.00
03454               0.80    -1200.00
03455               0.00    -1400.00
03456              -1.60    -1600.00
03457               3.60    -1800.00
03458              28.40    -2000.00
03459              -5.60    -2400.00
03460             -48.80    -2800.00
03461              -4.00    -2800.00
03462               2.00    -2600.00
03463              50.00    -3000.00
03464               2.40    -3600.00
03465             -50.00    -3200.00
03466              50.00    -3600.00
03467              50.00    -4200.00
03468             -50.00    -4000.00
03469              50.00    -4400.00
03470              50.00    -4800.00
03471             -50.00    -4400.00
03472              27.60    -5000.00
03473              50.00    -5000.00
03474             -50.00    -5200.00
03475               6.40    -5600.00
03476              -5.20    -5600.00
03477              23.60    -6000.00
03478              -0.40    -6000.00
03479             -50.00    -6200.00
03480              50.00    -6600.00
03481               6.00    -6400.00
03482             -50.00    -6800.00
03483              26.40    -7200.00
03484              18.00    -7200.00
03485             -12.40    -7600.00
03486             -31.60    -7600.00
03487              30.80    -7800.00
03488              16.80    -8000.00
03489             -47.60    -8200.00
03490              23.20    -8400.00
03491              15.60    -8400.00
03492             -25.20    -8800.00
03493              -5.20    -9000.00
03494              20.00    -8800.00
03495              -4.40    -9200.00
03496             -22.80    -9200.00
03497              24.40    -9600.00
03498              -4.40    -9600.00
03499             -16.80    -9800.00
03500              10.40   -10000.00
03501              -1.20   -10000.00
03502              -2.80   -10200.00
03503              -4.80   -10400.00
03504               4.40   -10400.00
03505              -1.20   -10600.00
03506              -7.60   -10600.00
03507               4.00   -10800.00
03508               0.80   -11000.00
03509              -7.60   -11200.00
03510               0.40   -11200.00
03511               5.60   -11400.00
03512              -8.00   -11400.00
03513              -3.60   -11600.00
03514               6.00   -11800.00
03515              -5.20   -11600.00
03516              -7.20   -12000.00
03517               5.60   -12200.00
03518              -0.40   -12000.00
03519              -8.80   -12200.00
03520               2.80   -12400.00
03521               2.00   -12400.00
03522              -7.60   -12400.00
03523              -2.40   -12400.00
03524               4.00   -12400.00
03525              -2.80   -12800.00
03526              -5.60   -12600.00
03527               2.00   -12800.00
03528              -1.20   -12800.00
03529              -5.60   -13000.00
03530              -0.80   -12800.00
03531               2.40   -13000.00
03532              -3.60   -12800.00
03533              -3.60   -13200.00
03534               1.20   -13000.00
03535              -2.40   -13000.00
03536              -4.00   -13200.00
03537               0.00   -13000.00
03538               0.40   -13200.00
03539              -2.40   -13200.00
03540              -2.40   -13200.00
03541              -0.40   -13200.00
03542              -2.00   -13200.00
03543              -2.40   -13200.00
03544              -1.20   -13200.00
03545              -1.20   -13200.00
03546              -1.20   -13200.00
03547              -2.40   -13200.00
03548              -1.20   -13200.00
03549              -0.80   -13200.00
03550              -2.40   -13000.00
03551              -1.20   -13000.00
03552              -0.40   -13000.00
03553              -2.00   -13200.00
03554              -2.00   -13000.00
03555              -1.20   -13000.00
03556              -1.20   -13000.00
03557              -1.20   -12800.00
03558              -0.80   -12800.00
03559              -1.20   -12800.00
03560              -2.00   -12800.00
03561              -1.20   -12600.00
03562              -1.60   -12800.00
03563              -1.20   -12400.00
03564              -1.20   -12400.00
03565              -1.20   -12400.00
03566              -1.60   -12200.00
03567              -1.20   -12400.00
03568              -1.20   -12200.00
03569              -2.40   -12000.00
03570              -1.20   -12000.00
03571              -0.80   -11800.00
03572              -2.00   -11600.00
03573              -2.00   -11600.00
03574              -0.80   -11400.00
03575              -2.00   -11400.00
03576              -2.40   -11000.00
03577              -0.80   -11200.00
03578              -1.20   -10800.00
03579              -2.40   -10800.00
03580              -1.60   -10600.00
03581              -0.40   -10800.00
03582              -1.20   -10600.00
03583              -2.00   -10400.00
03584              -1.20   -10400.00
03585              -0.80   -10000.00
03586              -1.20   -10000.00
03587              -2.40   -10000.00
03588              -2.00    -9800.00
03589              -0.40    -9600.00
03590              -0.80    -9400.00
03591              -2.00    -9200.00
03592              -1.20    -9000.00
03593              -0.40    -9000.00
03594              -1.20    -8800.00
03595              -2.00    -8800.00
03596              -0.80    -8400.00
03597              -1.20    -8400.00
03598              -1.20    -8000.00
03599              -0.80    -8200.00
03600              -1.20    -7800.00
03601              -1.20    -7600.00
03602              -1.20    -7400.00
03603              -1.20    -7200.00
03604              -1.20    -7000.00
03605              -0.40    -6800.00
03606              -0.40    -6800.00
03607              -1.20    -6600.00
03608              -0.80    -6400.00
03609              -0.80    -6400.00
03610              -1.20    -6000.00
03611              -0.80    -5800.00
03612              -0.40    -5600.00
03613              -0.40    -5400.00
03614              -0.80    -5200.00
03615              -0.80    -5000.00
03616              -0.40    -4600.00
03617              -0.80    -4600.00
03618              -1.20    -4200.00
03619               0.00    -4200.00
03620              -0.80    -4000.00
03621              -0.80    -3800.00
03622              -0.40    -3600.00
03623              -0.40    -3400.00
03624              -0.40    -3200.00
03625              -0.40    -2800.00
03626              -0.80    -2600.00
03627              -0.40    -2600.00
03628              -0.40    -2400.00
03629              -0.40    -2200.00
03630              -0.40    -1800.00
03631              -0.80    -1800.00
03632              -0.40    -1600.00
03633              -0.80    -1200.00
03634              -1.20    -1200.00
03635              -0.80     -800.00
03636               0.00     -600.00
03637              -0.80     -400.00
03638              -0.40     -200.00
03639              -0.40        0.00
03640              -0.80      200.00
03641               0.80      400.00
03642               0.80      600.00
03643              -1.20      800.00
03644               0.00      800.00
03645               1.20     1200.00
03646              -0.40     1400.00
03647              -0.80     1800.00
03648               3.60     1800.00
03649              15.60     2200.00
03650              10.40     2600.00
03651             -33.20     2800.00
03652             -17.20     2800.00
03653               6.80     2800.00
03654               1.60     3200.00
03655              45.60     3400.00
03656             -40.80     3600.00
03657             -46.00     3800.00
03658              50.00     4000.00
03659             -24.00     4000.00
03660             -50.00     4600.00
03661              50.00     4400.00
03662              10.80     4600.00
03663             -50.00     5200.00
03664              49.20     5200.00
03665              13.60     5400.00
03666             -29.20     5800.00
03667               0.40     5800.00
03668              13.60     6000.00
03669              10.40     6200.00
03670             -34.00     6400.00
03671               8.80     6800.00
03672              37.20     6800.00
03673             -25.20     7200.00
03674             -16.00     7200.00
03675              21.20     7200.00
03676              12.80     7600.00
03677             -22.00     7800.00
03678              -5.60     8000.00
03679              30.00     8200.00
03680             -11.20     8400.00
03681             -18.00     8400.00
03682              24.00     8400.00
03683               0.80     8600.00
03684             -22.80     9200.00
03685              15.20     9000.00
03686              13.60     9400.00
03687             -20.40     9400.00
03688               5.20     9600.00
03689              14.80     9800.00
03690             -10.80     9800.00
03691              -2.40    10000.00
03692               7.20    10200.00
03693               0.40    10200.00
03694              -2.40    10400.00
03695               0.40    10400.00
03696               4.40    10600.00
03697              -1.20    10800.00
03698              -3.20    10800.00
03699               4.40    11000.00
03700               2.00    11200.00
03701              -5.20    11200.00
03702               4.00    11200.00
03703               4.40    11400.00
03704              -6.00    11600.00
03705               1.60    11800.00
03706               6.00    11800.00
03707              -4.00    12000.00
03708              -0.80    12000.00
03709               6.40    12000.00
03710              -1.20    12200.00
03711              -2.40    12200.00
03712               4.40    12400.00
03713               0.80    12400.00
03714              -3.20    12600.00
03715               3.20    12600.00
03716               3.60    12600.00
03717              -1.60    12800.00
03718               0.40    12800.00
03719               3.20    13000.00
03720               0.40    12800.00
03721              -1.20    13000.00
03722               2.40    13000.00
03723               2.80    13000.00
03724              -0.80    13200.00
03725               0.80    13000.00
03726               2.40    13200.00
03727              -0.40    13200.00
03728              -0.40    13200.00
03729               2.80    13200.00
03730               1.20    13200.00
03731              -1.20    13200.00
03732               2.40    13200.00
03733               2.40    13200.00
03734              -1.20    13200.00
03735               1.60    13200.00
03736               2.80    13200.00
03737               0.40    13200.00
03738               0.80    13200.00
03739               2.00    13200.00
03740               0.80    13200.00
03741               0.80    13200.00
03742               1.20    13200.00
03743               0.80    13000.00
03744               0.80    13000.00
03745               1.20    12800.00
03746               0.80    13000.00
03747               1.20    12800.00
03748               0.80    12800.00
03749               0.80    12800.00
03750               1.20    12800.00
03751               0.80    12600.00
03752               1.20    12600.00
03753               0.80    12600.00
03754               0.80    12400.00
03755               0.80    12400.00
03756               1.60    12400.00
03757               0.80    12400.00
03758               0.80    12200.00
03759               0.40    12200.00
03760               0.80    12000.00
03761               0.80    11800.00
03762               0.80    11800.00
03763               0.80    11800.00
03764               0.80    11600.00
03765               0.80    11600.00
03766               0.80    11600.00
03767               0.80    11200.00
03768               0.40    11200.00
03769               0.80    11000.00
03770               0.80    11000.00
03771               0.80    10800.00
03772               0.40    10600.00
03773               0.40    10800.00
03774               0.80    10400.00
03775               0.40    10200.00
03776               0.40    10000.00
03777               1.20    10000.00
03778               0.00    10000.00
03779               0.40     9600.00
03780               0.80     9600.00
03781               0.40     9400.00
03782               0.80     9200.00
03783               0.80     9200.00
03784               0.40     9000.00
03785              -0.40     8800.00
03786               0.80     8600.00
03787               0.40     8600.00
03788               0.40     8400.00
03789               0.80     8400.00
03790               0.40     8000.00
03791               0.40     7800.00
03792               0.80     7600.00
03793              -0.40     7400.00
03794               0.40     7400.00
03795               0.80     7000.00
03796               0.80     7000.00
03797               0.00     6800.00
03798               0.40     6600.00
03799               0.80     6200.00
03800              -0.40     6200.00
03801               0.00     6000.00
03802               0.80     5800.00
03803               0.40     5600.00
03804               0.40     5400.00
03805               0.80     5400.00
03806               0.00     5000.00
03807              -0.40     4800.00
03808               0.40     4400.00
03809               0.40     4400.00
03810              -0.40     4000.00
03811               0.40     3800.00
03812               0.40     3800.00
03813               0.40     3600.00
03814               0.40     3200.00
03815               0.40     3200.00
03816              -0.40     2800.00
03817               0.40     2600.00
03818              -0.40     2400.00
03819              -0.40     2200.00
03820               0.40     2000.00
03821              -0.40     2000.00
03822              -0.40     1600.00
03823               0.40     1600.00
03824              -0.40     1200.00
03825              -0.40     1000.00
03826               0.00      800.00
03827              -0.40      400.00
03828              -0.40      400.00
03829              -0.40      200.00
03830               0.00     -200.00
03831              -0.40     -400.00
03832               1.20     -400.00
03833               0.80     -800.00
03834              -2.00     -800.00
03835              -0.40    -1000.00
03836               0.40    -1200.00
03837              -1.20    -1600.00
03838               0.40    -1600.00
03839              15.60    -2000.00
03840              20.00    -2600.00
03841             -41.20    -2600.00
03842             -23.20    -2800.00
03843               5.20    -2800.00
03844              32.80    -2800.00
03845              48.40    -3600.00
03846             -50.00    -3200.00
03847               4.00    -3200.00
03848              50.00    -4000.00
03849             -50.00    -4000.00
03850             -50.00    -4000.00
03851              50.00    -4800.00
03852             -50.00    -4400.00
03853             -50.00    -4600.00
03854              50.00    -5200.00
03855             -28.40    -5000.00
03856             -30.80    -5800.00
03857              10.40    -5600.00
03858               0.80    -5800.00
03859              33.20    -6400.00
03860             -50.00    -6000.00
03861              17.20    -6600.00
03862              50.00    -6600.00
03863             -50.00    -6800.00
03864              -2.00    -7200.00
03865              31.20    -7200.00
03866              -0.80    -7400.00
03867             -31.20    -7600.00
03868               0.80    -7800.00
03869              44.00    -8000.00
03870             -39.60    -8000.00
03871              -8.80    -8400.00
03872              34.00    -8400.00
03873             -18.40    -8600.00
03874             -17.20    -9000.00
03875              14.80    -8800.00
03876              12.80    -9200.00
03877             -27.20    -9200.00
03878               7.60    -9400.00
03879              16.40    -9600.00
03880             -23.20    -9600.00
03881               4.00   -10000.00
03882               4.40    -9800.00
03883              -2.80   -10200.00
03884              -4.40   -10400.00
03885              -0.40   -10400.00
03886               4.80   -10600.00
03887              -8.00   -10600.00
03888              -0.40   -10800.00
03889               4.00   -10800.00
03890              -5.60   -11200.00
03891              -4.40   -11200.00
03892               6.80   -11200.00
03893              -2.80   -11400.00
03894              -8.80   -11400.00
03895               5.20   -11600.00
03896               0.80   -11800.00
03897             -10.00   -11800.00
03898               0.80   -12000.00
03899               5.60   -12000.00
03900              -8.80   -12200.00
03901              -2.40   -12200.00
03902               5.20   -12400.00
03903              -5.60   -12200.00
03904              -5.60   -12400.00
03905               3.60   -12400.00
03906               0.80   -12600.00
03907              -6.00   -12600.00
03908               0.00   -12800.00
03909               1.60   -12800.00
03910              -4.40   -12800.00
03911              -4.00   -12800.00
03912               2.00   -13000.00
03913              -0.40   -13000.00
03914              -5.60   -13000.00
03915               0.40   -12800.00
03916               0.80   -13200.00
03917              -4.40   -13000.00
03918              -2.40   -13000.00
03919               1.20   -13000.00
03920              -1.20   -13200.00
03921              -3.60   -13200.00
03922              -0.40   -13000.00
03923              -0.40   -13200.00
03924              -3.60   -13200.00
03925              -1.20   -13200.00
03926              -0.40   -13200.00
03927              -1.60   -13200.00
03928              -2.00   -13200.00
03929              -0.80   -13200.00
03930              -1.20   -13000.00
03931              -2.00   -13200.00
03932              -1.20   -13200.00
03933              -1.20   -13200.00
03934              -1.20   -13000.00
03935              -1.20   -13000.00
03936              -2.00   -13000.00
03937              -1.20   -13000.00
03938              -1.20   -12800.00
03939              -2.00   -12800.00
03940              -1.20   -12800.00
03941              -1.20   -12800.00
03942              -1.60   -12800.00
03943              -1.20   -12600.00
03944              -1.20   -12400.00
03945              -1.20   -12400.00
03946              -1.20   -12400.00
03947              -2.00   -12400.00
03948              -0.80   -12200.00
03949              -0.80   -12200.00
03950              -2.00   -12000.00
03951              -1.20   -12000.00
03952              -0.40   -11800.00
03953              -1.20   -11800.00
03954              -2.40   -11600.00
03955              -1.20   -11600.00
03956              -1.20   -11400.00
03957              -1.60   -11000.00
03958              -2.00   -11000.00
03959              -0.80   -11000.00
03960              -1.20   -10800.00
03961              -2.40   -10800.00
03962              -1.20   -10800.00
03963              -0.40   -10400.00
03964              -2.80   -10600.00
03965              -1.20   -10200.00
03966               0.80   -10400.00
03967              -2.40   -10000.00
03968              -2.80   -10000.00
03969               0.00    -9800.00
03970              -1.20    -9600.00
03971              -2.80    -9400.00
03972              -2.00    -9400.00
03973              -0.40    -9200.00
03974              -1.20    -9200.00
03975              -2.00    -8800.00
03976              -1.20    -8800.00
03977              -1.20    -8400.00
03978              -2.00    -8400.00
03979              -1.20    -8200.00
03980               0.40    -8000.00
03981              -1.20    -8000.00
03982              -0.80    -7800.00
03983              -1.20    -7600.00
03984              -1.20    -7400.00
03985              -1.20    -7200.00
03986              -0.80    -7000.00
03987              -0.40    -6800.00
03988              -0.80    -6600.00
03989              -2.00    -6600.00
03990              -1.20    -6200.00
03991              -0.80    -6000.00
03992              -1.20    -5800.00
03993              -0.40    -5600.00
03994               0.40    -5600.00
03995              -1.20    -5200.00
03996              -1.20    -5000.00
03997              -0.80    -4600.00
03998              -1.20    -4400.00
03999              -1.20    -4400.00
04000              -0.40    -4000.00
04001              -0.40    -4000.00
04002              -0.80    -3800.00
04003              -0.80    -3600.00
04004              -0.40    -3400.00
04005              -0.80    -3200.00
04006              -0.80    -2800.00
04007              -0.80    -2800.00
04008               0.40    -2600.00
04009              -0.80    -2400.00
04010              -0.80    -2200.00
04011              -0.40    -2000.00
04012              -0.40    -1800.00
04013              -0.40    -1600.00
04014              -0.40    -1200.00
04015              -0.40    -1000.00
04016              -0.40     -800.00
04017              -0.40     -600.00
04018              -0.40     -400.00
04019              -0.40     -200.00
04020              -0.40        0.00
04021              -0.40        0.00
04022               0.40      400.00
04023               1.60      400.00
04024              -0.40      800.00
04025              -2.00     1000.00
04026               0.40     1200.00
04027               2.00     1400.00
04028              -1.20     1600.00
04029               0.80     1800.00
04030              10.00     2200.00
04031              19.60     2400.00
04032             -19.20     2600.00
04033             -32.80     2800.00
04034               5.60     2800.00
04035              -0.40     3000.00
04036              33.60     3400.00
04037               7.20     3400.00
04038             -50.00     3600.00
04039              50.00     4000.00
04040              50.00     4000.00
04041             -50.00     4200.00
04042              28.40     4600.00
04043              50.00     4600.00
04044             -50.00     5000.00
04045               5.60     5400.00
04046              46.80     5400.00
04047             -29.60     5600.00
04048             -10.00     5800.00
04049               8.40     6000.00
04050              18.80     6200.00
04051             -17.20     6400.00
04052             -18.80     6600.00
04053              40.00     6800.00
04054              -1.20     7000.00
04055             -30.80     7000.00
04056              10.00     7200.00
04057              22.80     7600.00
04058             -12.00     7600.00
04059             -21.60     8200.00
04060              24.40     8200.00
04061               9.20     8400.00
04062             -26.80     8400.00
04063              12.40     8400.00
04064              16.80     8800.00
04065             -20.80     9000.00
04066              -0.80     9000.00
04067              22.80     9200.00
04068             -12.00     9400.00
04069             -10.40     9400.00
04070              18.80     9600.00
04071              -2.40     9800.00
04072             -10.00    10000.00
04073               6.40    10000.00
04074               4.40    10200.00
04075              -2.40    10200.00
04076              -1.20    10400.00
04077               4.80    10400.00
04078               2.00    10600.00
04079              -4.00    11000.00
04080               2.40    10800.00
04081               5.20    11200.00
04082              -4.40    11200.00
04083              -0.40    11200.00
04084               8.40    11200.00
04085              -2.40    11600.00
04086              -4.00    11600.00
04087               6.80    12000.00
04088               0.40    11800.00
04089              -5.20    12000.00
04090               5.60    12000.00
04091               2.80    12200.00
04092              -4.40    12000.00
04093               2.80    12400.00
04094               4.00    12400.00
04095              -2.40    12400.00
04096               0.40    12600.00
04097               4.00    12800.00
04098               0.00    12600.00
04099              -0.80    12800.00
04100               2.00    12800.00
04101               1.60    13000.00
04102              -1.20    12800.00
04103               0.40    13000.00
04104               3.60    13000.00
04105               0.40    13000.00
04106              -0.40    13000.00
04107               2.40    13200.00
04108               0.80    13000.00
04109              -0.80    13200.00
04110               1.20    13200.00
04111               2.80    13200.00
04112              -0.40    13200.00
04113               0.40    13200.00
04114               3.60    13200.00
04115               0.40    13200.00
04116              -0.40    13200.00
04117               2.80    13200.00
04118               0.80    13000.00
04119               0.00    13200.00
04120               2.00    13200.00
04121               1.20    13200.00
04122               0.40    13200.00
04123               1.20    13200.00
04124               2.00    13200.00
04125               0.40    13200.00
04126               0.80    13000.00
04127               1.60    12800.00
04128               0.40    12800.00
04129               0.80    12800.00
04130               0.80    12800.00
04131               0.80    12800.00
04132               2.00    12800.00
04133               0.40    12800.00
04134               1.20    12600.00
04135               1.20    12600.00
04136               1.20    12400.00
04137               1.20    12400.00
04138               0.80    12400.00
04139               0.40    12200.00
04140               1.20    12200.00
04141               0.80    12000.00
04142               0.80    12000.00
04143               1.20    11800.00
04144               0.80    11800.00
04145               0.80    11800.00
04146               0.80    11600.00
04147               0.80    11400.00
04148               0.80    11200.00
04149               0.80    11000.00
04150               0.80    11000.00
04151               0.80    10800.00
04152               0.40    10800.00
04153               0.40    10800.00
04154               0.80    10600.00
04155               0.80    10400.00
04156               0.40    10400.00
04157               0.80    10200.00
04158               0.40    10200.00
04159              -0.40    10000.00
04160               0.80     9800.00
04161               0.80     9600.00
04162               0.40     9400.00
04163               0.40     9400.00
04164               0.80     9200.00
04165               0.80     9200.00
04166               0.40     8800.00
04167               0.40     8800.00
04168               0.80     8400.00
04169               0.40     8400.00
04170               0.40     8200.00
04171               0.80     8000.00
04172               0.40     8000.00
04173               0.40     7800.00
04174               0.40     7600.00
04175               0.40     7200.00
04176               0.40     7200.00
04177               0.40     7000.00
04178               0.40     6800.00
04179               0.80     6600.00
04180               0.00     6400.00
04181               0.40     6200.00
04182               0.80     6000.00
04183               0.00     6000.00
04184              -0.40     5600.00
04185               0.80     5400.00
04186               0.40     5400.00
04187               0.40     5000.00
04188               0.80     4800.00
04189               0.00     4800.00
04190              -0.40     4400.00
04191               0.40     4200.00
04192               0.40     4000.00
04193               0.00     3800.00
04194               0.00     3600.00
04195               0.40     3400.00
04196               0.00     3200.00
04197              -0.40     3200.00
04198               0.00     2800.00
04199               0.40     2800.00
04200              -0.40     2200.00
04201              -0.80     2200.00
04202               0.40     2000.00
04203               0.00     1800.00
04204               0.40     1600.00
04205              -0.40     1400.00
04206              -0.40     1200.00
04207               0.40      800.00
04208              -0.40      600.00
04209              -0.80      400.00
04210               0.40      200.00
04211               0.40        0.00
04212              -0.80     -200.00
04213               0.80     -400.00
04214               1.20     -600.00
04215              -1.60     -800.00
04216              -0.80    -1000.00
04217               0.80    -1200.00
04218              -0.80    -1600.00
04219              -0.80    -1600.00
04220               6.00    -2000.00
04221              31.20    -2400.00
04222             -20.00    -2600.00
04223             -44.00    -2800.00
04224               2.00    -2800.00
04225               7.20    -2600.00
04226              50.00    -3000.00
04227             -41.60    -3600.00
04228             -50.00    -3200.00
04229              50.00    -4000.00
04230              14.80    -4200.00
04231             -50.00    -4000.00
04232              50.00    -4400.00
04233              50.00    -4600.00
04234             -50.00    -4400.00
04235              50.00    -5000.00
04236              44.00    -5000.00
04237             -50.00    -5400.00
04238              15.60    -5800.00
04239              -9.20    -5800.00
04240              34.80    -6000.00
04241             -27.60    -6000.00
04242             -39.60    -6200.00
04243              50.00    -6800.00
04244             -25.60    -6600.00
04245             -40.40    -7200.00
04246              33.60    -7200.00
04247              10.80    -7400.00
04248             -20.00    -7800.00
04249             -24.80    -7600.00
04250              42.40    -8000.00
04251              -5.60    -8000.00
04252             -39.60    -8200.00
04253              34.00    -8400.00
04254               2.00    -8400.00
04255             -23.60    -8800.00
04256               2.40    -9000.00
04257              20.40    -9000.00
04258             -15.20    -9200.00
04259             -14.40    -9400.00
04260              26.80    -9600.00
04261             -13.60    -9600.00
04262              -9.20    -9800.00
04263               9.20   -10000.00
04264              -2.40   -10000.00
04265              -2.40   -10200.00
04266              -3.60   -10400.00
04267               6.00   -10600.00
04268              -4.40   -10600.00
04269              -6.00   -10800.00
04270               4.40   -11000.00
04271              -1.20   -11000.00
04272              -7.60   -11200.00
04273               3.60   -11000.00
04274               4.00   -11400.00
04275              -9.60   -11400.00
04276               0.40   -11600.00
04277               5.60   -11600.00
04278              -7.60   -12000.00
04279              -4.40   -12000.00
04280               7.20   -12000.00
04281              -3.60   -12000.00
04282              -7.20   -12200.00
04283               5.20   -12400.00
04284              -1.20   -12400.00
04285              -7.60   -12400.00
04286               0.40   -12400.00
04287               3.60   -12600.00
04288              -5.20   -12600.00
04289              -3.60   -12800.00
04290               2.80   -12800.00
04291              -2.40   -12800.00
04292              -5.20   -12800.00
04293              -0.40   -13000.00
04294               1.20   -13000.00
04295              -4.40   -13000.00
04296              -2.40   -13000.00
04297               1.60   -13000.00
04298              -2.80   -13200.00
04299              -3.60   -13200.00
04300              -0.40   -13000.00
04301               0.00   -13200.00
04302              -2.80   -13200.00
04303              -2.40   -13000.00
04304              -0.40   -13200.00
04305              -2.40   -13200.00
04306              -3.60   -13200.00
04307              -0.80   -13200.00
04308              -0.40   -13200.00
04309              -2.40   -13200.00
04310              -2.40   -13000.00
04311              -0.40   -13000.00
04312              -1.60   -13000.00
04313              -2.80   -13200.00
04314              -0.80   -13200.00
04315              -0.40   -13000.00
04316              -2.40   -13200.00
04317              -2.00   -13000.00
04318              -0.80   -13000.00
04319              -1.20   -13000.00
04320              -2.00   -12800.00
04321              -0.80   -12800.00
04322              -1.20   -12800.00
04323              -2.00   -12600.00
04324              -1.20   -12800.00
04325              -1.60   -12600.00
04326              -2.00   -12400.00
04327              -1.20   -12400.00
04328              -1.20   -12200.00
04329              -1.20   -12200.00
04330              -1.20   -12200.00
04331              -2.00   -12000.00
04332              -1.20   -12000.00
04333              -0.80   -12000.00
04334              -1.20   -11600.00
04335              -1.20   -11800.00
04336              -1.20   -11600.00
04337              -0.80   -11400.00
04338              -1.20   -11400.00
04339              -2.00   -11200.00
04340              -0.40   -11000.00
04341              -1.20   -11000.00
04342              -2.00   -11000.00
04343              -1.20   -10800.00
04344              -0.80   -10600.00
04345              -2.40   -10600.00
04346              -1.20   -10400.00
04347              -0.80   -10200.00
04348              -1.20   -10000.00
04349              -2.00   -10000.00
04350              -1.20    -9800.00
04351              -1.20    -9800.00
04352              -2.00    -9600.00
04353              -1.20    -9400.00
04354              -0.80    -9200.00
04355              -1.20    -9200.00
04356              -2.00    -9000.00
04357              -0.80    -9000.00
04358              -0.80    -8600.00
04359              -2.00    -8600.00
04360              -1.20    -8200.00
04361              -0.40    -8200.00
04362              -1.20    -8200.00
04363              -1.20    -7600.00
04364              -1.20    -7600.00
04365              -1.20    -7400.00
04366              -0.80    -7400.00
04367              -1.20    -7200.00
04368              -1.20    -6800.00
04369               0.40    -6600.00
04370              -1.20    -6600.00
04371              -1.20    -6400.00
04372              -0.40    -6000.00
04373              -1.20    -6000.00
04374              -2.00    -5800.00
04375              -0.40    -5600.00
04376              -0.40    -5400.00
04377              -1.60    -5200.00
04378              -0.80    -5000.00
04379              -0.40    -4600.00
04380              -1.20    -4400.00
04381              -1.60    -4400.00
04382               0.40    -4200.00
04383              -0.80    -4000.00
04384              -2.00    -3800.00
04385              -0.40    -3600.00
04386              -0.40    -3200.00
04387              -1.20    -3200.00
04388              -0.40    -2800.00
04389              -0.40    -2800.00
04390              -0.80    -2400.00
04391              -0.80    -2400.00
04392              -0.80    -2000.00
04393              -0.40    -1800.00
04394              -0.40    -1600.00
04395              -0.40    -1600.00
04396              -0.40    -1200.00
04397              -0.40    -1000.00
04398              -0.40     -800.00
04399              -0.80     -400.00
04400              -0.40     -400.00
04401              -0.40     -200.00
04402               0.40        0.00
04403              -0.80      200.00
04404               2.80      400.00
04405              -0.40      600.00
04406              -2.40      800.00
04407               2.40     1000.00
04408               0.80     1600.00
04409              -1.60     1400.00
04410               2.00     1800.00
04411               4.40     2000.00
04412              17.60     2400.00
04413               2.00     2400.00
04414             -36.40     2800.00
04415              -7.60     2800.00
04416               5.60     2800.00
04417              10.40     3200.00
04418              38.00     3600.00
04419             -50.00     3400.00
04420              -2.80     4200.00
04421              50.00     4000.00
04422             -50.00     4000.00
04423             -50.00     4600.00
04424              50.00     4400.00
04425             -33.20     4800.00
04426             -50.00     5200.00
04427              50.00     5200.00
04428              -5.60     5400.00
04429             -22.80     5600.00
04430               4.00     5600.00
04431              17.60     6000.00
04432               2.00     6200.00
04433             -34.80     6600.00
04434              22.00     6800.00
04435              26.40     6800.00
04436             -32.40     7000.00
04437              -7.60     7200.00
04438              23.20     7400.00
04439               4.40     7800.00
04440             -24.40     7800.00
04441               5.60     8000.00
04442              26.80     8200.00
04443             -20.40     8400.00
04444              -8.00     8400.00
04445              24.80     8600.00
04446              -8.80     8800.00
04447             -17.20     9000.00
04448              21.20     9200.00
04449               4.40     9400.00
04450             -20.00     9400.00
04451              12.40     9600.00
04452               9.60     9600.00
04453             -12.40    10000.00
04454               1.20    10000.00
04455               7.20    10200.00
04456              -0.80    10200.00
04457              -2.00    10600.00
04458               2.40    10400.00
04459               3.60    10800.00
04460              -2.00    10800.00
04461              -0.80    11000.00
04462               5.20    11000.00
04463              -0.40    11200.00
04464              -3.60    11200.00
04465               6.80    11200.00
04466               2.40    11400.00
04467              -6.00    11600.00
04468               4.40    12000.00
04469               4.40    12000.00
04470              -5.20    12000.00
04471               1.60    12000.00
04472               6.40    12000.00
04473              -2.40    12200.00
04474              -1.20    12200.00
04475               5.20    12400.00
04476              -0.40    12400.00
04477              -2.00    12600.00
04478               3.60    12600.00
04479               1.20    12600.00
04480              -0.80    12600.00
04481               1.60    12800.00
04482               1.60    12800.00
04483               0.40    12800.00
04484              -0.80    12800.00
04485               2.40    13000.00
04486               2.00    12800.00
04487              -1.20    13000.00
04488               2.00    13200.00
04489               2.80    13200.00
04490              -1.20    13200.00
04491               0.80    13000.00
04492               2.40    13200.00
04493              -0.40    13200.00
04494               0.80    13200.00
04495               2.00    13200.00
04496               0.80    13200.00
04497               0.40    13200.00
04498               0.80    13200.00
04499               0.80    13200.00
04500               0.80    13200.00
04501               0.80    13200.00
04502               0.80    13200.00
04503               0.80    13200.00
04504               1.20    13200.00
04505               0.80    13200.00
04506               1.20    13200.00
04507               2.00    13200.00
04508               0.80    13000.00
04509               0.40    12800.00
04510               0.80    12800.00
04511               0.80    12800.00
04512               0.80    12800.00
04513               2.00    12800.00
04514               1.20    12800.00
04515               0.40    12600.00
04516               0.40    12600.00
04517               0.40    12600.00
04518               0.40    12400.00
04519               1.20    12400.00
04520               1.60    12200.00
04521               2.00    12400.00
04522               0.40    12200.00
04523               0.40    12000.00
04524               1.20    11800.00
04525               1.20    11800.00
04526               0.40    11800.00
04527               1.20    11600.00
04528               1.20    11600.00
04529               0.40    11400.00
04530               0.80    11200.00
04531               1.20    11200.00
04532               0.40    11000.00
04533               0.80    10800.00
04534               1.20    10800.00
04535               0.80    10800.00
04536               0.80    10600.00
04537               0.80    10400.00
04538               0.80    10200.00
04539               0.40    10000.00
04540               0.40    10000.00
04541               0.40    10000.00
04542               0.00     9600.00
04543               0.40     9600.00
04544               0.80     9400.00
04545              -0.40     9000.00
04546               0.80     9200.00
04547               0.40     8800.00
04548              -0.40     8800.00
04549               0.40     8600.00
04550               0.80     8400.00
04551               0.40     8400.00
04552               0.80     8200.00
04553               0.80     8000.00
04554               0.40     7800.00
04555               0.40     7600.00
04556               0.40     7200.00
04557               0.40     7200.00
04558               0.40     7000.00
04559               0.40     6800.00
04560               0.40     6800.00
04561               0.00     6400.00
04562               0.80     6200.00
04563              -0.40     6200.00
04564               0.00     6000.00
04565               0.40     5600.00
04566               0.00     5600.00
04567               0.40     5400.00
04568               0.80     5200.00
04569              -0.40     4800.00
04570               0.40     4800.00
04571               0.40     4400.00
04572               0.00     4200.00
04573              -0.40     4000.00
04574               0.80     4000.00
04575               0.00     3600.00
04576              -0.80     3600.00
04577               0.40     3400.00
04578               0.40     3000.00
04579               0.00     2800.00
04580              -0.40     2800.00
04581               0.40     2400.00
04582               0.00     2200.00
04583              -0.40     2200.00
04584               0.00     1800.00
04585               0.40     1600.00
04586              -0.40     1400.00
04587               0.00     1200.00
04588               0.40      800.00
04589              -0.40      600.00
04590              -0.40      400.00
04591               0.40      400.00
04592              -0.80        0.00
04593              -0.40        0.00
04594               0.40     -200.00
04595               1.60     -400.00
04596               0.40     -800.00
04597              -1.20     -800.00
04598              -0.40    -1000.00
04599               1.20    -1400.00
04600              -1.60    -1600.00
04601               2.00    -1600.00
04602              23.60    -2000.00
04603               6.80    -2600.00
04604             -48.80    -2800.00
04605             -11.60    -2800.00
04606               3.60    -2800.00
04607              46.00    -2800.00
04608              28.40    -3600.00
04609             -50.00    -3200.00
04610              50.00    -3600.00
04611              50.00    -4200.00
04612             -50.00    -4000.00
04613               3.60    -4200.00
04614              50.00    -4800.00
04615             -50.00    -4400.00
04616             -20.40    -5000.00
04617              50.00    -5200.00
04618             -50.00    -5200.00
04619              -7.60    -5800.00
04620               1.20    -5800.00
04621              13.20    -6000.00
04622              18.00    -6400.00
04623             -50.00    -6000.00
04624              47.60    -6600.00
04625              31.20    -6600.00
04626             -50.00    -6800.00
04627              16.40    -7200.00
04628              24.40    -7000.00
04629              -7.60    -7600.00
04630             -33.20    -7600.00
04631              18.00    -8000.00
04632              32.00    -8000.00
04633             -47.60    -8000.00
04634              10.40    -8400.00
04635              26.00    -8400.00
04636             -23.60    -8600.00
04637             -11.60    -9000.00
04638              18.40    -9000.00
04639               4.00    -9200.00
04640             -27.60    -9200.00
04641              18.80    -9400.00
04642               5.20    -9400.00
04643             -21.60    -9800.00
04644               9.20   -10000.00
04645               0.80   -10000.00
04646              -3.60   -10000.00
04647              -4.00   -10400.00
04648               2.80   -10400.00
04649               1.20   -10600.00
04650              -8.00   -10800.00
04651               2.80   -10800.00
04652               1.20   -11000.00
04653              -6.80   -11000.00
04654              -1.20   -11200.00
04655               6.00   -11200.00
04656              -6.00   -11400.00
04657              -4.80   -11400.00
04658               6.00   -11600.00
04659              -3.60   -11800.00
04660              -8.40   -12000.00
04661               5.20   -11800.00
04662               2.40   -12000.00
04663              -9.20   -12000.00
04664               1.60   -12400.00
04665               4.00   -12400.00
04666              -7.20   -12400.00
04667              -4.00   -12400.00
04668               4.00   -12600.00
04669              -0.80   -12400.00
04670              -5.60   -12400.00
04671               0.80   -12800.00
04672               0.40   -12800.00
04673              -5.20   -12800.00
04674              -2.40   -12800.00
04675               2.00   -13000.00
04676              -2.40   -13000.00
04677              -4.40   -13000.00
04678               0.80   -13000.00
04679              -0.80   -13000.00
04680              -4.40   -13200.00
04681              -2.00   -13200.00
04682               0.80   -13000.00
04683              -2.00   -13000.00
04684              -3.60   -13200.00
04685              -0.40   -13200.00
04686              -1.20   -13200.00
04687              -2.80   -13200.00
04688              -1.20   -13200.00
04689              -1.20   -13200.00
04690              -1.20   -13200.00
04691              -2.00   -13200.00
04692              -2.00   -13200.00
04693              -0.40   -13200.00
04694              -1.20   -13200.00
04695              -2.40   -13000.00
04696              -1.20   -13200.00
04697              -0.80   -13000.00
04698              -2.40   -13000.00
04699              -2.00   -13000.00
04700              -0.80   -13000.00
04701              -2.00   -12800.00
04702              -1.20   -12800.00
04703              -0.80   -12800.00
04704              -2.00   -12800.00
04705              -2.00   -12800.00
04706              -1.20   -12400.00
04707              -1.20   -12400.00
04708              -1.20   -12400.00
04709              -1.20   -12400.00
04710              -1.20   -12400.00
04711              -0.80   -12200.00
04712              -1.20   -12200.00
04713              -2.40   -12000.00
04714              -0.80   -12000.00
04715              -0.80   -11800.00
04716              -1.20   -11600.00
04717              -2.00   -11600.00
04718              -1.20   -11600.00
04719              -1.20   -11400.00
04720              -1.20   -11200.00
04721              -1.20   -11200.00
04722              -0.40   -11000.00
04723              -1.20   -10800.00
04724              -1.20   -10800.00
04725              -1.20   -10800.00
04726              -1.20   -10400.00
04727              -2.00   -10400.00
04728              -0.80   -10200.00
04729              -0.80   -10000.00
04730              -1.60   -10000.00
04731              -1.20    -9800.00
04732              -0.80    -9800.00
04733              -1.20    -9600.00
04734              -1.20    -9600.00
04735              -0.80    -9400.00
04736              -1.20    -9200.00
04737              -1.20    -9000.00
04738              -1.20    -9000.00
04739              -1.60    -8800.00
04740              -1.60    -8400.00
04741              -1.20    -8400.00
04742              -0.80    -8200.00
04743              -0.40    -8000.00
04744              -2.40    -8000.00
04745              -0.80    -7600.00
04746              -1.20    -7600.00
04747              -1.60    -7200.00
04748              -1.20    -7200.00
04749              -0.40    -6800.00
04750              -1.20    -6800.00
04751              -0.80    -6600.00
04752              -1.20    -6400.00
04753              -1.20    -6400.00
04754              -1.20    -6000.00
04755              -1.20    -5800.00
04756              -0.80    -5600.00
04757              -0.40    -5600.00
04758              -1.20    -5200.00
04759              -1.20    -5000.00
04760              -0.80    -4600.00
04761              -0.80    -4600.00
04762              -1.20    -4400.00
04763              -0.40    -4200.00
04764              -0.40    -4000.00
04765              -0.40    -3600.00
04766              -0.80    -3600.00
04767              -0.80    -3400.00
04768              -0.40    -3200.00
04769              -0.80    -3000.00
04770              -0.80    -2800.00
04771              -0.40    -2600.00
04772              -0.80    -2400.00
04773              -0.80    -2200.00
04774              -0.40    -1800.00
04775              -0.40    -1800.00
04776              -0.40    -1400.00
04777              -0.40    -1200.00
04778              -0.40    -1000.00
04779              -0.40     -800.00
04780              -0.40     -600.00
04781              -0.40     -400.00
04782              -0.40     -200.00
04783               0.00        0.00
04784              -0.40      200.00
04785               0.80      600.00
04786               2.80      600.00
04787              -1.20      800.00
04788              -0.80     1000.00
04789               1.20     1400.00
04790               0.40     1400.00
04791              -1.20     1800.00
04792               2.80     2000.00
04793              13.60     2200.00
04794              16.00     2400.00
04795             -27.60     2600.00
04796             -24.80     2800.00
04797               7.60     2800.00
04798              -0.80     3200.00
04799              44.00     3600.00
04800             -18.80     3400.00
04801             -50.00     3800.00
04802              50.00     4000.00
04803              19.60     4000.00
04804             -50.00     4400.00
04805              50.00     4600.00
04806              44.80     4600.00
04807             -50.00     5000.00
04808              33.60     5200.00
04809              29.20     5400.00
04810             -30.80     5600.00
04811              -4.40     6000.00
04812              11.20     6000.00
04813              15.20     6200.00
04814             -28.40     6400.00
04815              -3.60     6600.00
04816              40.40     6800.00
04817             -16.80     7000.00
04818             -22.40     7200.00
04819              16.80     7200.00
04820              17.20     7600.00
04821             -18.00     7800.00
04822             -13.60     7800.00
04823              29.20     8200.00
04824              -2.40     8400.00
04825             -23.60     8400.00
04826              19.60     8400.00
04827               8.40     8600.00
04828             -23.20     9000.00
04829               8.40     9200.00
04830              19.60     9200.00
04831             -18.00     9400.00
04832              -2.00     9600.00
04833              18.40     9600.00
04834              -8.40     9600.00
04835              -6.00    10000.00
04836               7.60    10200.00
04837               2.40    10400.00
04838              -2.40    10400.00
04839               0.40    10400.00
04840               4.40    10600.00
04841               0.80    10800.00
04842              -3.20    11000.00
04843               2.80    11200.00
04844               4.00    11000.00
04845              -4.40    11400.00
04846               2.40    11200.00
04847               6.00    11200.00
04848              -4.40    11600.00
04849              -0.40    11800.00
04850               6.80    11800.00
04851              -2.00    11800.00
04852              -2.40    12000.00
04853               6.00    12000.00
04854               0.40    12200.00
04855              -2.40    12400.00
04856               4.00    12400.00
04857               2.40    12400.00
04858              -2.80    12600.00
04859               2.00    12600.00
04860               4.40    12800.00
04861              -0.80    12800.00
04862              -0.40    12800.00
04863               2.80    12800.00
04864               1.20    12800.00
04865              -1.20    12800.00
04866               1.20    13000.00
04867               2.80    13000.00
04868              -0.40    13000.00
04869               0.40    13200.00
04870               2.40    13200.00
04871              -0.40    13200.00
04872               0.40    13200.00
04873               2.00    13200.00
04874               0.80    13200.00
04875               0.40    13200.00
04876               1.20    13200.00
04877               0.80    13200.00
04878               0.80    13200.00
04879               0.80    13200.00
04880               0.80    13000.00
04881               0.80    13200.00
04882               1.20    13200.00
04883               0.80    13200.00
04884               0.40    13200.00
04885               1.20    13200.00
04886               0.80    13000.00
04887               0.80    13200.00
04888               1.20    13200.00
04889               0.80    13000.00
04890               0.80    13000.00
04891               1.20    12800.00
04892               0.80    12800.00
04893               0.40    12800.00
04894               1.60    12800.00
04895               1.20    12600.00
04896               0.80    12600.00
04897               0.80    12600.00
04898               0.80    12600.00
04899               0.80    12400.00
04900               0.80    12400.00
04901               0.80    12400.00
04902               0.40    12400.00
04903               1.20    12200.00
04904               0.40    12000.00
04905               0.80    12000.00
04906               1.20    12000.00
04907               0.80    11800.00
04908               1.20    11600.00
04909               0.80    11600.00
04910               0.80    11600.00
04911               0.80    11400.00
04912               0.80    11200.00
04913               0.80    11200.00
04914               0.80    10800.00
04915               0.80    10800.00
04916               0.80    10800.00
04917               0.80    10600.00
04918               0.80    10400.00
04919               0.80    10400.00
04920               1.20    10200.00
04921               0.80    10200.00
04922               0.40    10000.00
04923               0.80     9600.00
04924               1.20     9600.00
04925               0.40     9400.00
04926               0.80     9200.00
04927               1.60     9200.00
04928               0.80     9200.00
04929               0.40     8800.00
04930               0.40     8800.00
04931               0.80     8400.00
04932               0.40     8400.00
04933               0.80     8200.00
04934               0.80     8000.00
04935               0.40     7800.00
04936               0.80     7800.00
04937               0.40     7600.00
04938               0.00     7400.00
04939               0.80     7000.00
04940               0.80     6800.00
04941               0.40     6800.00
04942               0.40     6600.00
04943               0.80     6400.00
04944              -0.40     6200.00
04945               0.40     6000.00
04946               0.40     5600.00
04947              -0.80     5600.00
04948               0.40     5400.00
04949               1.20     5400.00
04950              -0.80     5000.00
04951               0.00     4600.00
04952               0.80     4600.00
04953              -0.40     4400.00
04954              -0.80     4000.00
04955               0.40     4000.00
04956               0.40     3600.00
04957              -0.40     3600.00
04958              -0.40     3200.00
04959              -0.40     3200.00
04960              -0.40     3000.00
04961               0.40     2800.00
04962               0.40     2600.00
04963               0.00     2200.00
04964               0.40     2200.00
04965               0.00     2000.00
04966              -0.40     1600.00
04967               0.00     1400.00
04968               0.00     1400.00
04969              -0.40      800.00
04970               0.40      800.00
04971              -0.40      600.00
04972               0.00      400.00
04973               0.40      400.00
04974              -0.40        0.00
04975              -0.40     -400.00
04976               1.60     -400.00
04977               1.20     -600.00
04978              -1.20     -800.00
04979              -0.80    -1000.00
04980               0.40    -1200.00
04981              -0.40    -1600.00
04982              -0.40    -1600.00
04983              10.80    -1800.00
04984              28.40    -2400.00
04985             -32.80    -2600.00
04986             -33.20    -2800.00
04987               6.00    -2800.00
04988              20.00    -2600.00
04989              50.00    -3400.00
04990             -50.00    -3200.00
04991             -42.80    -3200.00
04992              50.00    -4000.00
04993             -50.00    -4000.00
04994             -50.00    -4000.00
04995              50.00    -4600.00
04996             -12.00    -4400.00
04997             -50.00    -4800.00
04998              50.00    -5200.00
04999               0.80    -5000.00
05000             -48.00    -5600.00
