Unit:(mV)
                     CH1         CH2
Frequency              ? 299.806 kHz
00001             -50.00    -4400.00
00002              -9.20    -4400.00
00003              45.60    -4600.00
00004             -32.40    -4600.00
00005             -24.40    -4800.00
00006              50.00    -5800.00
00007             -50.00    -5400.00
00008             -16.80    -6200.00
00009              50.00    -6600.00
00010             -50.00    -6600.00
00011              -6.80    -7400.00
00012              14.00    -7200.00
00013               5.20    -7800.00
00014              -0.40    -8200.00
00015             -32.80    -8200.00
00016              45.60    -9000.00
00017             -14.00    -8800.00
00018             -29.20    -9400.00
00019              23.20    -9600.00
00020               0.40    -9800.00
00021             -10.80   -10400.00
00022              -8.80   -10400.00
00023              26.40   -10800.00
00024             -16.40   -11200.00
00025             -15.20   -11400.00
00026              14.00   -11800.00
00027              -2.00   -12000.00
00028              -8.80   -12200.00
00029              -4.40   -12400.00
00030              15.60   -12800.00
00031             -12.00   -13000.00
00032              -8.80   -13400.00
00033               8.80   -13400.00
00034              -2.40   -13800.00
00035             -12.00   -14000.00
00036               5.20   -14000.00
00037               5.60   -14400.00
00038             -12.80   -14600.00
00039               1.20   -14800.00
00040               0.00   -15200.00
00041              -5.60   -15400.00
00042              -4.40   -15600.00
00043               0.80   -15800.00
00044               0.40   -16000.00
00045              -6.80   -16200.00
00046              -0.80   -16400.00
00047               0.40   -16600.00
00048              -6.80   -16800.00
00049              -3.60   -16800.00
00050               2.00   -16800.00
00051              -3.60   -17200.00
00052              -4.00   -17200.00
00053              -0.80   -17200.00
00054              -1.20   -17600.00
00055              -5.60   -17600.00
00056              -2.40   -17400.00
00057              -0.40   -17800.00
00058              -6.00   -18000.00
00059              -1.20   -18000.00
00060              -0.80   -18200.00
00061              -3.60   -18400.00
00062              -4.00   -18400.00
00063              -2.40   -18400.00
00064              -1.20   -18400.00
00065              -4.40   -18600.00
00066              -2.40   -18600.00
00067              -2.00   -18600.00
00068              -4.00   -18600.00
00069              -2.40   -18600.00
00070              -2.00   -18600.00
00071              -2.80   -18800.00
00072              -3.20   -18800.00
00073              -2.00   -18800.00
00074              -1.60   -18800.00
00075              -3.60   -18600.00
00076              -2.40   -18600.00
00077              -2.00   -18600.00
00078              -2.80   -18600.00
00079              -2.40   -18400.00
00080              -2.80   -18600.00
00081              -2.80   -18600.00
00082              -2.00   -18400.00
00083              -2.40   -18600.00
00084              -2.40   -18400.00
00085              -2.40   -18000.00
00086              -2.00   -18200.00
00087              -2.40   -18000.00
00088              -2.40   -17800.00
00089              -2.40   -17800.00
00090              -2.40   -17800.00
00091              -2.40   -17800.00
00092              -2.40   -17400.00
00093              -2.40   -17400.00
00094              -2.00   -17200.00
00095              -2.40   -17200.00
00096              -2.40   -16800.00
00097              -1.20   -16800.00
00098              -2.80   -16600.00
00099              -2.40   -16400.00
00100              -2.00   -16400.00
00101              -2.00   -16000.00
00102              -2.40   -16000.00
00103              -2.80   -15800.00
00104              -1.20   -15600.00
00105              -2.40   -15400.00
00106              -3.60   -15200.00
00107              -2.00   -15000.00
00108              -2.40   -14600.00
00109              -2.40   -14600.00
00110              -2.40   -14400.00
00111              -1.60   -14000.00
00112              -2.00   -13800.00
00113              -3.60   -13600.00
00114              -1.20   -13400.00
00115              -1.20   -13200.00
00116              -2.80   -13000.00
00117              -2.40   -12600.00
00118              -1.20   -12400.00
00119              -2.00   -12200.00
00120              -3.60   -12000.00
00121              -0.80   -11600.00
00122              -2.00   -11200.00
00123              -2.80   -11000.00
00124              -1.20   -10600.00
00125              -1.20   -10400.00
00126              -2.40   -10000.00
00127              -1.20    -9800.00
00128              -0.80    -9600.00
00129              -1.20    -9200.00
00130              -2.00    -9000.00
00131              -1.20    -8600.00
00132              -2.00    -8200.00
00133              -1.60    -8000.00
00134              -1.20    -7600.00
00135              -2.00    -7200.00
00136              -1.60    -7000.00
00137              -0.40    -6600.00
00138              -1.20    -6400.00
00139              -1.20    -6000.00
00140              -2.00    -5800.00
00141              -0.40    -5400.00
00142              -1.20    -5000.00
00143              -1.20    -4600.00
00144               0.40    -4400.00
00145              -0.40    -4000.00
00146              -0.80    -3600.00
00147               0.40    -3400.00
00148              -0.80    -2800.00
00149              -1.20    -2800.00
00150              -1.20    -2200.00
00151              -2.40    -2000.00
00152               0.40    -1600.00
00153              -1.60    -1200.00
00154              -1.20     -800.00
00155               3.60     -600.00
00156               0.00     -200.00
00157              -0.40      200.00
00158               1.60      400.00
00159               2.00      800.00
00160              -2.00     1200.00
00161              -2.00     1400.00
00162               0.80     1800.00
00163               2.80     2000.00
00164               0.40     2200.00
00165               3.20     2600.00
00166              15.60     3200.00
00167              22.80     3800.00
00168             -33.20     4000.00
00169             -34.80     4400.00
00170              28.00     4600.00
00171              12.40     4800.00
00172             -50.00     4800.00
00173              23.20     5800.00
00174              50.00     6000.00
00175             -50.00     6200.00
00176               8.80     6800.00
00177              50.00     6400.00
00178             -50.00     7000.00
00179             -12.40     7600.00
00180              36.00     7800.00
00181               5.20     8200.00
00182             -26.00     8600.00
00183               2.40     8800.00
00184              39.20     9000.00
00185             -28.00     9200.00
00186             -16.40     9600.00
00187              31.20     9800.00
00188              -2.80    10200.00
00189             -18.80    10600.00
00190              12.00    10800.00
00191              19.60    11000.00
00192             -18.80    11400.00
00193              -4.00    11800.00
00194              15.20    11800.00
00195              -0.40    12400.00
00196             -10.00    12400.00
00197               8.40    12800.00
00198              13.60    13000.00
00199             -14.00    13200.00
00200               0.80    13600.00
00201              11.60    14000.00
00202              -5.20    14000.00
00203              -4.00    14400.00
00204              12.00    14600.00
00205               2.40    14800.00
00206              -7.20    15000.00
00207               7.20    15000.00
00208               2.80    15200.00
00209              -2.80    15600.00
00210               2.80    15800.00
00211               6.00    16000.00
00212               0.40    16000.00
00213              -0.40    16400.00
00214               4.40    16400.00
00215               1.20    16600.00
00216              -2.00    16800.00
00217               4.00    16800.00
00218               5.20    17000.00
00219              -0.80    17000.00
00220               2.40    17200.00
00221               5.20    17400.00
00222               0.80    17400.00
00223              -0.40    17600.00
00224               5.20    17600.00
00225               2.40    18000.00
00226              -1.20    18000.00
00227               4.00    18000.00
00228               2.80    18200.00
00229              -0.80    18200.00
00230               2.40    18400.00
00231               4.00    18400.00
00232               1.20    18400.00
00233               0.80    18400.00
00234               3.60    18600.00
00235               2.40    18400.00
00236               0.80    18600.00
00237               2.40    18600.00
00238               2.40    18600.00
00239               1.20    18800.00
00240               1.60    18600.00
00241               2.80    18600.00
00242               2.40    18800.00
00243               0.80    18400.00
00244               2.40    18400.00
00245               2.40    18600.00
00246               1.20    18600.00
00247               2.00    18400.00
00248               2.40    18400.00
00249               2.00    18400.00
00250               2.00    18200.00
00251               2.40    18200.00
00252               1.60    18200.00
00253               1.20    18000.00
00254               2.40    17800.00
00255               2.00    18000.00
00256               0.80    17800.00
00257               2.40    17600.00
00258               1.20    17400.00
00259               2.00    17400.00
00260               2.40    17200.00
00261               2.00    17200.00
00262               1.20    17000.00
00263               2.40    16800.00
00264               2.00    16800.00
00265               2.40    16600.00
00266               0.80    16400.00
00267               2.40    16200.00
00268               1.20    16000.00
00269               0.80    15800.00
00270               1.20    15600.00
00271               2.40    15600.00
00272               0.40    15200.00
00273               1.60    15000.00
00274               2.00    14800.00
00275               1.20    14600.00
00276               1.20    14400.00
00277               2.40    14200.00
00278               1.60    14000.00
00279               0.80    13800.00
00280               1.20    13600.00
00281               1.60    13400.00
00282               0.80    13000.00
00283               0.80    12800.00
00284               2.00    12600.00
00285               0.80    12400.00
00286               0.40    12000.00
00287               2.00    11600.00
00288               0.80    11400.00
00289               0.40    11200.00
00290               2.00    10800.00
00291               0.80    10800.00
00292               0.80    10200.00
00293               1.20    10000.00
00294               0.80     9600.00
00295               0.40     9200.00
00296               2.00     9200.00
00297               0.40     8800.00
00298              -0.40     8600.00
00299               2.00     8400.00
00300               0.40     7800.00
00301              -0.40     7600.00
00302               0.80     7200.00
00303               0.00     7000.00
00304               0.40     6400.00
00305               0.40     6200.00
00306               0.40     6000.00
00307               0.00     5600.00
00308               0.40     5200.00
00309               0.80     4800.00
00310               0.40     4600.00
00311              -0.80     4000.00
00312               0.40     3800.00
00313               0.40     3600.00
00314              -0.80     3200.00
00315               0.00     2800.00
00316               0.40     2400.00
00317              -0.40     2200.00
00318              -0.40     1800.00
00319              -0.40     1400.00
00320              -0.40     1000.00
00321              -1.20      800.00
00322              -0.40      400.00
00323              -0.40      200.00
00324              -0.80     -200.00
00325               0.00     -600.00
00326               3.20    -1000.00
00327              -1.20    -1000.00
00328              -2.40    -1600.00
00329               2.00    -1800.00
00330               0.40    -2000.00
00331              -2.40    -2400.00
00332               8.80    -2600.00
00333              36.00    -3600.00
00334             -24.80    -4000.00
00335             -50.00    -4400.00
00336              26.40    -4400.00
00337              23.20    -4800.00
00338             -50.00    -4400.00
00339              48.40    -5200.00
00340              42.00    -5800.00
00341             -50.00    -5600.00
00342              50.00    -6600.00
00343              16.80    -6400.00
00344             -50.00    -7000.00
00345              23.20    -7400.00
00346               2.00    -7400.00
00347              14.80    -8200.00
00348             -31.20    -8200.00
00349               4.00    -8600.00
00350              38.00    -9000.00
00351             -45.60    -9000.00
00352               3.60    -9600.00
00353              16.80    -9800.00
00354              -5.60   -10000.00
00355             -16.80   -10400.00
00356              10.40   -10600.00
00357              16.40   -11200.00
00358             -28.40   -11000.00
00359               4.00   -11600.00
00360               7.20   -11800.00
00361              -6.80   -12200.00
00362             -12.00   -12400.00
00363               8.80   -12400.00
00364               8.00   -12800.00
00365             -19.60   -13200.00
00366               2.40   -13400.00
00367               5.60   -13600.00
00368             -10.00   -14000.00
00369              -7.60   -14000.00
00370              12.00   -14400.00
00371              -5.60   -14400.00
00372              -8.80   -14800.00
00373               4.40   -14800.00
00374              -4.00   -15200.00
00375              -6.00   -15400.00
00376              -2.40   -15600.00
00377               3.20   -16000.00
00378              -3.60   -16000.00
00379              -4.80   -16200.00
00380               0.40   -16400.00
00381              -3.60   -16400.00
00382              -6.80   -16800.00
00383               0.00   -16800.00
00384              -0.40   -17000.00
00385              -3.60   -17200.00
00386              -2.40   -17200.00
00387              -1.60   -17400.00
00388              -2.40   -17600.00
00389              -5.60   -17600.00
00390               0.40   -17800.00
00391              -2.40   -17800.00
00392              -4.00   -18000.00
00393               0.40   -18200.00
00394              -2.40   -18000.00
00395              -4.40   -18400.00
00396              -3.20   -18400.00
00397              -1.20   -18600.00
00398              -2.40   -18400.00
00399              -3.60   -18400.00
00400              -1.20   -18600.00
00401              -2.80   -18600.00
00402              -4.00   -18600.00
00403              -2.00   -18600.00
00404              -2.40   -18600.00
00405              -2.80   -18800.00
00406              -2.40   -18600.00
00407              -0.80   -18800.00
00408              -2.80   -18600.00
00409              -3.60   -18800.00
00410              -1.20   -18800.00
00411              -2.40   -18600.00
00412              -2.80   -18600.00
00413              -2.00   -18600.00
00414              -2.40   -18400.00
00415              -2.40   -18600.00
00416              -2.80   -18400.00
00417              -2.00   -18400.00
00418              -2.80   -18400.00
00419              -2.80   -18200.00
00420              -2.00   -18000.00
00421              -2.40   -18000.00
00422              -2.00   -18000.00
00423              -2.80   -17600.00
00424              -2.80   -17600.00
00425              -2.00   -17400.00
00426              -2.40   -17400.00
00427              -2.80   -17200.00
00428              -2.00   -17200.00
00429              -2.80   -17000.00
00430              -2.40   -16800.00
00431              -2.40   -16800.00
00432              -2.40   -16800.00
00433              -2.40   -16400.00
00434              -2.40   -16200.00
00435              -1.60   -16200.00
00436              -2.80   -16000.00
00437              -2.40   -15600.00
00438              -1.20   -15600.00
00439              -2.80   -15200.00
00440              -2.40   -15400.00
00441              -2.80   -14800.00
00442              -2.40   -14600.00
00443              -2.40   -14400.00
00444              -2.00   -14200.00
00445              -2.40   -14000.00
00446              -2.40   -13800.00
00447              -2.00   -13600.00
00448              -2.40   -13200.00
00449              -2.00   -13000.00
00450              -2.40   -12800.00
00451              -2.00   -12400.00
00452              -2.00   -12200.00
00453              -2.40   -12000.00
00454              -2.40   -11800.00
00455              -2.00   -11400.00
00456              -2.40   -11000.00
00457              -1.20   -10800.00
00458              -1.20   -10600.00
00459              -2.40   -10400.00
00460              -1.20   -10000.00
00461              -1.20    -9600.00
00462              -0.80    -9400.00
00463              -1.20    -9200.00
00464              -1.20    -8800.00
00465              -1.20    -8400.00
00466              -2.00    -8200.00
00467              -0.80    -8000.00
00468              -1.20    -7600.00
00469              -2.00    -7200.00
00470              -1.20    -6800.00
00471              -1.20    -6600.00
00472              -1.60    -6200.00
00473              -1.20    -5800.00
00474              -0.40    -5800.00
00475              -0.40    -5000.00
00476              -1.20    -4800.00
00477              -0.80    -4600.00
00478              -1.20    -4200.00
00479              -1.20    -3800.00
00480              -0.80    -3600.00
00481              -0.40    -3200.00
00482              -0.80    -2800.00
00483              -0.40    -2400.00
00484              -0.80    -2000.00
00485              -0.80    -1600.00
00486              -0.80    -1600.00
00487              -0.40    -1200.00
00488              -0.40     -600.00
00489               0.40     -200.00
00490               0.40     -200.00
00491               0.40      400.00
00492               2.00      400.00
00493               2.40      800.00
00494              -2.40     1200.00
00495              -0.40     1400.00
00496               2.40     1600.00
00497               0.40     2200.00
00498              -1.20     2400.00
00499               6.80     2800.00
00500              21.60     3400.00
00501               4.00     4000.00
00502             -45.20     4200.00
00503              -4.40     4400.00
00504              34.00     4800.00
00505             -24.80     4800.00
00506             -37.20     5200.00
00507              50.00     6000.00
00508               1.60     5800.00
00509             -50.00     6400.00
00510              50.00     6600.00
00511              10.00     6800.00
00512             -50.00     7400.00
00513              24.40     7200.00
00514              24.80     8000.00
00515             -12.40     8400.00
00516             -25.20     8400.00
00517              31.60     8800.00
00518              13.60     9000.00
00519             -39.60     9400.00
00520              14.00     9600.00
00521              23.60    10000.00
00522             -16.80    10400.00
00523              -9.20    10600.00
00524              23.20    11000.00
00525               0.80    11200.00
00526             -19.60    11600.00
00527              11.60    11800.00
00528              10.40    12000.00
00529              -9.20    12400.00
00530              -4.40    12600.00
00531              16.80    12800.00
00532              -0.80    13000.00
00533             -12.00    13200.00
00534              12.00    13400.00
00535               4.40    14000.00
00536              -8.80    14000.00
00537               4.40    14400.00
00538              11.60    14600.00
00539              -6.00    14800.00
00540              -0.80    15000.00
00541               8.80    15200.00
00542              -2.00    15400.00
00543              -1.20    15600.00
00544               5.60    15800.00
00545               4.00    16000.00
00546              -1.20    16200.00
00547               2.40    16200.00
00548               4.40    16400.00
00549              -0.80    16400.00
00550               0.40    16800.00
00551               5.20    17000.00
00552               1.20    17000.00
00553               0.40    17200.00
00554               4.80    17400.00
00555               2.40    17400.00
00556              -0.40    17600.00
00557               2.80    17400.00
00558               4.00    17800.00
00559              -0.80    17800.00
00560               2.00    18200.00
00561               5.20    18000.00
00562               0.00    18200.00
00563               0.40    18200.00
00564               3.60    18400.00
00565               2.00    18400.00
00566              -0.40    18400.00
00567               4.00    18400.00
00568               4.00    18400.00
00569              -0.40    18600.00
00570               1.20    18600.00
00571               4.00    18800.00
00572               2.00    18600.00
00573              -0.80    18800.00
00574               2.80    18600.00
00575               3.60    18400.00
00576              -0.40    18800.00
00577               0.80    18600.00
00578               4.00    18600.00
00579               2.00    18400.00
00580              -0.40    18400.00
00581               2.80    18400.00
00582               2.40    18400.00
00583               0.80    18400.00
00584               2.00    18200.00
00585               2.80    18200.00
00586               1.60    18000.00
00587               1.20    18000.00
00588               2.00    17800.00
00589               2.00    17600.00
00590               2.40    17600.00
00591               2.40    17600.00
00592               1.20    17400.00
00593               2.00    17400.00
00594               2.00    17200.00
00595               1.20    17200.00
00596               2.00    17000.00
00597               2.40    16800.00
00598               2.40    16600.00
00599               0.80    16600.00
00600               1.20    16400.00
00601               2.40    16000.00
00602               2.40    16000.00
00603               0.40    15800.00
00604               1.60    15600.00
00605               4.00    15400.00
00606               0.40    15200.00
00607               0.80    15000.00
00608               4.00    14800.00
00609              -0.40    14400.00
00610               1.20    14600.00
00611               2.40    14000.00
00612               0.80    13600.00
00613               0.80    13600.00
00614               1.20    13400.00
00615               2.40    13200.00
00616               0.80    13000.00
00617               0.80    12600.00
00618               2.40    12400.00
00619               0.80    12200.00
00620               1.60    11800.00
00621               0.40    11800.00
00622               0.80    11200.00
00623               2.00    11000.00
00624               0.80    10800.00
00625              -0.40    10400.00
00626               1.20    10200.00
00627               0.80    10000.00
00628              -1.20     9600.00
00629               0.40     9200.00
00630               3.60     9000.00
00631              -0.80     8600.00
00632              -0.80     8400.00
00633               2.80     8200.00
00634               0.40     7800.00
00635              -1.60     7200.00
00636               1.20     7200.00
00637               1.20     6800.00
00638              -0.80     6400.00
00639               0.00     6000.00
00640               0.80     5600.00
00641              -0.80     5400.00
00642              -1.20     5200.00
00643               0.40     4800.00
00644               0.80     4600.00
00645              -0.40     4000.00
00646               0.40     3800.00
00647               0.40     3400.00
00648              -0.40     2800.00
00649              -0.40     2800.00
00650              -0.80     2400.00
00651               0.40     2000.00
00652               0.40     1800.00
00653              -1.20     1400.00
00654               0.00     1000.00
00655               0.40      600.00
00656              -1.20        0.00
00657               0.40     -200.00
00658               0.80     -400.00
00659               0.80     -800.00
00660               2.00    -1000.00
00661              -2.40    -1200.00
00662              -1.20    -1600.00
00663               2.00    -2000.00
00664               0.40    -2000.00
00665               0.80    -2400.00
00666              20.40    -3000.00
00667              22.00    -4000.00
00668             -50.00    -4400.00
00669             -18.80    -4400.00
00670              44.40    -4800.00
00671             -22.80    -4600.00
00672             -37.20    -4600.00
00673              50.00    -5800.00
00674             -50.00    -5600.00
00675             -34.40    -6000.00
00676              50.00    -6600.00
00677             -50.00    -6600.00
00678             -17.20    -7400.00
00679              16.80    -7200.00
00680               3.60    -7600.00
00681               6.00    -8200.00
00682             -37.60    -8200.00
00683              41.20    -9000.00
00684              -4.00    -8800.00
00685             -36.40    -9200.00
00686              21.60    -9600.00
00687               3.60    -9800.00
00688             -10.40   -10400.00
00689             -12.00   -10400.00
00690              26.00   -10800.00
00691             -10.40   -10800.00
00692             -20.00   -11400.00
00693              13.20   -11600.00
00694              -0.40   -12000.00
00695              -8.40   -12200.00
00696              -7.60   -12400.00
00697              15.60   -12800.00
00698              -9.20   -13000.00
00699             -11.60   -13400.00
00700               7.60   -13400.00
00701              -0.80   -13800.00
00702             -11.60   -14000.00
00703               2.40   -14200.00
00704               7.20   -14600.00
00705             -12.40   -14600.00
00706               0.00   -15000.00
00707               0.40   -15200.00
00708              -5.60   -15400.00
00709              -4.00   -15600.00
00710               0.40   -15600.00
00711               0.80   -15800.00
00712              -6.00   -16200.00
00713              -0.80   -16400.00
00714               0.40   -16600.00
00715              -6.00   -16600.00
00716              -4.00   -16800.00
00717               1.20   -16800.00
00718              -3.60   -17000.00
00719              -3.60   -17200.00
00720              -1.20   -17400.00
00721              -1.20   -17600.00
00722              -5.20   -17600.00
00723              -2.40   -17600.00
00724               0.80   -17800.00
00725              -5.60   -17800.00
00726              -1.20   -18000.00
00727               0.00   -18000.00
00728              -4.00   -18200.00
00729              -4.00   -18400.00
00730              -1.20   -18400.00
00731              -1.20   -18400.00
00732              -4.00   -18400.00
00733              -2.00   -18400.00
00734              -1.20   -18600.00
00735              -4.40   -18600.00
00736              -2.80   -18600.00
00737              -2.00   -18600.00
00738              -2.80   -18600.00
00739              -3.20   -18600.00
00740              -2.00   -18800.00
00741              -1.20   -18800.00
00742              -3.60   -18800.00
00743              -2.80   -18600.00
00744              -2.00   -18600.00
00745              -2.80   -18600.00
00746              -2.40   -18600.00
00747              -2.40   -18400.00
00748              -2.40   -18400.00
00749              -3.60   -18400.00
00750              -2.00   -18400.00
00751              -1.60   -18400.00
00752              -3.60   -18200.00
00753              -2.40   -18000.00
00754              -1.20   -18000.00
00755              -2.80   -18000.00
00756              -2.40   -17800.00
00757              -2.80   -17800.00
00758              -2.40   -17600.00
00759              -2.40   -17400.00
00760              -2.80   -17400.00
00761              -2.80   -17200.00
00762              -2.40   -17200.00
00763              -2.40   -17000.00
00764              -2.40   -16800.00
00765              -2.40   -16800.00
00766              -2.40   -16800.00
00767              -2.40   -16400.00
00768              -1.60   -16200.00
00769              -2.40   -16000.00
00770              -2.40   -15800.00
00771              -2.00   -15600.00
00772              -2.40   -15400.00
00773              -2.80   -15200.00
00774              -2.40   -14800.00
00775              -2.80   -14800.00
00776              -2.00   -14400.00
00777              -2.00   -14400.00
00778              -2.40   -14000.00
00779              -2.40   -13800.00
00780              -2.40   -13600.00
00781              -2.00   -13400.00
00782              -2.00   -13200.00
00783              -2.00   -13000.00
00784              -2.00   -12600.00
00785              -1.60   -12400.00
00786              -2.00   -12200.00
00787              -2.00   -11800.00
00788              -1.60   -11600.00
00789              -2.40   -11400.00
00790              -2.00   -10800.00
00791              -1.20   -10600.00
00792              -2.00   -10400.00
00793              -1.20   -10000.00
00794              -1.20    -9800.00
00795              -1.20    -9600.00
00796              -0.80    -9200.00
00797              -1.20    -9000.00
00798              -1.20    -8800.00
00799              -1.20    -8400.00
00800              -1.20    -8000.00
00801              -1.20    -7600.00
00802              -2.00    -7200.00
00803              -1.20    -7000.00
00804              -0.80    -6800.00
00805              -1.20    -6400.00
00806              -1.20    -6200.00
00807              -1.20    -5800.00
00808              -0.40    -5400.00
00809              -1.20    -5000.00
00810              -0.80    -4600.00
00811              -0.40    -4400.00
00812              -1.20    -4000.00
00813              -1.20    -3600.00
00814               0.80    -3200.00
00815              -1.20    -3000.00
00816              -1.20    -2600.00
00817               0.40    -2400.00
00818              -1.20    -2000.00
00819              -1.20    -1600.00
00820               0.00    -1200.00
00821              -0.80    -1000.00
00822              -0.40     -600.00
00823              -0.40     -200.00
00824              -0.40        0.00
00825               0.40      400.00
00826               3.20      800.00
00827              -0.80     1200.00
00828              -2.80     1400.00
00829               1.20     1800.00
00830               2.40     2000.00
00831              -1.20     2400.00
00832               2.40     2600.00
00833              13.20     3000.00
00834              23.60     3800.00
00835             -26.40     4000.00
00836             -38.00     4400.00
00837              24.40     4600.00
00838              18.40     4800.00
00839             -48.40     4800.00
00840               9.20     5600.00
00841              50.00     6000.00
00842             -50.00     6000.00
00843              -7.60     6800.00
00844              50.00     6400.00
00845             -50.00     7000.00
00846             -21.20     7400.00
00847              35.60     7600.00
00848               9.20     8200.00
00849             -24.80     8400.00
00850              -5.20     8800.00
00851              41.20     9000.00
00852             -21.60     9200.00
00853             -22.80     9600.00
00854              30.80     9800.00
00855               1.20    10400.00
00856             -18.80    10400.00
00857               8.80    10800.00
00858              21.20    11200.00
00859             -16.80    11200.00
00860              -7.20    11800.00
00861              16.40    12000.00
00862               2.00    12200.00
00863             -10.40    12400.00
00864               6.80    12600.00
00865              15.20    13000.00
00866             -13.20    13200.00
00867              -1.20    13400.00
00868              13.20    13600.00
00869              -4.40    14000.00
00870              -5.60    14200.00
00871              12.40    14600.00
00872               4.00    14600.00
00873              -8.40    14800.00
00874               6.40    15000.00
00875               4.40    15400.00
00876              -4.00    15600.00
00877               1.20    15600.00
00878               6.80    16000.00
00879               1.20    16000.00
00880              -2.00    16400.00
00881               4.80    16400.00
00882               2.80    16600.00
00883              -2.80    16600.00
00884               2.40    16800.00
00885               5.20    17200.00
00886              -1.20    17200.00
00887               1.20    17200.00
00888               4.40    17400.00
00889               1.20    17600.00
00890              -0.80    17600.00
00891               4.00    17600.00
00892               4.00    17800.00
00893              -0.80    18000.00
00894               3.60    18000.00
00895               3.60    18200.00
00896              -0.40    18200.00
00897               0.80    18400.00
00898               3.20    18400.00
00899               2.00    18400.00
00900               0.80    18400.00
00901               2.80    18600.00
00902               2.80    18400.00
00903               1.20    18600.00
00904               2.00    18600.00
00905               2.00    18600.00
00906               2.00    18600.00
00907               2.00    18600.00
00908               2.40    18600.00
00909               2.80    18800.00
00910               1.20    18600.00
00911               1.20    18600.00
00912               2.80    18800.00
00913               2.00    18400.00
00914               1.20    18400.00
00915               2.80    18400.00
00916               2.40    18400.00
00917               2.00    18400.00
00918               2.00    18200.00
00919               2.00    18200.00
00920               0.80    18000.00
00921               2.00    18000.00
00922               2.00    18000.00
00923               2.00    17600.00
00924               2.00    17600.00
00925               2.40    17400.00
00926               2.40    17400.00
00927               1.20    17400.00
00928               1.60    17200.00
00929               2.00    17200.00
00930               2.40    16800.00
00931               2.00    16600.00
00932               2.40    16600.00
00933               0.80    16400.00
00934               2.00    16200.00
00935               2.00    16000.00
00936               2.00    15800.00
00937               2.00    15800.00
00938               2.00    15600.00
00939               1.20    15400.00
00940               1.60    15200.00
00941               2.00    15000.00
00942               1.20    14600.00
00943               0.80    14400.00
00944               2.40    14200.00
00945               2.00    14000.00
00946               0.80    14000.00
00947               1.20    13600.00
00948               2.00    13200.00
00949               0.80    13200.00
00950               0.80    12800.00
00951               2.40    12600.00
00952               1.20    12400.00
00953               0.40    12000.00
00954               1.20    11600.00
00955               1.60    11600.00
00956               0.40    11200.00
00957               0.40    10800.00
00958               2.00    10400.00
00959               1.20    10400.00
00960              -0.80    10000.00
00961               0.80     9600.00
00962               2.00     9400.00
00963              -0.80     9200.00
00964              -0.40     8800.00
00965               2.40     8600.00
00966              -0.40     8400.00
00967              -0.40     8000.00
00968               2.00     7600.00
00969               0.40     7200.00
00970              -1.20     7000.00
00971               0.80     6600.00
00972               0.80     6400.00
00973              -0.40     6000.00
00974               0.40     5800.00
00975               0.40     5400.00
00976               0.00     5000.00
00977               0.00     4400.00
00978               0.00     4200.00
00979               0.40     3800.00
00980               0.40     3600.00
00981               0.00     3200.00
00982               0.00     2800.00
00983               0.40     2600.00
00984              -0.40     2200.00
00985              -0.40     2000.00
00986               0.00     1600.00
00987               0.00     1200.00
00988              -0.80      800.00
00989              -0.40      600.00
00990               0.40        0.00
00991              -0.40     -200.00
00992               0.40     -600.00
00993               3.20     -800.00
00994              -0.80    -1000.00
00995              -2.40    -1600.00
00996               0.80    -1800.00
00997               1.20    -2000.00
00998              -2.00    -2400.00
00999               6.80    -2600.00
01000              34.80    -3400.00
01001             -16.80    -4000.00
01002             -50.00    -4200.00
01003              20.00    -4400.00
01004              30.80    -4800.00
01005             -50.00    -4400.00
01006              33.20    -5200.00
01007              50.00    -5800.00
01008             -50.00    -5400.00
01009              50.00    -6400.00
01010              32.80    -6600.00
01011             -50.00    -6800.00
01012              21.20    -7600.00
01013               3.60    -7200.00
01014              13.60    -8200.00
01015             -25.20    -8000.00
01016              -5.60    -8400.00
01017              43.60    -9000.00
01018             -42.00    -9000.00
01019              -3.20    -9600.00
01020              18.80    -9600.00
01021              -5.20   -10000.00
01022             -16.40   -10400.00
01023               6.40   -10600.00
01024              19.60   -11200.00
01025             -28.00   -11000.00
01026               0.80   -11600.00
01027               8.40   -11800.00
01028              -5.60   -12000.00
01029             -11.20   -12400.00
01030               5.20   -12400.00
01031              10.40   -12800.00
01032             -18.00   -13000.00
01033               0.40   -13400.00
01034               5.60   -13600.00
01035              -7.60   -14000.00
01036              -9.20   -14000.00
01037              10.40   -14400.00
01038              -2.80   -14600.00
01039             -10.00   -14800.00
01040               4.00   -15000.00
01041              -4.00   -15200.00
01042              -5.20   -15400.00
01043              -3.60   -15600.00
01044               2.40   -16000.00
01045              -3.60   -16000.00
01046              -5.20   -16200.00
01047               1.20   -16200.00
01048              -1.60   -16400.00
01049              -6.80   -16800.00
01050              -0.40   -16800.00
01051              -0.40   -16800.00
01052              -4.00   -17200.00
01053              -3.20   -17200.00
01054              -0.40   -17200.00
01055              -2.00   -17400.00
01056              -6.00   -17600.00
01057               0.40   -17800.00
01058              -2.00   -17800.00
01059              -5.20   -18000.00
01060               0.80   -18000.00
01061              -2.00   -18000.00
01062              -4.00   -18400.00
01063              -3.20   -18400.00
01064              -2.00   -18400.00
01065              -2.40   -18400.00
01066              -3.60   -18600.00
01067              -1.20   -18600.00
01068              -2.40   -18600.00
01069              -3.60   -18600.00
01070              -2.00   -18800.00
01071              -2.40   -18600.00
01072              -2.80   -18600.00
01073              -2.40   -18600.00
01074              -1.20   -18600.00
01075              -2.40   -18600.00
01076              -2.80   -18600.00
01077              -2.00   -18600.00
01078              -2.80   -18600.00
01079              -2.40   -18600.00
01080              -2.40   -18600.00
01081              -2.80   -18600.00
01082              -2.80   -18400.00
01083              -2.40   -18400.00
01084              -2.40   -18400.00
01085              -3.60   -18400.00
01086              -3.20   -18200.00
01087              -2.00   -18200.00
01088              -2.80   -18000.00
01089              -2.40   -17800.00
01090              -2.40   -18000.00
01091              -2.40   -17400.00
01092              -2.40   -17600.00
01093              -2.80   -17400.00
01094              -2.80   -17200.00
01095              -2.40   -17200.00
01096              -2.40   -17000.00
01097              -2.40   -17000.00
01098              -2.40   -16800.00
01099              -2.80   -16800.00
01100              -2.80   -16400.00
01101              -2.40   -16200.00
01102              -2.40   -16200.00
01103              -2.80   -15800.00
01104              -2.40   -15600.00
01105              -2.40   -15400.00
01106              -2.40   -15200.00
01107              -2.00   -15200.00
01108              -2.80   -14800.00
01109              -2.40   -14600.00
01110              -1.20   -14400.00
01111              -2.40   -14200.00
01112              -2.00   -14000.00
01113              -2.40   -13800.00
01114              -2.00   -13600.00
01115              -2.00   -13400.00
01116              -2.00   -13000.00
01117              -1.20   -12800.00
01118              -2.00   -12600.00
01119              -2.80   -12200.00
01120              -1.20   -12200.00
01121              -2.00   -11600.00
01122              -2.40   -11400.00
01123              -1.20   -11000.00
01124              -1.20   -10800.00
01125              -1.20   -10400.00
01126              -2.00   -10400.00
01127              -1.20    -9800.00
01128              -1.20    -9800.00
01129              -1.20    -9200.00
01130              -1.20    -9200.00
01131              -2.00    -8800.00
01132              -1.20    -8400.00
01133              -1.20    -8200.00
01134              -1.20    -8000.00
01135              -1.20    -7600.00
01136              -1.20    -7200.00
01137              -0.80    -6800.00
01138              -0.80    -6600.00
01139              -2.00    -6400.00
01140              -1.20    -6000.00
01141              -0.80    -5600.00
01142              -0.80    -5200.00
01143              -1.60    -4800.00
01144              -0.40    -4400.00
01145              -1.20    -4200.00
01146              -1.20    -3800.00
01147              -0.40    -3600.00
01148              -0.80    -3200.00
01149              -2.00    -2800.00
01150               0.00    -2400.00
01151              -0.80    -2000.00
01152              -2.00    -1800.00
01153               0.00    -1600.00
01154              -0.80    -1200.00
01155              -1.20     -800.00
01156               0.40     -400.00
01157               0.40     -200.00
01158              -0.80      200.00
01159               0.80      400.00
01160               3.60      800.00
01161              -2.40     1200.00
01162              -1.20     1600.00
01163               2.40     1600.00
01164               0.80     2000.00
01165              -2.40     2400.00
01166               6.00     2800.00
01167              21.20     3600.00
01168               9.20     3800.00
01169             -44.40     4200.00
01170             -10.80     4400.00
01171              34.80     4800.00
01172             -17.60     4600.00
01173             -42.40     5200.00
01174              50.00     5800.00
01175              18.80     5800.00
01176             -50.00     6200.00
01177              50.00     6800.00
01178              26.40     6600.00
01179             -50.00     7200.00
01180              18.00     7600.00
01181              28.80     8000.00
01182              -8.80     8400.00
01183             -28.00     8600.00
01184              26.40     8800.00
01185              21.60     9000.00
01186             -40.40     9400.00
01187               8.80     9600.00
01188              27.60    10000.00
01189             -15.20    10400.00
01190             -12.00    10600.00
01191              21.60    11000.00
01192               5.20    11000.00
01193             -21.20    11600.00
01194               8.80    11800.00
01195              13.20    12000.00
01196              -7.60    12400.00
01197              -6.80    12600.00
01198              16.80    12800.00
01199               2.80    13200.00
01200             -14.00    13400.00
01201              10.40    13400.00
01202               6.80    13800.00
01203              -9.20    14000.00
01204               3.20    14200.00
01205              12.40    14600.00
01206              -5.60    14800.00
01207              -2.40    15000.00
01208               8.80    15000.00
01209              -1.20    15200.00
01210              -2.40    15600.00
01211               4.80    15800.00
01212               4.40    16000.00
01213              -1.20    16200.00
01214               0.80    16400.00
01215               4.40    16600.00
01216              -0.40    16600.00
01217              -1.20    16600.00
01218               4.40    17000.00
01219               2.40    17000.00
01220              -0.80    17200.00
01221               2.40    17400.00
01222               3.60    17400.00
01223               0.40    17600.00
01224               0.40    17600.00
01225               4.00    17800.00
01226               1.60    18000.00
01227               0.40    18200.00
01228               4.00    18000.00
01229               2.00    18400.00
01230              -0.40    18400.00
01231               2.40    18400.00
01232               2.80    18400.00
01233               0.80    18400.00
01234               1.60    18400.00
01235               3.60    18400.00
01236               1.60    18600.00
01237               0.40    18600.00
01238               2.40    18600.00
01239               2.40    18600.00
01240               0.80    18600.00
01241               2.00    18600.00
01242               3.60    18600.00
01243               1.20    18600.00
01244               1.20    18600.00
01245               3.20    18600.00
01246               2.00    18600.00
01247               0.80    18600.00
01248               2.80    18400.00
01249               2.40    18400.00
01250               1.60    18400.00
01251               2.40    18400.00
01252               2.40    18200.00
01253               1.20    18200.00
01254               2.00    18000.00
01255               2.40    18000.00
01256               1.60    17800.00
01257               2.00    17600.00
01258               2.40    17600.00
01259               2.00    17600.00
01260               2.00    17400.00
01261               2.00    17200.00
01262               2.80    17200.00
01263               2.00    16800.00
01264               1.20    16800.00
01265               2.00    16800.00
01266               2.00    16400.00
01267               0.80    16400.00
01268               2.40    16200.00
01269               2.00    16000.00
01270               0.80    15800.00
01271               1.20    15600.00
01272               2.80    15600.00
01273               1.20    15200.00
01274               0.80    15000.00
01275               2.00    14800.00
01276               2.00    14600.00
01277               0.80    14200.00
01278               0.80    14200.00
01279               1.60    14000.00
01280               0.80    13600.00
01281               0.80    13400.00
01282               1.60    13200.00
01283               1.20    12800.00
01284               1.20    12600.00
01285               0.80    12400.00
01286               1.20    12200.00
01287               0.80    12000.00
01288               0.80    11600.00
01289               1.20    11400.00
01290               0.80    11000.00
01291               0.40    10800.00
01292               1.60    10400.00
01293               0.80    10200.00
01294               0.40    10000.00
01295               0.40     9600.00
01296               0.80     9200.00
01297               1.20     9000.00
01298               0.40     8800.00
01299              -0.80     8400.00
01300               1.20     8000.00
01301               1.20     7800.00
01302              -0.40     7600.00
01303               0.80     7200.00
01304               1.20     6800.00
01305               0.40     6400.00
01306              -0.40     6200.00
01307               0.80     6000.00
01308               0.80     5400.00
01309              -0.40     5200.00
01310              -0.40     4600.00
01311               0.40     4400.00
01312              -0.40     4000.00
01313              -0.40     3600.00
01314               0.00     3400.00
01315               0.80     3000.00
01316               0.00     2800.00
01317              -0.80     2400.00
01318               0.80     2000.00
01319              -0.40     1600.00
01320              -0.80     1400.00
01321               0.00     1000.00
01322               0.40      600.00
01323              -0.40      400.00
01324              -0.80        0.00
01325               0.40     -400.00
01326               1.60     -800.00
01327               2.00    -1000.00
01328              -2.40    -1200.00
01329              -0.40    -1800.00
01330               2.00    -1600.00
01331              -0.80    -2200.00
01332               0.40    -2400.00
01333              18.00    -2800.00
01334              26.80    -3800.00
01335             -49.20    -4200.00
01336             -26.80    -4400.00
01337              42.40    -4600.00
01338             -14.00    -4800.00
01339             -46.40    -4600.00
01340              50.00    -5800.00
01341             -34.40    -5600.00
01342             -50.00    -6000.00
01343              50.00    -6600.00
01344             -40.00    -6400.00
01345             -29.60    -7200.00
01346              21.20    -7400.00
01347               0.80    -7400.00
01348               9.20    -8200.00
01349             -39.20    -8000.00
01350              36.00    -8800.00
01351               5.20    -9000.00
01352             -41.60    -9200.00
01353              20.40    -9600.00
01354               5.20    -9600.00
01355             -10.00   -10400.00
01356             -14.00   -10400.00
01357              23.20   -10800.00
01358              -5.60   -11000.00
01359             -23.20   -11200.00
01360              13.60   -11600.00
01361               0.80   -12000.00
01362              -8.00   -12200.00
01363              -9.20   -12400.00
01364              14.80   -12800.00
01365              -5.60   -13000.00
01366             -13.60   -13200.00
01367               7.60   -13400.00
01368               0.40   -13800.00
01369             -11.60   -14000.00
01370               0.80   -14200.00
01371               9.20   -14400.00
01372             -11.60   -14600.00
01373              -1.20   -14800.00
01374               1.20   -15000.00
01375              -5.60   -15200.00
01376              -4.00   -15600.00
01377              -0.80   -15600.00
01378               1.20   -16000.00
01379              -6.00   -16200.00
01380              -1.20   -16200.00
01381               1.20   -16400.00
01382              -6.00   -16600.00
01383              -2.80   -16800.00
01384               1.60   -16800.00
01385              -4.00   -17000.00
01386              -2.40   -17200.00
01387              -0.80   -17200.00
01388              -2.80   -17400.00
01389              -2.80   -17600.00
01390              -3.60   -17600.00
01391              -0.40   -17800.00
01392              -4.40   -17800.00
01393              -2.00   -18000.00
01394              -0.80   -18200.00
01395              -3.20   -18400.00
01396              -3.60   -18400.00
01397              -2.40   -18400.00
01398              -1.20   -18400.00
01399              -2.80   -18400.00
01400              -2.80   -18400.00
01401              -1.20   -18600.00
01402              -3.20   -18600.00
01403              -3.20   -18800.00
01404              -2.00   -18600.00
01405              -2.80   -18600.00
01406              -3.60   -18800.00
01407              -2.40   -18800.00
01408              -1.20   -18600.00
01409              -4.00   -18600.00
01410              -2.80   -18800.00
01411              -2.40   -18600.00
01412              -2.40   -18600.00
01413              -2.40   -18600.00
01414              -2.40   -18600.00
01415              -3.20   -18600.00
01416              -2.80   -18400.00
01417              -2.40   -18400.00
01418              -2.80   -18400.00
01419              -2.80   -18200.00
01420              -2.00   -18400.00
01421              -2.80   -18200.00
01422              -2.80   -18000.00
01423              -1.60   -17800.00
01424              -3.60   -17800.00
01425              -2.80   -17600.00
01426              -1.20   -17400.00
01427              -3.60   -17400.00
01428              -3.60   -17200.00
01429              -2.00   -17200.00
01430              -2.80   -17000.00
01431              -2.80   -16800.00
01432              -2.00   -16600.00
01433              -2.40   -16400.00
01434              -2.80   -16200.00
01435              -2.00   -16200.00
01436              -2.00   -16000.00
01437              -2.40   -15800.00
01438              -2.00   -15600.00
01439              -2.00   -15400.00
01440              -2.40   -15200.00
01441              -2.40   -15000.00
01442              -2.40   -14800.00
01443              -1.60   -14600.00
01444              -2.00   -14400.00
01445              -2.00   -14000.00
01446              -1.20   -13800.00
01447              -2.40   -13600.00
01448              -2.00   -13200.00
01449              -2.00   -13000.00
01450              -2.00   -13000.00
01451              -1.20   -12800.00
01452              -2.40   -12400.00
01453              -1.20   -12200.00
01454              -2.00   -11800.00
01455              -2.00   -11600.00
01456              -2.00   -11400.00
01457              -1.20   -11000.00
01458              -1.60   -10800.00
01459              -1.20   -10400.00
01460              -2.00   -10200.00
01461              -1.20    -9800.00
01462              -1.60    -9600.00
01463              -0.80    -9200.00
01464              -1.20    -8800.00
01465              -1.20    -8800.00
01466              -1.20    -8200.00
01467              -1.20    -8000.00
01468              -2.00    -7600.00
01469              -1.20    -7400.00
01470              -1.20    -7000.00
01471              -1.20    -6800.00
01472              -0.80    -6400.00
01473              -1.60    -6200.00
01474              -1.20    -5800.00
01475              -0.40    -5200.00
01476              -2.00    -5000.00
01477              -0.80    -4600.00
01478              -0.40    -4400.00
01479              -2.00    -4200.00
01480              -0.80    -3600.00
01481               0.40    -3400.00
01482              -2.00    -3000.00
01483              -0.40    -2600.00
01484              -0.40    -2400.00
01485              -2.00    -2000.00
01486              -0.40    -1600.00
01487              -0.80    -1400.00
01488              -2.00    -1000.00
01489              -0.40     -800.00
01490               0.40     -200.00
01491              -0.80        0.00
01492               0.40      400.00
01493               3.60      600.00
01494              -0.40     1200.00
01495              -2.40     1400.00
01496               2.00     1400.00
01497               2.00     1800.00
01498              -1.20     2200.00
01499               0.80     2400.00
01500              11.60     3000.00
01501              24.40     3800.00
01502             -20.00     4000.00
01503             -41.20     4400.00
01504              19.60     4600.00
01505              24.40     4800.00
01506             -45.20     4800.00
01507              -3.60     5600.00
01508              50.00     6000.00
01509             -50.00     6000.00
01510             -25.60     6600.00
01511              50.00     6600.00
01512             -42.80     7000.00
01513             -31.20     7600.00
01514              36.00     7600.00
01515              13.20     8200.00
01516             -22.80     8400.00
01517             -10.80     8600.00
01518              42.00     9200.00
01519             -14.80     9200.00
01520             -28.40     9600.00
01521              29.60     9800.00
01522               7.20    10200.00
01523             -20.40    10400.00
01524               5.20    10800.00
01525              23.60    11200.00
01526             -14.40    11200.00
01527             -10.80    11800.00
01528              16.40    12000.00
01529               4.00    12200.00
01530             -10.80    12400.00
01531               3.60    12600.00
01532              17.20    13000.00
01533             -11.20    13200.00
01534              -4.40    13400.00
01535              13.60    13600.00
01536              -2.40    14000.00
01537              -7.60    14000.00
01538              10.40    14400.00
01539               6.00    14600.00
01540              -8.40    14800.00
01541               4.40    15000.00
01542               5.20    15200.00
01543              -3.60    15600.00
01544               0.40    15800.00
01545               5.60    15800.00
01546               2.00    16000.00
01547              -1.60    16000.00
01548               3.60    16400.00
01549               2.80    16600.00
01550              -2.00    16800.00
01551               1.20    16800.00
01552               5.20    17000.00
01553               0.40    17000.00
01554               0.80    17200.00
01555               4.00    17400.00
01556               2.00    17400.00
01557              -1.20    17600.00
01558               2.80    17600.00
01559               3.60    18000.00
01560              -1.20    18000.00
01561               3.20    18200.00
01562               4.00    18200.00
01563              -0.40    18400.00
01564               1.20    18200.00
01565               3.20    18400.00
01566               2.00    18400.00
01567               0.80    18600.00
01568               2.80    18400.00
01569               2.80    18600.00
01570               1.20    18600.00
01571               1.20    18400.00
01572               2.00    18800.00
01573               2.00    18600.00
01574               1.20    18800.00
01575               2.40    18800.00
01576               2.80    18600.00
01577               0.80    18400.00
01578               2.00    18800.00
01579               2.40    18400.00
01580               1.60    18400.00
01581               2.40    18400.00
01582               2.40    18400.00
01583               2.40    18400.00
01584               2.40    18200.00
01585               2.00    18200.00
01586               2.00    18000.00
01587               2.00    18000.00
01588               2.00    17800.00
01589               2.00    18000.00
01590               2.00    17800.00
01591               1.60    17600.00
01592               2.00    17600.00
01593               2.40    17400.00
01594               2.00    17200.00
01595               1.60    17200.00
01596               2.00    17200.00
01597               2.00    16800.00
01598               2.00    16800.00
01599               2.40    16600.00
01600               1.20    16400.00
01601               2.00    16400.00
01602               2.00    16200.00
01603               1.20    16000.00
01604               1.20    15800.00
01605               1.60    15600.00
01606               0.80    15600.00
01607               1.60    15200.00
01608               1.20    15000.00
01609               1.20    14800.00
01610               1.20    14600.00
01611               2.00    14200.00
01612               1.20    14000.00
01613               0.80    13800.00
01614               0.80    13600.00
01615               1.20    13400.00
01616               0.80    13200.00
01617               0.80    12800.00
01618               1.20    12600.00
01619               0.80    12400.00
01620               0.80    12000.00
01621               1.20    11800.00
01622               0.40    11400.00
01623               0.80    11200.00
01624               0.80    10800.00
01625               0.80    10400.00
01626               1.20    10400.00
01627               0.40    10000.00
01628               0.80     9600.00
01629               1.20     9400.00
01630               0.40     9200.00
01631               0.80     8800.00
01632               0.80     8600.00
01633               0.40     8200.00
01634               0.80     8000.00
01635               0.40     7600.00
01636               0.40     7200.00
01637               0.40     7000.00
01638               0.80     6800.00
01639               0.40     6400.00
01640               0.40     6000.00
01641               0.40     5600.00
01642               0.40     5400.00
01643               0.40     4800.00
01644               0.00     4600.00
01645               0.40     4400.00
01646               0.40     4000.00
01647              -0.40     3600.00
01648              -0.40     3200.00
01649               0.40     3000.00
01650               0.00     2600.00
01651               0.40     2200.00
01652              -0.80     2000.00
01653              -0.40     1600.00
01654              -0.40     1200.00
01655              -0.80      800.00
01656              -0.40      400.00
01657              -0.40      200.00
01658              -0.40     -200.00
01659               0.40     -400.00
01660               2.80     -800.00
01661               0.40    -1200.00
01662              -2.40    -1400.00
01663               0.80    -1600.00
01664               1.20    -2000.00
01665              -2.40    -2400.00
01666               5.20    -2600.00
01667              32.80    -3400.00
01668              -8.80    -4200.00
01669             -50.00    -4200.00
01670              13.20    -4600.00
01671              37.20    -4800.00
01672             -50.00    -4600.00
01673              17.20    -5000.00
01674              50.00    -5800.00
01675             -50.00    -5600.00
01676              32.80    -6600.00
01677              49.20    -6600.00
01678             -50.00    -6800.00
01679              15.60    -7600.00
01680               5.60    -7200.00
01681              11.60    -8000.00
01682             -18.40    -8000.00
01683             -15.60    -8400.00
01684              47.20    -9000.00
01685             -36.40    -9000.00
01686             -11.60    -9600.00
01687              21.20    -9600.00
01688              -4.00   -10000.00
01689             -15.60   -10400.00
01690               1.20   -10400.00
01691              23.20   -11000.00
01692             -26.00   -11000.00
01693              -4.00   -11600.00
01694              10.80   -11800.00
01695              -4.40   -12000.00
01696             -10.80   -12400.00
01697               2.40   -12400.00
01698              12.40   -12800.00
01699             -17.20   -13200.00
01700              -2.40   -13400.00
01701               7.20   -13600.00
01702              -6.80   -13800.00
01703             -10.40   -14000.00
01704              10.40   -14200.00
01705              -0.80   -14400.00
01706             -10.80   -14600.00
01707               3.60   -15000.00
01708              -2.80   -15200.00
01709              -4.40   -15400.00
01710              -3.60   -15400.00
01711               2.40   -15600.00
01712              -2.40   -16000.00
01713              -5.20   -16000.00
01714               0.40   -16200.00
01715              -1.20   -16600.00
01716              -6.80   -16800.00
01717              -0.80   -16800.00
01718               0.80   -16800.00
01719              -4.40   -17000.00
01720              -2.40   -17200.00
01721              -0.80   -17400.00
01722              -2.40   -17600.00
01723              -5.60   -17600.00
01724              -0.40   -17600.00
01725              -1.20   -17800.00
01726              -5.60   -17800.00
01727               0.40   -18000.00
01728              -1.20   -18000.00
01729              -5.20   -18400.00
01730              -3.60   -18400.00
01731              -0.80   -18400.00
01732              -2.80   -18400.00
01733              -4.00   -18600.00
01734              -1.20   -18600.00
01735              -2.80   -18800.00
01736              -4.00   -18800.00
01737              -2.40   -18600.00
01738              -2.00   -18600.00
01739              -3.60   -18600.00
01740              -3.60   -18800.00
01741              -1.20   -18800.00
01742              -2.40   -18800.00
01743              -4.40   -18600.00
01744              -2.00   -18600.00
01745              -2.40   -18800.00
01746              -3.60   -18600.00
01747              -2.40   -18600.00
01748              -2.40   -18800.00
01749              -2.80   -18600.00
01750              -2.80   -18400.00
01751              -2.40   -18400.00
01752              -3.60   -18400.00
01753              -2.80   -18400.00
01754              -2.40   -18200.00
01755              -2.80   -18000.00
01756              -2.40   -17800.00
01757              -2.40   -17800.00
01758              -3.20   -17800.00
01759              -1.60   -17600.00
01760              -2.80   -17400.00
01761              -2.80   -17200.00
01762              -2.40   -17200.00
01763              -2.40   -17200.00
01764              -2.00   -17000.00
01765              -2.00   -16800.00
01766              -2.80   -16800.00
01767              -2.80   -16600.00
01768              -2.00   -16200.00
01769              -2.00   -16200.00
01770              -2.40   -15800.00
01771              -2.00   -16000.00
01772              -2.00   -15600.00
01773              -2.40   -15400.00
01774              -2.40   -15200.00
01775              -2.40   -14800.00
01776              -2.40   -14600.00
01777              -2.00   -14600.00
01778              -2.00   -14400.00
01779              -2.00   -14000.00
01780              -2.40   -13800.00
01781              -1.60   -13600.00
01782              -2.00   -13200.00
01783              -2.00   -13000.00
01784              -1.20   -12800.00
01785              -2.00   -12600.00
01786              -2.00   -12200.00
01787              -1.60   -12000.00
01788              -1.20   -11600.00
01789              -2.00   -11600.00
01790              -2.00   -11000.00
01791              -2.00   -10800.00
01792              -1.20   -10600.00
01793              -2.00   -10200.00
01794              -2.00   -10000.00
01795              -1.20    -9600.00
01796              -1.20    -9600.00
01797              -1.20    -9200.00
01798              -2.00    -8800.00
01799              -1.20    -8600.00
01800              -2.00    -8200.00
01801              -1.20    -7800.00
01802              -0.80    -7600.00
01803              -2.00    -7200.00
01804              -1.60    -6800.00
01805              -0.80    -6600.00
01806              -1.20    -6400.00
01807              -2.00    -6000.00
01808              -0.80    -5600.00
01809              -0.40    -5200.00
01810              -2.40    -4800.00
01811              -0.80    -4600.00
01812              -0.80    -4200.00
01813              -2.00    -3800.00
01814              -0.80    -3600.00
01815               0.40    -3200.00
01816              -2.00    -3000.00
01817              -0.80    -2600.00
01818              -0.40    -2200.00
01819              -1.20    -2000.00
01820              -0.80    -1600.00
01821              -0.40    -1200.00
01822              -1.20     -800.00
01823              -0.40     -400.00
01824               0.40     -200.00
01825               0.40      200.00
01826               1.60      600.00
01827               3.60      800.00
01828              -2.40     1200.00
01829              -1.20     1600.00
01830               2.80     1800.00
01831               0.80     2000.00
01832              -2.00     2200.00
01833               5.60     2600.00
01834              18.80     3400.00
01835              14.80     4000.00
01836             -41.60     4200.00
01837             -18.40     4400.00
01838              34.00     4800.00
01839              -8.40     4800.00
01840             -46.80     5000.00
01841              50.00     6000.00
01842              36.00     5800.00
01843             -50.00     6400.00
01844              48.80     6800.00
01845              42.00     6800.00
01846             -50.00     7200.00
01847              10.40     7600.00
01848              31.20     7800.00
01849              -5.60     8400.00
01850             -28.00     8400.00
01851              21.20     8800.00
01852              28.00     8800.00
01853             -39.60     9400.00
01854               2.40     9600.00
01855              30.00    10000.00
01856             -12.40    10400.00
01857             -15.20    10600.00
01858              20.00    10800.00
01859              10.40    11200.00
01860             -21.60    11600.00
01861               5.60    11800.00
01862              14.40    12000.00
01863              -6.00    12400.00
01864              -8.40    12600.00
01865              15.20    12800.00
01866               6.00    12800.00
01867             -15.60    13200.00
01868               8.40    13400.00
01869               8.40    14000.00
01870              -9.60    14000.00
01871               0.40    14400.00
01872              13.20    14600.00
01873              -3.20    14800.00
01874              -5.20    15000.00
01875               8.80    15200.00
01876               0.80    15200.00
01877              -4.00    15600.00
01878               4.00    15600.00
01879               6.00    16000.00
01880              -2.00    16200.00
01881               0.80    16200.00
01882               4.40    16600.00
01883               0.80    16600.00
01884              -1.60    16800.00
01885               4.00    16800.00
01886               3.60    17200.00
01887              -1.20    17200.00
01888               2.40    17200.00
01889               3.60    17400.00
01890               0.40    17600.00
01891               0.40    17600.00
01892               4.40    18000.00
01893               2.00    18000.00
01894              -0.40    18000.00
01895               5.20    18000.00
01896               1.60    18200.00
01897              -0.40    18400.00
01898               2.40    18400.00
01899               2.40    18400.00
01900               1.60    18400.00
01901               2.40    18400.00
01902               2.80    18600.00
01903               2.00    18600.00
01904               2.40    18800.00
01905               1.20    18600.00
01906               2.40    18600.00
01907               2.40    18800.00
01908               1.20    18600.00
01909               2.80    18800.00
01910               2.40    18600.00
01911               0.40    18600.00
01912               2.80    18600.00
01913               2.40    18400.00
01914               1.20    18400.00
01915               2.40    18600.00
01916               2.80    18400.00
01917               2.40    18400.00
01918               2.40    18400.00
01919               2.00    18200.00
01920               2.00    18200.00
01921               2.00    18200.00
01922               2.40    18000.00
01923               2.00    18000.00
01924               2.00    17600.00
01925               2.00    17600.00
01926               2.00    17400.00
01927               2.40    17400.00
01928               1.60    17200.00
01929               2.00    17200.00
01930               2.00    17000.00
01931               1.60    16800.00
01932               1.20    16800.00
01933               1.20    16400.00
01934               2.00    16400.00
01935               2.00    16000.00
01936               0.80    16000.00
01937               0.80    15800.00
01938               2.00    15600.00
01939               2.00    15400.00
01940               0.40    15200.00
01941               2.00    15000.00
01942               2.40    14800.00
01943               0.40    14400.00
01944               0.80    14200.00
01945               2.40    14200.00
01946               0.80    13800.00
01947               0.00    13600.00
01948               2.00    13400.00
01949               2.00    13200.00
01950               0.80    12800.00
01951               0.80    12600.00
01952               1.20    12400.00
01953               0.80    12200.00
01954               0.80    12000.00
01955               1.20    11800.00
01956               1.60    11400.00
01957               0.80    11000.00
01958               0.80    10800.00
01959               1.20    10400.00
01960               0.80    10000.00
01961               0.40    10000.00
01962               0.80     9600.00
01963               0.80     9200.00
01964               0.80     9200.00
01965               0.80     8600.00
01966               0.40     8400.00
01967               0.80     8200.00
01968               0.80     7800.00
01969               0.80     7400.00
01970               0.40     7200.00
01971               1.20     7000.00
01972               0.80     6600.00
01973               0.40     6200.00
01974               0.40     6000.00
01975               0.40     5400.00
01976               0.40     5000.00
01977               0.40     4800.00
01978               0.80     4400.00
01979               0.40     4000.00
01980              -0.40     3800.00
01981               0.00     3400.00
01982               0.40     3000.00
01983               0.40     2800.00
01984              -0.40     2400.00
01985               0.00     2000.00
01986               0.40     1800.00
01987               0.80     1400.00
01988              -0.80     1000.00
01989              -0.80      800.00
01990               0.40      400.00
01991              -0.40        0.00
01992              -0.80     -400.00
01993               1.60     -600.00
01994               2.80    -1000.00
01995              -4.00    -1200.00
01996              -1.20    -1600.00
01997               2.80    -1800.00
01998              -0.40    -2200.00
01999              -1.20    -2400.00
02000              15.60    -2800.00
02001              31.60    -3600.00
02002             -44.40    -4200.00
02003             -36.40    -4400.00
02004              39.20    -4600.00
02005              -3.60    -4800.00
02006             -50.00    -4600.00
02007              50.00    -5600.00
02008             -12.40    -5800.00
02009             -50.00    -5600.00
02010              50.00    -6800.00
02011             -25.20    -6600.00
02012             -40.40    -7200.00
02013              24.00    -7400.00
02014               0.40    -7400.00
02015              13.20    -8200.00
02016             -39.60    -8000.00
02017              27.20    -8800.00
02018              16.40    -8800.00
02019             -45.60    -9200.00
02020              16.40    -9800.00
02021               8.80    -9800.00
02022              -8.00   -10200.00
02023             -16.40   -10400.00
02024              20.40   -10600.00
02025               1.20   -11200.00
02026             -26.40   -11200.00
02027              11.60   -11600.00
02028               3.60   -12000.00
02029              -7.60   -12400.00
02030             -10.80   -12400.00
02031              14.40   -12800.00
02032              -2.00   -13000.00
02033             -16.80   -13200.00
02034               7.20   -13400.00
02035               2.00   -13800.00
02036             -11.60   -14000.00
02037              -2.40   -14000.00
02038              10.80   -14600.00
02039             -10.80   -14600.00
02040              -3.20   -15000.00
02041               2.40   -15200.00
02042              -5.20   -15400.00
02043              -4.40   -15600.00
02044              -0.80   -15600.00
02045               2.00   -16000.00
02046              -5.20   -16200.00
02047              -2.40   -16200.00
02048               0.80   -16400.00
02049              -4.80   -16800.00
02050              -5.20   -16800.00
02051               0.80   -16800.00
02052              -2.40   -17000.00
02053              -2.80   -17000.00
02054              -2.00   -17200.00
02055              -1.20   -17400.00
02056              -4.00   -17600.00
02057              -4.40   -17600.00
02058               0.80   -17800.00
02059              -4.80   -17800.00
02060              -3.60   -18200.00
02061               0.40   -18000.00
02062              -3.60   -18400.00
02063              -4.00   -18400.00
02064              -2.80   -18400.00
02065              -1.20   -18400.00
02066              -3.60   -18600.00
02067              -3.60   -18600.00
02068              -1.20   -18600.00
02069              -3.60   -18600.00
02070              -3.60   -18600.00
02071              -2.40   -18400.00
02072              -2.80   -18800.00
02073              -3.60   -18600.00
02074              -2.80   -18600.00
02075              -1.20   -18600.00
02076              -3.60   -18600.00
02077              -3.60   -18800.00
02078              -2.00   -18600.00
02079              -2.40   -18600.00
02080              -3.60   -18600.00
02081              -2.80   -18600.00
02082              -2.40   -18600.00
02083              -3.20   -18400.00
02084              -2.40   -18400.00
02085              -2.00   -18400.00
02086              -3.60   -18200.00
02087              -2.40   -18400.00
02088              -2.00   -18000.00
02089              -2.80   -18000.00
02090              -2.40   -17800.00
02091              -2.80   -17800.00
02092              -2.40   -17800.00
02093              -2.00   -17400.00
02094              -2.80   -17600.00
02095              -2.40   -17200.00
02096              -2.40   -17200.00
02097              -2.40   -17000.00
02098              -2.40   -16800.00
02099              -2.40   -16800.00
02100              -2.40   -16600.00
02101              -2.80   -16400.00
02102              -2.40   -16200.00
02103              -2.00   -16000.00
02104              -2.40   -15800.00
02105              -2.00   -15600.00
02106              -2.00   -15200.00
02107              -1.20   -15200.00
02108              -2.40   -15200.00
02109              -2.40   -14800.00
02110              -2.00   -14600.00
02111              -2.00   -14400.00
02112              -2.40   -14200.00
02113              -2.40   -14000.00
02114              -2.40   -13800.00
02115              -2.00   -13400.00
02116              -2.00   -13200.00
02117              -1.20   -13000.00
02118              -1.20   -12800.00
02119              -2.40   -12400.00
02120              -1.20   -12200.00
02121              -2.00   -12000.00
02122              -2.40   -11600.00
02123              -2.00   -11400.00
02124              -2.00   -11000.00
02125              -1.20   -10800.00
02126              -2.00   -10400.00
02127              -2.00   -10200.00
02128              -1.60    -9800.00
02129              -2.00    -9600.00
02130              -1.20    -9200.00
02131              -1.20    -9000.00
02132              -1.20    -8800.00
02133              -1.60    -8400.00
02134              -1.20    -8200.00
02135              -2.00    -7600.00
02136              -1.60    -7400.00
02137              -1.20    -7000.00
02138              -1.20    -6800.00
02139              -1.20    -6400.00
02140              -1.20    -6200.00
02141              -2.00    -5800.00
02142              -0.80    -5400.00
02143              -1.20    -5200.00
02144              -1.20    -4600.00
02145              -1.20    -4400.00
02146              -1.20    -4000.00
02147              -1.20    -3600.00
02148              -0.40    -3400.00
02149              -1.20    -3200.00
02150              -0.80    -2800.00
02151              -0.40    -2400.00
02152              -0.80    -2200.00
02153              -1.20    -1800.00
02154               0.00    -1200.00
02155              -0.80    -1000.00
02156              -0.40     -800.00
02157               2.80     -400.00
02158              -4.80        0.00
02159               3.20      400.00
02160               2.80      800.00
02161              -8.80     1000.00
02162              11.60     1200.00
02163              -8.00     1600.00
02164              13.20     2000.00
02165               0.00     2200.00
02166              -2.40     2400.00
02167               5.20     3000.00
02168              25.20     3600.00
02169             -13.60     4000.00
02170             -50.00     4400.00
02171              23.60     4800.00
02172              33.20     4800.00
02173             -46.40     4800.00
02174             -10.80     5400.00
02175              50.00     5800.00
02176             -50.00     5600.00
02177             -44.00     6400.00
02178              50.00     6400.00
02179             -33.20     7000.00
02180             -34.40     7600.00
02181              38.00     7600.00
02182              14.80     7800.00
02183             -19.60     8400.00
02184             -16.80     8400.00
02185              36.00     8800.00
02186              -6.80     9200.00
02187             -32.40     9400.00
02188              27.20     9800.00
02189              12.00    10200.00
02190             -18.80    10400.00
02191               2.00    10800.00
02192              22.00    11200.00
02193             -11.20    11200.00
02194             -13.20    11600.00
02195              14.80    11800.00
02196               5.20    12200.00
02197             -10.40    12400.00
02198               0.80    12800.00
02199              17.60    13000.00
02200              -7.60    13200.00
02201              -6.80    13400.00
02202              13.20    13600.00
02203              -0.80    14000.00
02204              -8.80    14200.00
02205               8.00    14400.00
02206               9.20    14800.00
02207              -9.20    14800.00
02208               2.40    15000.00
02209               7.20    15200.00
02210              -2.40    15400.00
02211              -0.80    15600.00
02212               6.80    15800.00
02213               2.00    16000.00
02214              -2.40    16200.00
02215               4.00    16400.00
02216               3.60    16400.00
02217              -2.00    16800.00
02218               1.20    16800.00
02219               5.60    17000.00
02220              -0.40    17200.00
02221               0.40    17400.00
02222               4.00    17400.00
02223               1.20    17400.00
02224              -1.20    17600.00
02225               2.80    18000.00
02226               4.40    18000.00
02227              -0.80    17800.00
02228               3.60    18200.00
02229               4.40    18200.00
02230               0.40    18400.00
02231               1.20    18200.00
02232               2.80    18400.00
02233               2.00    18400.00
02234               1.20    18400.00
02235               2.40    18600.00
02236               2.80    18800.00
02237               2.00    18400.00
02238               1.20    18400.00
02239               2.40    18800.00
02240               2.40    18800.00
02241               1.20    18800.00
02242               2.40    18800.00
02243               2.40    18600.00
02244               0.80    18800.00
02245               2.40    18800.00
02246               2.80    18600.00
02247               0.80    18400.00
02248               2.00    18400.00
02249               2.40    18400.00
02250               2.00    18400.00
02251               2.00    18400.00
02252               2.40    18200.00
02253               1.20    18200.00
02254               1.60    18200.00
02255               2.40    18000.00
02256               1.20    17800.00
02257               1.20    17600.00
02258               2.00    17600.00
02259               2.00    17400.00
02260               1.20    17400.00
02261               0.80    17200.00
02262               1.60    17200.00
02263               1.20    17000.00
02264               2.00    17000.00
02265               2.00    16800.00
02266               2.40    16600.00
02267               0.80    16400.00
02268               1.20    16400.00
02269               1.20    16000.00
02270               1.20    15800.00
02271               0.80    15800.00
02272               1.20    15600.00
02273               1.20    15200.00
02274               0.80    15200.00
02275               1.20    14800.00
02276               2.00    14800.00
02277               1.20    14600.00
02278               1.20    14200.00
02279               1.20    14000.00
02280               0.80    13600.00
02281               0.80    13600.00
02282               0.80    13400.00
02283               1.20    13200.00
02284               0.80    12800.00
02285               1.20    12600.00
02286               1.20    12400.00
02287               1.20    12000.00
02288               0.80    11800.00
02289               0.80    11600.00
02290               0.80    11200.00
02291               0.80    11000.00
02292               1.20    10800.00
02293               1.20    10400.00
02294               0.80    10000.00
02295               1.20     9600.00
02296               0.80     9400.00
02297               0.40     9200.00
02298               1.20     8800.00
02299               0.80     8600.00
02300               0.80     8400.00
02301               0.80     7800.00
02302               0.40     7800.00
02303               0.80     7200.00
02304               0.80     7000.00
02305               0.80     6800.00
02306               0.80     6400.00
02307               0.40     6000.00
02308               0.40     5600.00
02309               0.80     5400.00
02310               0.00     5000.00
02311               0.40     4600.00
02312               0.00     4400.00
02313               0.40     4000.00
02314               0.40     3600.00
02315               0.40     3200.00
02316              -0.40     3000.00
02317               0.00     2400.00
02318              -0.40     2200.00
02319              -0.40     2000.00
02320               0.40     1600.00
02321              -0.40     1200.00
02322              -0.80      800.00
02323               0.40      400.00
02324              -0.80        0.00
02325              -0.80     -200.00
02326               0.80     -400.00
02327               2.00     -800.00
02328               0.80    -1000.00
02329              -2.40    -1200.00
02330              -0.80    -1600.00
02331               1.20    -2000.00
02332              -2.00    -2400.00
02333               4.00    -2600.00
02334              29.20    -3200.00
02335               0.40    -4000.00
02336             -50.00    -4200.00
02337               5.20    -4400.00
02338              42.40    -4600.00
02339             -47.60    -4400.00
02340               0.80    -4800.00
02341              50.00    -5800.00
02342             -50.00    -5400.00
02343              14.00    -6400.00
02344              50.00    -6400.00
02345             -50.00    -6600.00
02346               8.40    -7400.00
02347               8.80    -7200.00
02348               8.80    -8000.00
02349             -10.40    -8200.00
02350             -23.20    -8200.00
02351              48.40    -9000.00
02352             -28.80    -8800.00
02353             -18.40    -9400.00
02354              22.80    -9600.00
02355              -2.40   -10000.00
02356             -14.00   -10600.00
02357              -2.80   -10400.00
02358              26.00   -11000.00
02359             -22.80   -11200.00
02360              -9.20   -11600.00
02361              12.40   -11600.00
02362              -2.80   -12200.00
02363             -10.40   -12400.00
02364              -0.40   -12600.00
02365              15.20   -13000.00
02366             -16.00   -13000.00
02367              -4.80   -13200.00
02368               7.60   -13600.00
02369              -5.60   -13800.00
02370             -11.20   -14000.00
02371               8.40   -14400.00
02372               2.40   -14600.00
02373             -12.00   -14800.00
02374               3.60   -15000.00
02375              -2.00   -15200.00
02376              -4.80   -15200.00
02377              -4.40   -15600.00
02378               2.00   -15800.00
02379              -1.20   -15800.00
02380              -6.00   -16200.00
02381               0.40   -16200.00
02382              -0.40   -16400.00
02383              -7.60   -16800.00
02384              -2.40   -16800.00
02385               2.00   -17000.00
02386              -4.40   -17000.00
02387              -3.60   -17200.00
02388              -0.80   -17200.00
02389              -2.00   -17600.00
02390              -6.80   -17600.00
02391              -0.40   -17600.00
02392              -0.80   -17800.00
02393              -7.20   -17800.00
02394              -0.40   -18200.00
02395              -0.80   -18200.00
02396              -5.20   -18200.00
02397              -4.00   -18400.00
02398              -1.20   -18400.00
02399              -2.40   -18400.00
02400              -4.40   -18600.00
02401              -1.20   -18600.00
02402              -2.40   -18600.00
02403              -4.40   -18600.00
02404              -2.00   -18600.00
02405              -2.40   -18600.00
02406              -4.00   -18800.00
02407              -3.60   -18800.00
02408              -1.20   -18600.00
02409              -2.40   -18800.00
02410              -4.40   -18800.00
02411              -2.00   -18600.00
02412              -2.40   -18600.00
02413              -2.80   -18600.00
02414              -2.40   -18600.00
02415              -2.80   -18600.00
02416              -2.40   -18400.00
02417              -2.40   -18400.00
02418              -2.80   -18400.00
02419              -2.40   -18400.00
02420              -3.60   -18200.00
02421              -2.40   -18000.00
02422              -2.00   -17800.00
02423              -2.80   -17800.00
02424              -2.00   -17800.00
02425              -2.40   -17600.00
02426              -2.40   -17400.00
02427              -2.00   -17600.00
02428              -2.40   -17200.00
02429              -2.80   -17200.00
02430              -2.00   -17200.00
02431              -1.20   -17000.00
02432              -3.20   -16800.00
02433              -2.00   -16600.00
02434              -2.40   -16400.00
02435              -3.60   -16400.00
02436              -1.20   -16200.00
02437              -2.40   -16000.00
02438              -2.40   -15600.00
02439              -1.20   -15400.00
02440              -2.40   -15400.00
02441              -2.40   -15200.00
02442              -2.00   -15000.00
02443              -2.00   -14800.00
02444              -2.00   -14400.00
02445              -2.00   -14400.00
02446              -2.00   -14000.00
02447              -2.80   -14000.00
02448              -2.00   -13600.00
02449              -2.40   -13400.00
02450              -2.00   -13000.00
02451              -2.00   -13000.00
02452              -2.40   -12400.00
02453              -2.40   -12400.00
02454              -2.00   -12000.00
02455              -2.40   -11800.00
02456              -2.00   -11600.00
02457              -2.00   -11000.00
02458              -1.20   -10800.00
02459              -1.60   -10600.00
02460              -2.40   -10400.00
02461              -1.20   -10000.00
02462              -1.60    -9800.00
02463              -2.00    -9400.00
02464              -1.60    -9200.00
02465              -1.60    -8800.00
02466              -1.20    -8600.00
02467              -1.60    -8200.00
02468              -1.20    -8000.00
02469              -1.60    -7400.00
02470              -2.00    -7200.00
02471              -1.20    -6800.00
02472              -1.20    -6600.00
02473              -2.00    -6400.00
02474              -1.20    -6000.00
02475              -1.20    -5600.00
02476              -0.40    -5200.00
02477              -1.20    -5000.00
02478              -0.80    -4600.00
02479              -0.80    -4200.00
02480              -1.20    -4000.00
02481              -0.80    -3600.00
02482              -0.40    -3400.00
02483              -1.20    -3000.00
02484              -0.80    -2600.00
02485              -0.80    -2200.00
02486              -1.20    -1800.00
02487              -0.40    -1600.00
02488               0.40    -1200.00
02489              -1.20     -800.00
02490               0.40     -400.00
02491               0.80     -200.00
02492              -1.20        0.00
02493               0.40      400.00
02494               5.60      800.00
02495              -2.40     1200.00
02496              -1.20     1400.00
02497               2.80     1600.00
02498              -0.40     2000.00
02499              -0.80     2200.00
02500               4.40     2800.00
02501              16.80     3200.00
02502              19.20     3800.00
02503             -38.00     4200.00
02504             -24.80     4400.00
02505              31.60     4600.00
02506               0.80     4800.00
02507             -48.40     5000.00
02508              42.40     5600.00
02509              50.00     5800.00
02510             -50.00     6200.00
02511              33.60     6600.00
02512              50.00     6800.00
02513             -50.00     7200.00
02514               0.00     7400.00
02515              32.80     7800.00
02516              -0.40     8400.00
02517             -28.40     8600.00
02518              13.20     8800.00
02519              34.00     9000.00
02520             -36.40     9400.00
02521              -5.20     9600.00
02522              32.40    10000.00
02523             -10.00    10400.00
02524             -18.00    10600.00
02525              17.20    10800.00
02526              14.80    11200.00
02527             -22.00    11400.00
02528               2.00    11800.00
02529              15.20    12000.00
02530              -5.60    12400.00
02531              -9.60    12600.00
02532              14.00    12800.00
02533               8.40    13000.00
02534             -16.00    13200.00
02535               6.00    13400.00
02536              10.80    14000.00
02537              -8.40    14000.00
02538              -1.60    14400.00
02539              13.20    14400.00
02540              -1.20    14800.00
02541              -6.00    15000.00
02542               8.40    15200.00
02543               0.80    15600.00
02544              -2.80    15800.00
02545               3.20    15800.00
02546               6.00    16000.00
02547               0.00    16000.00
02548              -0.40    16400.00
02549               4.40    16400.00
02550               1.20    16600.00
02551              -1.20    16800.00
02552               3.60    16800.00
02553               4.80    17200.00
02554              -1.20    17200.00
02555               2.40    17200.00
02556               4.80    17600.00
02557               0.00    17400.00
02558              -0.80    17800.00
02559               5.20    18000.00
02560               2.00    17800.00
02561              -0.80    18200.00
02562               5.20    18200.00
02563               2.40    18200.00
02564              -0.80    18200.00
02565               2.00    18400.00
02566               2.80    18400.00
02567               1.60    18400.00
02568               1.20    18400.00
02569               2.80    18600.00
02570               3.20    18600.00
02571               0.80    18600.00
02572               1.60    18400.00
02573               2.40    18600.00
02574               2.00    18800.00
02575               1.20    18600.00
02576               2.80    18600.00
02577               2.40    18400.00
02578               0.80    18600.00
02579               2.00    18400.00
02580               2.00    18600.00
02581               1.20    18600.00
02582               2.00    18400.00
02583               2.40    18400.00
02584               2.00    18400.00
02585               1.20    18400.00
02586               2.00    18200.00
02587               2.00    18200.00
02588               1.60    18200.00
02589               1.20    18000.00
02590               1.20    17800.00
02591               2.00    17600.00
02592               1.20    17600.00
02593               1.60    17600.00
02594               2.00    17400.00
02595               2.00    17400.00
02596               1.20    17200.00
02597               1.20    17000.00
02598               2.00    16800.00
02599               1.20    16800.00
02600               2.00    16600.00
02601               2.00    16400.00
02602               2.00    16200.00
02603               1.20    16000.00
02604               1.20    15800.00
02605               1.20    15800.00
02606               1.20    15600.00
02607               1.20    15200.00
02608               1.20    15000.00
02609               1.60    15000.00
02610               0.80    14600.00
02611               0.80    14400.00
02612               2.00    14200.00
02613               1.20    14000.00
02614               1.20    13600.00
02615               0.80    13400.00
02616               1.20    13200.00
02617               1.20    12800.00
02618               0.80    12800.00
02619               0.80    12400.00
02620               2.00    12400.00
02621               0.80    12000.00
02622               0.80    11600.00
02623               1.20    11400.00
02624               0.80    11000.00
02625               1.20    11000.00
02626               1.60    10400.00
02627               0.80    10400.00
02628               0.80    10000.00
02629               1.20     9600.00
02630               0.80     9400.00
02631               0.80     9000.00
02632               0.80     8800.00
02633               0.80     8400.00
02634               0.40     8000.00
02635               0.80     7800.00
02636               0.80     7400.00
02637               0.40     7200.00
02638               0.40     6800.00
02639               1.20     6600.00
02640               0.40     6200.00
02641               0.40     6000.00
02642               0.80     5600.00
02643              -0.40     5200.00
02644               0.40     4800.00
02645               0.40     4400.00
02646              -0.40     4000.00
02647              -0.40     3800.00
02648              -0.40     3400.00
02649              -0.40     3000.00
02650              -0.40     2800.00
02651               0.40     2400.00
02652               0.40     2200.00
02653              -0.40     1600.00
02654               0.00     1400.00
02655              -0.40      800.00
02656              -1.20      600.00
02657              -0.80      400.00
02658              -0.40        0.00
02659              -0.40     -400.00
02660               0.40     -400.00
02661               2.80     -800.00
02662              -2.40    -1200.00
02663              -2.00    -1600.00
02664               2.00    -1800.00
02665               0.00    -2200.00
02666              -1.20    -2400.00
02667              12.40    -2800.00
02668              34.40    -3800.00
02669             -37.20    -4200.00
02670             -45.20    -4400.00
02671              34.40    -4600.00
02672               7.20    -4800.00
02673             -50.00    -4400.00
02674              50.00    -5600.00
02675              10.80    -5600.00
02676             -50.00    -5600.00
02677              50.00    -6600.00
02678              -9.20    -6400.00
02679             -50.00    -7000.00
02680              24.40    -7400.00
02681               0.80    -7400.00
02682              14.80    -8200.00
02683             -37.60    -8200.00
02684              18.80    -8800.00
02685              26.80    -9000.00
02686             -46.80    -9000.00
02687              12.40    -9600.00
02688              12.40    -9600.00
02689              -7.60   -10200.00
02690             -17.20   -10400.00
02691              17.20   -10800.00
02692               7.60   -11000.00
02693             -28.00   -11400.00
02694              10.00   -11600.00
02695               5.20   -12000.00
02696              -6.80   -12000.00
02697             -12.00   -12400.00
02698              12.00   -12800.00
02699               2.00   -12800.00
02700             -17.60   -13200.00
02701               5.60   -13400.00
02702               2.80   -13600.00
02703             -10.80   -14000.00
02704              -4.00   -14000.00
02705              11.60   -14400.00
02706              -8.80   -14600.00
02707              -5.20   -14800.00
02708               2.80   -15000.00
02709              -4.40   -15200.00
02710              -4.80   -15600.00
02711              -2.00   -15600.00
02712               2.40   -15800.00
02713              -5.20   -16000.00
02714              -3.60   -16200.00
02715               0.80   -16400.00
02716              -4.00   -16400.00
02717              -6.40   -16800.00
02718               1.20   -17000.00
02719              -1.60   -17000.00
02720              -4.00   -17200.00
02721              -2.00   -17200.00
02722              -1.20   -17400.00
02723              -4.00   -17600.00
02724              -5.20   -17600.00
02725               0.80   -17800.00
02726              -4.40   -18000.00
02727              -4.40   -18000.00
02728               0.40   -18000.00
02729              -2.80   -18200.00
02730              -5.20   -18400.00
02731              -2.80   -18400.00
02732              -1.20   -18400.00
02733              -2.80   -18600.00
02734              -3.60   -18600.00
02735              -0.80   -18600.00
02736              -2.80   -18600.00
02737              -4.00   -18800.00
02738              -1.20   -18600.00
02739              -2.80   -18800.00
02740              -3.60   -18800.00
02741              -2.40   -18800.00
02742              -1.60   -18800.00
02743              -2.80   -18600.00
02744              -4.00   -18800.00
02745              -1.20   -18600.00
02746              -2.00   -18600.00
02747              -2.80   -18600.00
02748              -2.40   -18600.00
02749              -2.40   -18600.00
02750              -2.40   -18400.00
02751              -2.80   -18400.00
02752              -2.00   -18400.00
02753              -2.80   -18400.00
02754              -2.40   -18200.00
02755              -2.00   -18200.00
02756              -2.80   -17800.00
02757              -2.00   -18000.00
02758              -2.80   -17800.00
02759              -2.80   -17400.00
02760              -1.20   -17400.00
02761              -2.80   -17400.00
02762              -2.80   -17400.00
02763              -2.40   -17000.00
02764              -2.00   -17000.00
02765              -2.00   -16800.00
02766              -2.40   -16800.00
02767              -2.80   -16800.00
02768              -2.40   -16400.00
02769              -2.40   -16400.00
02770              -2.40   -16000.00
02771              -2.00   -16000.00
02772              -2.00   -15600.00
02773              -2.40   -15400.00
02774              -2.00   -15200.00
02775              -2.00   -15200.00
02776              -2.40   -14800.00
02777              -2.80   -14600.00
02778              -1.60   -14400.00
02779              -2.00   -14200.00
02780              -2.40   -14000.00
02781              -2.40   -13600.00
02782              -2.00   -13600.00
02783              -2.40   -13200.00
02784              -2.00   -13000.00
02785              -2.00   -12800.00
02786              -2.00   -12400.00
02787              -2.00   -12200.00
02788              -2.00   -12000.00
02789              -2.40   -11600.00
02790              -2.40   -11400.00
02791              -2.00   -11000.00
02792              -1.20   -10800.00
02793              -2.00   -10400.00
02794              -2.40   -10200.00
02795              -1.60    -9800.00
02796              -1.20    -9600.00
02797              -1.20    -9200.00
02798              -2.00    -9000.00
02799              -1.20    -8800.00
02800              -1.20    -8400.00
02801              -1.60    -8200.00
02802              -1.20    -7800.00
02803              -1.20    -7400.00
02804              -2.00    -7200.00
02805              -1.20    -6800.00
02806              -0.80    -6400.00
02807              -1.20    -6200.00
02808              -1.20    -5800.00
02809              -0.40    -5600.00
02810              -2.40    -5000.00
02811              -0.80    -4800.00
02812               0.40    -4400.00
02813              -2.40    -4200.00
02814              -0.40    -3600.00
02815               0.80    -3200.00
02816              -2.00    -3200.00
02817               0.40    -2800.00
02818              -0.40    -2400.00
02819              -2.00    -2000.00
02820              -0.40    -1800.00
02821               0.40    -1400.00
02822              -1.20    -1000.00
02823              -0.80     -600.00
02824               0.80     -400.00
02825               0.40        0.00
02826              -0.40      400.00
02827               2.80      600.00
02828               2.40      800.00
02829              -2.40     1200.00
02830               0.80     1400.00
02831               2.80     2000.00
02832              -0.40     2200.00
02833              -0.40     2400.00
02834               8.80     3000.00
02835              23.20     3600.00
02836              -6.00     4000.00
02837             -44.40     4200.00
02838               7.20     4600.00
02839              30.80     4600.00
02840             -35.60     4800.00
02841             -24.80     5400.00
02842              50.00     6000.00
02843             -25.20     5600.00
02844             -50.00     6600.00
02845              50.00     6800.00
02846             -14.00     6800.00
02847             -48.80     7600.00
02848              30.80     7600.00
02849              20.00     8000.00
02850             -17.20     8400.00
02851             -21.20     8400.00
02852              37.60     9000.00
02853               1.60     9200.00
02854             -37.60     9600.00
02855              22.80     9600.00
02856              16.80    10000.00
02857             -19.60    10400.00
02858              -4.00    10800.00
02859              24.40    11000.00
02860              -6.80    11200.00
02861             -16.80    11600.00
02862              13.60    11800.00
02863               8.40    12200.00
02864             -10.40    12400.00
02865              -2.00    12600.00
02866              18.40    13000.00
02867              -5.20    13200.00
02868             -10.00    13400.00
02869              14.00    13600.00
02870               2.40    14000.00
02871             -10.00    14000.00
02872               6.80    14200.00
02873              10.40    14600.00
02874              -7.60    14800.00
02875               1.20    15000.00
02876               7.60    15200.00
02877              -2.40    15600.00
02878              -0.80    15600.00
02879               5.60    16000.00
02880               4.00    16000.00
02881              -1.20    16200.00
02882               2.00    16400.00
02883               4.00    16600.00
02884              -0.40    16600.00
02885               0.40    16800.00
02886               4.40    16800.00
02887               2.00    17200.00
02888               0.80    17200.00
02889               2.80    17400.00
02890               3.60    17400.00
02891               0.80    17600.00
02892               1.20    17600.00
02893               4.00    18000.00
02894               0.80    18000.00
02895               2.00    18000.00
02896               4.00    18200.00
02897               0.80    18200.00
02898               0.80    18200.00
02899               2.40    18400.00
02900               2.80    18400.00
02901               0.80    18600.00
02902               2.00    18400.00
02903               3.60    18800.00
02904               1.20    18600.00
02905               1.20    18600.00
02906               2.80    18800.00
02907               2.00    18600.00
02908               0.80    18600.00
02909               2.80    18600.00
02910               2.40    18600.00
02911               0.40    18600.00
02912               2.40    18600.00
02913               2.80    18600.00
02914               0.80    18400.00
02915               2.00    18600.00
02916               2.40    18400.00
02917               1.60    18400.00
02918               1.20    18400.00
02919               2.00    18200.00
02920               2.40    18200.00
02921               2.00    18200.00
02922               2.00    17800.00
02923               2.00    18000.00
02924               1.20    17800.00
02925               2.00    17600.00
02926               1.20    17600.00
02927               1.20    17400.00
02928               2.00    17400.00
02929               1.20    17200.00
02930               1.20    17200.00
02931               1.60    17000.00
02932               2.00    16800.00
02933               2.80    16600.00
02934               1.20    16600.00
02935               0.80    16400.00
02936               2.00    16200.00
02937               2.80    16000.00
02938               0.40    15800.00
02939               0.80    15600.00
02940               2.00    15600.00
02941               1.60    15200.00
02942               0.40    15000.00
02943               2.00    14800.00
02944               2.40    14400.00
02945               1.20    14400.00
02946               1.20    14200.00
02947               2.00    13800.00
02948               1.20    13600.00
02949               0.80    13400.00
02950               1.20    13200.00
02951               1.20    12800.00
02952               0.80    12600.00
02953               1.20    12400.00
02954               1.20    12000.00
02955               0.80    11800.00
02956               0.80    11400.00
02957               1.20    11200.00
02958               0.80    11000.00
02959               0.80    10800.00
02960               1.20    10400.00
02961               0.80    10200.00
02962               0.80     9800.00
02963               0.80     9400.00
02964               0.80     9200.00
02965               0.80     9000.00
02966               0.40     8600.00
02967               0.80     8400.00
02968               0.40     8000.00
02969               0.40     7600.00
02970               0.80     7400.00
02971               0.40     7000.00
02972               0.80     6600.00
02973               0.40     6200.00
02974               0.40     6200.00
02975               0.00     5600.00
02976               0.80     5400.00
02977              -0.40     4800.00
02978               0.40     4600.00
02979               0.40     4200.00
02980              -0.80     3800.00
02981               0.40     3600.00
02982              -0.40     3200.00
02983               0.40     2800.00
02984              -0.40     2600.00
02985              -1.20     2200.00
02986               0.40     2000.00
02987               0.00     1600.00
02988              -0.40     1200.00
02989               0.00      800.00
02990              -0.80      600.00
02991              -0.40      200.00
02992               0.00        0.00
02993               0.00     -400.00
02994               2.00     -800.00
02995               1.20    -1000.00
02996              -2.40    -1200.00
02997              -0.80    -1800.00
02998               0.80    -2000.00
02999              -1.60    -2200.00
03000               3.60    -2400.00
03001              26.80    -3200.00
03002               8.80    -4000.00
03003             -50.00    -4200.00
03004              -3.60    -4400.00
03005              44.00    -4800.00
03006             -38.80    -4600.00
03007             -15.20    -4800.00
03008              50.00    -5800.00
03009             -50.00    -5400.00
03010              -5.20    -6200.00
03011              50.00    -6800.00
03012             -50.00    -6600.00
03013              -1.20    -7400.00
03014              13.20    -7200.00
03015               6.40    -7800.00
03016              -4.40    -8200.00
03017             -30.00    -8200.00
03018              48.00    -9000.00
03019             -20.40    -8800.00
03020             -26.40    -9600.00
03021              23.20    -9600.00
03022              -0.80    -9800.00
03023             -12.80   -10400.00
03024              -6.00   -10400.00
03025              27.20   -10800.00
03026             -18.40   -11200.00
03027             -13.60   -11600.00
03028              14.00   -11600.00
03029              -2.40   -12000.00
03030              -9.20   -12200.00
03031              -3.60   -12400.00
03032              15.60   -12800.00
03033             -13.60   -13000.00
03034              -7.20   -13400.00
03035               7.60   -13600.00
03036              -4.40   -13800.00
03037             -11.60   -14000.00
03038               6.00   -14200.00
03039               3.60   -14400.00
03040             -12.00   -14800.00
03041               2.40   -15000.00
03042              -1.20   -15200.00
03043              -5.20   -15400.00
03044              -4.40   -15600.00
03045               1.20   -15600.00
03046              -0.80   -16000.00
03047              -6.00   -16000.00
03048              -0.80   -16200.00
03049              -0.80   -16400.00
03050              -6.80   -16600.00
03051              -2.80   -16800.00
03052               1.20   -16800.00
03053              -4.00   -17000.00
03054              -2.80   -17200.00
03055              -1.20   -17200.00
03056              -1.20   -17600.00
03057              -6.00   -17800.00
03058              -1.20   -17800.00
03059               0.00   -17800.00
03060              -6.40   -18000.00
03061              -0.80   -18200.00
03062              -0.40   -18000.00
03063              -5.20   -18400.00
03064              -3.60   -18400.00
03065              -1.20   -18400.00
03066              -2.40   -18400.00
03067              -4.00   -18600.00
03068              -1.20   -18600.00
03069              -2.00   -18600.00
03070              -4.00   -18600.00
03071              -2.00   -18800.00
03072              -2.40   -18600.00
03073              -2.80   -18800.00
03074              -2.80   -18600.00
03075              -1.20   -18600.00
03076              -2.00   -18600.00
03077              -4.00   -18800.00
03078              -2.40   -18800.00
03079              -2.00   -18600.00
03080              -2.80   -18600.00
03081              -2.40   -18600.00
03082              -2.40   -18600.00
03083              -2.80   -18400.00
03084              -2.80   -18400.00
03085              -2.40   -18400.00
03086              -2.40   -18400.00
03087              -2.80   -18400.00
03088              -2.40   -18000.00
03089              -2.00   -18000.00
03090              -2.40   -17800.00
03091              -2.80   -17800.00
03092              -2.00   -17600.00
03093              -2.00   -17600.00
03094              -2.40   -17400.00
03095              -2.40   -17200.00
03096              -2.40   -17200.00
03097              -2.80   -17000.00
03098              -2.40   -17000.00
03099              -2.00   -16800.00
03100              -2.80   -16600.00
03101              -2.80   -16400.00
03102              -2.40   -16200.00
03103              -2.00   -16200.00
03104              -2.80   -16000.00
03105              -2.40   -15600.00
03106              -2.00   -15600.00
03107              -2.40   -15400.00
03108              -1.60   -15200.00
03109              -2.80   -15200.00
03110              -2.40   -14800.00
03111              -1.60   -14400.00
03112              -2.80   -14200.00
03113              -2.40   -14200.00
03114              -2.00   -13800.00
03115              -3.20   -13600.00
03116              -2.00   -13400.00
03117              -2.00   -13000.00
03118              -2.40   -12800.00
03119              -2.40   -12800.00
03120              -2.00   -12200.00
03121              -1.20   -12200.00
03122              -2.80   -11800.00
03123              -2.00   -11600.00
03124              -2.00   -11400.00
03125              -2.40   -11000.00
03126              -1.20   -10800.00
03127              -2.00   -10200.00
03128              -2.40   -10000.00
03129              -1.20    -9800.00
03130              -1.20    -9600.00
03131              -2.40    -9200.00
03132              -1.20    -8800.00
03133              -0.80    -8600.00
03134              -2.00    -8400.00
03135              -1.20    -8000.00
03136              -0.40    -7600.00
03137              -1.20    -7200.00
03138              -2.00    -7000.00
03139              -1.20    -6600.00
03140              -1.20    -6400.00
03141              -2.00    -6000.00
03142              -0.80    -5800.00
03143              -0.40    -5200.00
03144              -2.00    -5000.00
03145              -0.40    -4600.00
03146              -0.80    -4200.00
03147              -2.00    -4000.00
03148              -0.80    -3600.00
03149               0.40    -3200.00
03150              -1.20    -2800.00
03151              -0.40    -2600.00
03152               0.00    -2200.00
03153              -0.80    -2000.00
03154              -0.80    -1600.00
03155              -0.80    -1200.00
03156              -0.40    -1000.00
03157              -0.40     -400.00
03158              -0.40        0.00
03159               0.40      200.00
03160               0.80      400.00
03161               3.60      800.00
03162              -0.80     1200.00
03163              -0.80     1400.00
03164               1.20     1800.00
03165               0.80     2000.00
03166              -0.80     2200.00
03167               3.60     2600.00
03168              14.80     3200.00
03169              21.20     3800.00
03170             -34.00     4000.00
03171             -31.60     4400.00
03172              29.60     4600.00
03173               8.40     4800.00
03174             -49.20     5000.00
03175              29.60     5800.00
03176              50.00     6000.00
03177             -50.00     6200.00
03178              18.40     6800.00
03179              50.00     6600.00
03180             -50.00     7200.00
03181              -7.60     7600.00
03182              34.80     7600.00
03183               3.20     8200.00
03184             -26.80     8600.00
03185               5.60     8600.00
03186              36.80     9000.00
03187             -30.80     9200.00
03188             -12.00     9600.00
03189              30.80    10000.00
03190              -5.60    10200.00
03191             -18.00    10400.00
03192              13.60    10800.00
03193              18.00    11000.00
03194             -19.60    11400.00
03195              -2.00    11800.00
03196              15.20    12000.00
03197              -2.40    12400.00
03198             -10.00    12600.00
03199              10.80    12800.00
03200              12.00    13000.00
03201             -14.40    13200.00
03202               3.60    13400.00
03203              11.60    13800.00
03204              -6.80    14000.00
03205              -2.80    14200.00
03206              13.60    14600.00
03207               0.80    14800.00
03208              -7.20    15000.00
03209               8.40    15000.00
03210               2.40    15200.00
03211              -3.60    15600.00
03212               3.60    15800.00
03213               6.40    16000.00
03214               0.00    16000.00
03215              -0.40    16000.00
03216               5.20    16400.00
03217               2.00    16600.00
03218              -2.00    16800.00
03219               4.00    16800.00
03220               4.80    17200.00
03221              -1.20    17200.00
03222               2.00    17200.00
03223               4.40    17400.00
03224               0.80    17600.00
03225              -0.40    17600.00
03226               5.20    17800.00
03227               2.80    18000.00
03228              -0.80    18000.00
03229               4.00    18200.00
03230               2.40    18200.00
03231              -0.40    18200.00
03232               2.00    18400.00
03233               3.60    18400.00
03234               1.20    18400.00
03235               0.40    18400.00
03236               2.80    18600.00
03237               2.80    18400.00
03238               0.40    18400.00
03239               2.00    18600.00
03240               2.40    18600.00
03241               1.60    18600.00
03242               1.20    18800.00
03243               3.20    18800.00
03244               2.40    18800.00
03245               0.40    18600.00
03246               2.40    18600.00
03247               2.40    18400.00
03248               0.80    18400.00
03249               2.00    18400.00
03250               2.40    18600.00
03251               2.00    18400.00
03252               1.20    18200.00
03253               2.40    18200.00
03254               2.00    18200.00
03255               1.20    18000.00
03256               2.40    18000.00
03257               2.40    17800.00
03258               1.20    17600.00
03259               2.00    17600.00
03260               2.00    17600.00
03261               2.00    17400.00
03262               1.20    17200.00
03263               2.00    17200.00
03264               1.60    16800.00
03265               1.20    16800.00
03266               2.00    16800.00
03267               2.80    16600.00
03268               1.20    16400.00
03269               2.00    16200.00
03270               2.00    16000.00
03271               2.00    15800.00
03272               0.80    15800.00
03273               2.40    15600.00
03274               1.20    15200.00
03275               0.80    15000.00
03276               2.00    14800.00
03277               1.20    14800.00
03278               1.20    14400.00
03279               2.00    14200.00
03280               2.00    14000.00
03281               1.20    13600.00
03282               0.80    13400.00
03283               1.20    13200.00
03284               2.00    13200.00
03285               0.40    12800.00
03286               1.20    12600.00
03287               1.20    12400.00
03288               0.80    12000.00
03289               1.20    11800.00
03290               1.20    11600.00
03291               0.80    11200.00
03292               0.80    10800.00
03293               1.20    10600.00
03294               0.80    10400.00
03295               0.80    10000.00
03296               0.80     9600.00
03297               0.80     9400.00
03298               0.40     9200.00
03299               0.40     8800.00
03300               0.40     8400.00
03301               0.40     8000.00
03302               0.40     8000.00
03303               1.20     7400.00
03304               0.40     7200.00
03305               0.00     6800.00
03306               1.20     6600.00
03307               0.40     6200.00
03308              -0.40     6000.00
03309               0.40     5600.00
03310               0.00     5400.00
03311              -0.40     4800.00
03312              -0.40     4400.00
03313               0.00     4000.00
03314               0.00     3800.00
03315              -0.40     3600.00
03316               0.40     3200.00
03317               0.40     2800.00
03318              -0.80     2400.00
03319              -0.80     2200.00
03320               0.40     1800.00
03321              -0.80     1600.00
03322              -0.80     1200.00
03323               0.40      800.00
03324              -0.40      400.00
03325              -0.40        0.00
03326               0.40     -400.00
03327              -0.40     -400.00
03328               2.80    -1000.00
03329              -1.20    -1200.00
03330              -2.00    -1600.00
03331               1.20    -1800.00
03332               0.80    -2200.00
03333              -2.00    -2400.00
03334              10.40    -2800.00
03335              36.00    -3600.00
03336             -29.60    -4200.00
03337             -50.00    -4400.00
03338              29.60    -4400.00
03339              17.60    -4800.00
03340             -50.00    -4400.00
03341              50.00    -5200.00
03342              30.80    -5800.00
03343             -50.00    -5600.00
03344              50.00    -6600.00
03345               6.80    -6600.00
03346             -50.00    -6800.00
03347              24.80    -7400.00
03348               1.20    -7400.00
03349              15.60    -8200.00
03350             -33.20    -8000.00
03351               9.60    -8800.00
03352              34.00    -9000.00
03353             -46.00    -9000.00
03354               7.20    -9800.00
03355              14.80    -9800.00
03356              -6.00   -10000.00
03357             -17.60   -10400.00
03358              12.80   -10800.00
03359              13.60   -11200.00
03360             -29.60   -11200.00
03361               6.80   -11800.00
03362               6.80   -12000.00
03363              -6.80   -12200.00
03364             -11.20   -12400.00
03365               9.60   -12600.00
03366               5.20   -12800.00
03367             -17.60   -13200.00
03368               4.00   -13400.00
03369               3.60   -13600.00
03370              -9.20   -13800.00
03371              -6.80   -14000.00
03372              10.80   -14400.00
03373              -6.40   -14600.00
03374              -7.60   -14800.00
03375               4.40   -15000.00
03376              -4.40   -15200.00
03377              -6.00   -15600.00
03378              -1.20   -15600.00
03379               2.80   -16000.00
03380              -6.80   -16000.00
03381              -3.60   -16200.00
03382               2.00   -16400.00
03383              -4.40   -16800.00
03384              -6.00   -16600.00
03385               1.20   -16800.00
03386              -2.00   -16800.00
03387              -4.00   -17200.00
03388              -2.00   -17200.00
03389              -1.20   -17200.00
03390              -3.20   -17600.00
03391              -5.20   -17600.00
03392               0.80   -17800.00
03393              -4.00   -18000.00
03394              -4.80   -18000.00
03395               0.80   -18200.00
03396              -2.40   -18200.00
03397              -4.40   -18400.00
03398              -2.40   -18400.00
03399              -0.80   -18600.00
03400              -3.60   -18600.00
03401              -3.20   -18400.00
03402              -1.20   -18600.00
03403              -2.80   -18600.00
03404              -3.60   -18600.00
03405              -2.00   -18600.00
03406              -2.40   -18600.00
03407              -3.60   -18600.00
03408              -2.80   -18600.00
03409              -0.80   -18800.00
03410              -2.80   -18800.00
03411              -4.00   -18800.00
03412              -1.20   -18600.00
03413              -2.40   -18600.00
03414              -2.80   -18600.00
03415              -2.40   -18600.00
03416              -2.40   -18600.00
03417              -2.40   -18400.00
03418              -2.80   -18400.00
03419              -2.00   -18400.00
03420              -2.40   -18200.00
03421              -3.60   -18400.00
03422              -2.40   -18000.00
03423              -2.00   -18000.00
03424              -2.80   -17800.00
03425              -2.80   -17800.00
03426              -2.00   -17800.00
03427              -2.40   -17400.00
03428              -2.80   -17400.00
03429              -2.40   -17200.00
03430              -2.40   -17000.00
03431              -2.80   -17000.00
03432              -2.40   -16800.00
03433              -2.40   -16800.00
03434              -2.40   -16600.00
03435              -2.80   -16400.00
03436              -2.00   -16200.00
03437              -2.00   -16200.00
03438              -3.20   -16000.00
03439              -2.00   -15800.00
03440              -2.00   -15600.00
03441              -2.80   -15200.00
03442              -2.00   -15200.00
03443              -2.80   -14800.00
03444              -2.40   -14600.00
03445              -1.60   -14400.00
03446              -2.40   -14400.00
03447              -2.40   -14000.00
03448              -2.40   -13600.00
03449              -2.40   -13400.00
03450              -2.00   -13200.00
03451              -2.40   -13000.00
03452              -2.00   -12800.00
03453              -2.00   -12400.00
03454              -2.00   -12200.00
03455              -2.40   -12000.00
03456              -2.00   -11800.00
03457              -2.00   -11400.00
03458              -2.40   -11000.00
03459              -1.20   -10800.00
03460              -1.60   -10600.00
03461              -2.40   -10200.00
03462              -1.20   -10000.00
03463              -1.20    -9600.00
03464              -1.60    -9200.00
03465              -2.00    -9000.00
03466              -1.20    -8800.00
03467              -1.20    -8400.00
03468              -1.60    -8200.00
03469              -1.20    -7600.00
03470              -0.80    -7600.00
03471              -1.20    -7000.00
03472              -1.20    -6800.00
03473              -0.80    -6600.00
03474              -1.20    -6200.00
03475              -2.00    -5800.00
03476              -0.80    -5600.00
03477              -0.40    -5000.00
03478              -1.20    -4800.00
03479              -0.80    -4400.00
03480              -1.20    -4200.00
03481              -1.20    -3800.00
03482              -0.80    -3600.00
03483              -0.40    -3200.00
03484              -0.80    -2800.00
03485              -0.80    -2400.00
03486              -0.40    -2000.00
03487              -0.80    -1600.00
03488              -1.20    -1400.00
03489              -1.20    -1200.00
03490              -0.40     -800.00
03491              -0.40     -400.00
03492               0.40        0.00
03493               0.40      400.00
03494               2.00      600.00
03495               2.40      800.00
03496              -2.40     1200.00
03497              -0.40     1400.00
03498               2.40     1800.00
03499               0.80     2000.00
03500              -1.20     2400.00
03501               7.20     2800.00
03502              22.80     3600.00
03503               0.40     3800.00
03504             -45.20     4400.00
03505               0.40     4600.00
03506              33.20     4600.00
03507             -29.20     4800.00
03508             -32.80     5400.00
03509              50.00     6000.00
03510              -8.80     5600.00
03511             -50.00     6400.00
03512              50.00     6600.00
03513               0.80     6800.00
03514             -50.00     7400.00
03515              26.80     7600.00
03516              23.20     8000.00
03517             -14.40     8400.00
03518             -24.40     8600.00
03519              34.40     9000.00
03520              10.00     9000.00
03521             -39.60     9600.00
03522              17.60     9600.00
03523              21.20    10200.00
03524             -18.00    10400.00
03525              -7.20    10600.00
03526              23.60    11000.00
03527              -2.40    11200.00
03528             -18.40    11600.00
03529              12.40    11800.00
03530              10.00    12200.00
03531              -9.20    12400.00
03532              -3.60    12600.00
03533              18.40    12800.00
03534              -2.40    13200.00
03535             -12.00    13200.00
03536              13.20    13400.00
03537               4.00    14000.00
03538              -9.20    14000.00
03539               5.60    14600.00
03540              10.80    14400.00
03541              -7.20    14800.00
03542               0.80    15000.00
03543               8.40    15200.00
03544              -2.40    15600.00
03545              -1.20    15600.00
03546               5.20    15800.00
03547               4.00    16000.00
03548              -1.20    16400.00
03549               2.80    16400.00
03550               4.80    16400.00
03551              -1.20    16800.00
03552              -0.40    16800.00
03553               5.20    17000.00
03554               2.00    17000.00
03555              -0.80    17200.00
03556               3.60    17400.00
03557               2.80    17600.00
03558              -1.20    17400.00
03559               2.00    17600.00
03560               4.40    17800.00
03561              -1.20    18000.00
03562               2.00    18000.00
03563               4.40    18200.00
03564               0.40    18200.00
03565               0.80    18400.00
03566               3.20    18400.00
03567               2.40    18400.00
03568               0.80    18400.00
03569               2.00    18600.00
03570               3.60    18600.00
03571               0.80    18600.00
03572               0.80    18400.00
03573               3.60    18800.00
03574               1.20    18600.00
03575               0.80    18600.00
03576               2.80    18600.00
03577               2.40    18800.00
03578               0.40    18800.00
03579               2.00    18600.00
03580               2.80    18400.00
03581               1.60    18600.00
03582               1.60    18600.00
03583               2.00    18400.00
03584               2.40    18400.00
03585               2.00    18400.00
03586               2.00    18400.00
03587               2.00    18200.00
03588               1.60    18200.00
03589               1.20    18000.00
03590               2.00    18000.00
03591               1.60    17600.00
03592               2.40    17600.00
03593               2.00    17600.00
03594               2.00    17400.00
03595               2.00    17400.00
03596               2.00    17400.00
03597               1.20    17200.00
03598               1.20    17000.00
03599               2.40    16800.00
03600               2.40    16600.00
03601               0.80    16400.00
03602               2.00    16400.00
03603               2.40    16200.00
03604               1.20    16000.00
03605               1.20    15800.00
03606               2.40    15600.00
03607               1.20    15200.00
03608               1.20    15200.00
03609               2.00    15000.00
03610               1.60    14800.00
03611               0.80    14600.00
03612               2.00    14400.00
03613               2.00    14200.00
03614               1.20    13800.00
03615               0.80    13600.00
03616               1.20    13400.00
03617               1.20    13200.00
03618               0.80    12800.00
03619               0.80    12600.00
03620               1.20    12400.00
03621               0.80    12000.00
03622               0.80    12000.00
03623               0.80    11600.00
03624               0.80    11200.00
03625               0.80    11200.00
03626               0.80    10800.00
03627               0.80    10400.00
03628               0.80    10200.00
03629               0.80     9800.00
03630               0.80     9400.00
03631               0.80     9200.00
03632               0.40     8800.00
03633               0.40     8600.00
03634               0.40     8400.00
03635               0.40     8000.00
03636              -0.40     7800.00
03637               0.80     7400.00
03638               0.00     7200.00
03639               0.40     6800.00
03640               0.80     6400.00
03641               0.00     6200.00
03642              -0.40     5800.00
03643               0.80     5400.00
03644               0.00     4800.00
03645              -0.40     4600.00
03646               0.40     4400.00
03647              -0.40     4000.00
03648               0.00     3800.00
03649              -0.40     3400.00
03650               0.00     3000.00
03651               0.40     2800.00
03652              -0.80     2200.00
03653               0.40     2000.00
03654               0.40     1600.00
03655              -1.20     1200.00
03656              -0.40     1000.00
03657              -0.40      600.00
03658              -0.40      200.00
03659              -0.40        0.00
03660               0.40     -400.00
03661               2.00     -800.00
03662               2.40    -1000.00
03663              -2.80    -1400.00
03664              -0.80    -1600.00
03665               2.00    -1800.00
03666              -1.20    -2200.00
03667               2.00    -2400.00
03668              23.20    -3200.00
03669              17.20    -4000.00
03670             -50.00    -4200.00
03671             -12.00    -4400.00
03672              45.20    -4600.00
03673             -29.60    -4800.00
03674             -28.80    -4600.00
03675              50.00    -5600.00
03676             -50.00    -5600.00
03677             -23.60    -6200.00
03678              50.00    -6600.00
03679             -50.00    -6600.00
03680             -11.60    -7400.00
03681              16.40    -7200.00
03682               4.40    -7600.00
03683               2.00    -8200.00
03684             -34.40    -8000.00
03685              44.80    -9200.00
03686             -10.80    -9000.00
03687             -32.80    -9600.00
03688              23.20    -9800.00
03689               1.20    -9800.00
03690             -11.60   -10400.00
03691             -10.00   -10400.00
03692              26.40   -10800.00
03693             -14.80   -11200.00
03694             -17.20   -11600.00
03695              14.00   -11800.00
03696              -2.40   -12000.00
03697              -8.80   -12400.00
03698              -5.60   -12400.00
03699              15.20   -12800.00
03700             -10.80   -13000.00
03701              -9.20   -13400.00
03702               7.20   -13600.00
03703              -2.40   -13800.00
03704             -11.60   -14000.00
03705               3.60   -14200.00
03706               6.00   -14600.00
03707             -12.00   -14600.00
03708               0.80   -14800.00
03709              -0.80   -15200.00
03710              -5.20   -15400.00
03711              -4.40   -15600.00
03712               0.40   -15600.00
03713              -0.40   -16000.00
03714              -6.00   -16000.00
03715              -0.80   -16400.00
03716               0.00   -16400.00
03717              -6.00   -16800.00
03718              -3.60   -16800.00
03719               1.20   -16800.00
03720              -2.80   -17200.00
03721              -3.20   -17200.00
03722              -1.20   -17200.00
03723              -1.20   -17400.00
03724              -5.20   -17600.00
03725              -2.00   -17400.00
03726               0.40   -17800.00
03727              -5.60   -17800.00
03728              -1.20   -18000.00
03729              -0.40   -18000.00
03730              -4.40   -18400.00
03731              -3.60   -18400.00
03732              -2.00   -18400.00
03733              -1.20   -18400.00
03734              -3.60   -18400.00
03735              -2.00   -18600.00
03736              -2.00   -18600.00
03737              -3.60   -18600.00
03738              -2.40   -18600.00
03739              -2.40   -18800.00
03740              -2.40   -18600.00
03741              -3.60   -18800.00
03742              -2.00   -18800.00
03743              -1.20   -18800.00
03744              -4.40   -18800.00
03745              -2.40   -18600.00
03746              -2.00   -18600.00
03747              -2.80   -18600.00
03748              -2.40   -18600.00
03749              -2.40   -18600.00
03750              -2.40   -18400.00
03751              -2.80   -18600.00
03752              -2.80   -18400.00
03753              -2.00   -18200.00
03754              -3.60   -18400.00
03755              -2.40   -18200.00
03756              -3.60   -18000.00
03757              -2.40   -18000.00
03758              -2.40   -17800.00
03759              -4.00   -17600.00
03760              -1.20   -17400.00
03761              -2.40   -17400.00
03762              -4.40   -17400.00
03763              -2.00   -17200.00
03764              -2.40   -17200.00
03765              -2.80   -17000.00
03766              -2.40   -17000.00
03767              -2.00   -16600.00
03768              -3.60   -16600.00
03769              -2.40   -16400.00
03770              -1.20   -16000.00
03771              -3.20   -16000.00
03772              -2.40   -15800.00
03773              -2.00   -15600.00
03774              -2.40   -15400.00
03775              -1.60   -15200.00
03776              -2.40   -15000.00
03777              -2.80   -14600.00
03778              -1.20   -14600.00
03779              -2.00   -14400.00
03780              -2.40   -14000.00
03781              -1.20   -13800.00
03782              -2.00   -13600.00
03783              -2.00   -13600.00
03784              -2.40   -13000.00
03785              -2.00   -12800.00
03786              -2.00   -12800.00
03787              -2.00   -12400.00
03788              -1.20   -12200.00
03789              -1.20   -11800.00
03790              -2.40   -11600.00
03791              -2.40   -11200.00
03792              -0.80   -11000.00
03793              -2.00   -10600.00
03794              -2.40   -10400.00
03795              -2.00   -10000.00
03796              -1.20    -9800.00
03797              -1.20    -9600.00
03798              -0.80    -9200.00
03799              -1.60    -8800.00
03800              -1.20    -8400.00
03801              -1.20    -8200.00
03802              -1.60    -8000.00
03803              -1.20    -7600.00
03804              -1.20    -7200.00
03805              -2.00    -7000.00
03806              -0.80    -6600.00
03807              -1.20    -6400.00
03808              -1.20    -6000.00
03809              -1.20    -5800.00
03810              -0.40    -5200.00
03811              -1.20    -5000.00
03812              -0.80    -4600.00
03813              -0.40    -4200.00
03814              -1.20    -4000.00
03815              -1.20    -3600.00
03816               0.40    -3400.00
03817              -1.20    -3200.00
03818              -1.20    -2600.00
03819              -0.80    -2400.00
03820              -0.80    -2000.00
03821              -1.20    -1600.00
03822              -0.80    -1400.00
03823              -0.80     -800.00
03824              -0.80     -600.00
03825              -0.40     -200.00
03826               0.40        0.00
03827               0.40      400.00
03828               4.00      800.00
03829              -0.40     1000.00
03830              -2.40     1200.00
03831               1.60     1600.00
03832               1.20     2000.00
03833              -2.00     2200.00
03834               2.40     2600.00
03835              13.60     3200.00
03836              23.20     3800.00
03837             -29.60     4000.00
03838             -36.00     4400.00
03839              26.40     4600.00
03840              15.20     4800.00
03841             -49.20     5000.00
03842              16.80     5400.00
03843              50.00     6000.00
03844             -50.00     6000.00
03845               2.40     6600.00
03846              50.00     6600.00
03847             -50.00     7200.00
03848             -15.60     7600.00
03849              36.40     7600.00
03850               6.40     8200.00
03851             -25.20     8400.00
03852              -0.40     8600.00
03853              39.60     9000.00
03854             -25.20     9200.00
03855             -18.40     9600.00
03856              31.60    10000.00
03857              -0.80    10400.00
03858             -18.80    10400.00
03859              10.80    10800.00
03860              20.40    11000.00
03861             -18.40    11400.00
03862              -5.60    11600.00
03863              16.40    12000.00
03864               0.40    12200.00
03865             -10.80    12600.00
03866               8.40    12800.00
03867              14.80    12800.00
03868             -13.60    13200.00
03869               0.40    13400.00
03870              13.60    13600.00
03871              -5.20    14000.00
03872              -5.20    14200.00
03873              13.20    14600.00
03874               2.80    14600.00
03875              -8.40    14800.00
03876               7.20    15000.00
03877               4.00    15400.00
03878              -4.00    15600.00
03879               2.00    15800.00
03880               5.60    16000.00
03881               0.80    16000.00
03882              -0.80    16400.00
03883               4.40    16400.00
03884               2.00    16600.00
03885              -1.60    16800.00
03886               2.80    16800.00
03887               4.80    17000.00
03888              -1.20    17200.00
03889               2.00    17200.00
03890               4.00    17400.00
03891               0.80    17600.00
03892              -0.80    17600.00
03893               4.00    17800.00
03894               2.40    18000.00
03895              -0.80    18000.00
03896               5.20    18200.00
03897               2.00    18400.00
03898              -0.40    18200.00
03899               2.40    18200.00
03900               2.00    18400.00
03901               0.80    18400.00
03902               1.20    18600.00
03903               3.60    18400.00
03904               2.40    18400.00
03905               1.20    18600.00
03906               2.00    18600.00
03907               2.40    18600.00
03908               2.00    18600.00
03909               1.20    18800.00
03910               2.80    18800.00
03911               2.40    18600.00
03912               0.80    18600.00
03913               2.00    18600.00
03914               2.40    18400.00
03915               0.80    18400.00
03916               1.60    18400.00
03917               2.80    18600.00
03918               2.80    18400.00
03919               2.00    18400.00
03920               2.00    18200.00
03921               2.40    18200.00
03922               1.20    18000.00
03923               1.60    18000.00
03924               2.00    17800.00
03925               2.00    17600.00
03926               2.00    17600.00
03927               1.60    17600.00
03928               2.40    17400.00
03929               2.00    17400.00
03930               1.60    17200.00
03931               2.00    17200.00
03932               2.00    16800.00
03933               2.00    16800.00
03934               2.00    16600.00
03935               1.20    16400.00
03936               2.40    16200.00
03937               2.00    16000.00
03938               1.20    15800.00
03939               1.60    15800.00
03940               2.40    15600.00
03941               0.80    15400.00
03942               1.20    15000.00
03943               1.20    14800.00
03944               0.80    14800.00
03945               2.00    14600.00
03946               1.60    14200.00
03947               1.20    14000.00
03948               1.20    13600.00
03949               0.80    13400.00
03950               0.80    13200.00
03951               1.20    13200.00
03952               0.80    12800.00
03953               1.20    12400.00
03954               1.60    12400.00
03955               0.40    12000.00
03956               0.80    11800.00
03957               0.80    11400.00
03958               0.80    11200.00
03959               0.40    10800.00
03960               0.80    10600.00
03961               1.20    10200.00
03962               0.80    10000.00
03963               0.80     9600.00
03964               0.80     9400.00
03965               0.40     9000.00
03966               0.40     8800.00
03967               0.40     8600.00
03968               0.80     8200.00
03969               0.40     7800.00
03970               0.80     7600.00
03971               0.40     7200.00
03972              -0.40     7000.00
03973               0.80     6600.00
03974               0.40     6400.00
03975               0.40     6000.00
03976               0.40     5600.00
03977               0.80     5400.00
03978               0.40     4800.00
03979               0.40     4400.00
03980               0.00     4400.00
03981               0.00     3800.00
03982               0.00     3600.00
03983              -0.40     3200.00
03984               0.40     3000.00
03985               0.40     2400.00
03986               0.00     2200.00
03987              -0.40     2000.00
03988              -0.40     1600.00
03989              -0.40     1000.00
03990              -0.80      800.00
03991              -0.40      400.00
03992               0.40      400.00
03993              -0.40     -400.00
03994               0.40     -400.00
03995               4.00     -800.00
03996              -1.20    -1000.00
03997              -2.00    -1600.00
03998               2.00    -1800.00
03999               0.80    -2200.00
04000              -2.40    -2400.00
04001               8.40    -2600.00
04002              36.00    -3600.00
04003             -21.60    -4000.00
04004             -50.00    -4400.00
04005              24.40    -4400.00
04006              26.00    -4800.00
04007             -50.00    -4400.00
04008              42.40    -5400.00
04009              48.40    -5800.00
04010             -50.00    -5600.00
04011              50.00    -6400.00
04012              23.20    -6400.00
04013             -50.00    -7000.00
04014              22.80    -7400.00
04015               2.00    -7200.00
04016              14.40    -8200.00
04017             -28.00    -8000.00
04018              -0.40    -8400.00
04019              40.80    -9000.00
04020             -44.00    -9000.00
04021               0.40    -9800.00
04022              17.20    -9600.00
04023              -5.60   -10000.00
04024             -17.20   -10400.00
04025               8.40   -10600.00
04026              18.40   -11200.00
04027             -29.20   -11200.00
04028               2.80   -11600.00
04029               8.40   -11800.00
04030              -6.00   -12200.00
04031             -12.00   -12400.00
04032               6.80   -12600.00
04033               8.40   -13000.00
04034             -18.40   -13200.00
04035               1.60   -13400.00
04036               5.60   -13800.00
04037              -8.80   -13800.00
04038              -7.60   -14000.00
04039              11.60   -14400.00
04040              -4.00   -14400.00
04041              -8.40   -14800.00
04042               4.00   -15200.00
04043              -3.60   -15200.00
04044              -5.20   -15400.00
04045              -2.80   -15600.00
04046               2.40   -16000.00
04047              -4.40   -16000.00
04048              -4.40   -16200.00
04049               0.80   -16400.00
04050              -2.40   -16400.00
04051              -6.80   -16800.00
04052               0.40   -16800.00
04053              -0.40   -17000.00
04054              -4.00   -17000.00
04055              -2.00   -17200.00
04056              -0.80   -17600.00
04057              -2.40   -17400.00
04058              -5.20   -17600.00
04059               0.80   -17800.00
04060              -3.60   -17800.00
04061              -4.40   -17800.00
04062               0.80   -18000.00
04063              -3.60   -18400.00
04064              -4.00   -18400.00
04065              -2.00   -18200.00
04066              -2.00   -18400.00
04067              -2.40   -18400.00
04068              -2.80   -18400.00
04069              -2.00   -18600.00
04070              -2.40   -18600.00
04071              -3.20   -18600.00
04072              -2.40   -18600.00
04073              -2.40   -18600.00
04074              -2.80   -18600.00
04075              -2.80   -18600.00
04076              -1.20   -18600.00
04077              -2.40   -18600.00
04078              -4.00   -18800.00
04079              -2.00   -18600.00
04080              -2.40   -18600.00
04081              -2.80   -18800.00
04082              -2.80   -18600.00
04083              -2.40   -18600.00
04084              -2.40   -18600.00
04085              -3.60   -18400.00
04086              -2.00   -18400.00
04087              -2.40   -18400.00
04088              -4.00   -18200.00
04089              -2.40   -18000.00
04090              -2.40   -18000.00
04091              -2.40   -18000.00
04092              -2.80   -17800.00
04093              -2.80   -17800.00
04094              -2.40   -17400.00
04095              -2.40   -17400.00
04096              -2.80   -17200.00
04097              -3.20   -17200.00
04098              -2.00   -17200.00
04099              -2.00   -16800.00
04100              -2.80   -16800.00
04101              -2.40   -16800.00
04102              -2.40   -16400.00
04103              -2.80   -16200.00
04104              -2.00   -16200.00
04105              -2.40   -15800.00
04106              -2.40   -15600.00
04107              -2.00   -15400.00
04108              -2.00   -15200.00
04109              -2.00   -15200.00
04110              -2.40   -14800.00
04111              -2.00   -14600.00
04112              -2.00   -14400.00
04113              -2.40   -14400.00
04114              -2.00   -14000.00
04115              -2.80   -13600.00
04116              -2.40   -13400.00
04117              -1.20   -13200.00
04118              -2.00   -13000.00
04119              -2.00   -12800.00
04120              -1.20   -12400.00
04121              -2.00   -12200.00
04122              -2.00   -12000.00
04123              -2.00   -11800.00
04124              -2.00   -11400.00
04125              -2.00   -10800.00
04126              -1.20   -10800.00
04127              -1.20   -10400.00
04128              -2.00   -10400.00
04129              -1.20   -10000.00
04130              -2.00    -9800.00
04131              -1.20    -9400.00
04132              -1.20    -9000.00
04133              -1.20    -8800.00
04134              -0.80    -8400.00
04135              -1.60    -8200.00
04136              -1.20    -8000.00
04137              -1.20    -7600.00
04138              -2.40    -7200.00
04139              -1.20    -6800.00
04140              -0.80    -6600.00
04141              -2.00    -6400.00
04142              -2.00    -5800.00
04143              -1.20    -5600.00
04144              -0.40    -5200.00
04145              -2.00    -4800.00
04146              -0.40    -4600.00
04147              -1.20    -4200.00
04148              -1.20    -4000.00
04149              -0.80    -3400.00
04150              -0.40    -3200.00
04151              -1.60    -2800.00
04152              -0.80    -2400.00
04153              -0.80    -2400.00
04154              -1.20    -1800.00
04155              -1.20    -1600.00
04156              -0.80    -1200.00
04157              -1.20     -800.00
04158              -0.40     -200.00
04159               0.00     -200.00
04160              -0.80      400.00
04161               2.00      600.00
04162               3.20      800.00
04163              -2.40     1200.00
04164               0.00     1600.00
04165               2.40     2000.00
04166               0.40     2000.00
04167              -2.00     2400.00
04168               6.80     2800.00
04169              21.20     3600.00
04170               6.40     4000.00
04171             -44.00     4400.00
04172              -7.20     4400.00
04173              34.40     4800.00
04174             -21.20     4800.00
04175             -39.60     5200.00
04176              50.00     6000.00
04177               9.20     5800.00
04178             -50.00     6400.00
04179              50.00     6400.00
04180              16.80     6800.00
04181             -50.00     7400.00
04182              22.00     7600.00
04183              26.40     7800.00
04184             -10.80     8400.00
04185             -26.80     8600.00
04186              29.60     8800.00
04187              16.80     9000.00
04188             -40.40     9400.00
04189              12.40     9600.00
04190              25.20    10200.00
04191             -15.60    10400.00
04192             -10.40    10600.00
04193              22.00    11000.00
04194               3.60    11200.00
04195             -20.00    11600.00
04196              10.00    11800.00
04197              12.40    12200.00
04198              -8.80    12400.00
04199              -4.80    12800.00
04200              16.80    12800.00
04201               0.40    13000.00
04202             -13.20    13400.00
04203              12.00    13600.00
04204               4.40    13800.00
04205              -8.40    14000.00
04206               4.00    14200.00
04207              10.80    14600.00
04208              -4.80    14800.00
04209              -1.20    15000.00
04210               7.60    15200.00
04211              -1.20    15400.00
04212              -1.60    15600.00
04213               4.00    15800.00
04214               4.40    16000.00
04215              -2.00    16200.00
04216               1.60    16400.00
04217               4.40    16400.00
04218              -0.80    16600.00
04219              -0.80    16800.00
04220               5.60    17000.00
04221               1.20    17000.00
04222              -0.80    17200.00
04223               3.60    17400.00
04224               3.60    17600.00
04225              -0.80    17400.00
04226               0.80    17600.00
04227               5.20    17800.00
04228               0.40    18000.00
04229               0.80    18000.00
04230               4.80    18200.00
04231               0.80    18200.00
04232               0.40    18400.00
04233               2.80    18400.00
04234               2.80    18400.00
04235               0.40    18400.00
04236               2.00    18600.00
04237               3.60    18600.00
04238               1.20    18600.00
04239               0.80    18800.00
04240               2.80    18600.00
04241               2.40    18600.00
04242               2.00    18600.00
04243               2.00    18600.00
04244               3.20    18800.00
04245               2.00    18600.00
04246               1.20    18800.00
04247               3.20    18600.00
04248               2.00    18600.00
04249               1.20    18600.00
04250               2.40    18400.00
04251               2.00    18400.00
04252               2.00    18400.00
04253               2.40    18400.00
04254               2.40    18200.00
04255               2.00    18200.00
04256               2.40    18000.00
04257               2.00    18000.00
04258               2.00    17600.00
04259               2.00    17600.00
04260               1.20    17600.00
04261               2.40    17400.00
04262               2.00    17400.00
04263               1.20    17200.00
04264               2.40    17200.00
04265               1.60    17000.00
04266               2.00    16800.00
04267               2.00    16600.00
04268               1.20    16600.00
04269               2.00    16400.00
04270               2.00    16200.00
04271               1.60    16000.00
04272               1.20    15800.00
04273               0.80    15600.00
04274               2.00    15600.00
04275               2.00    15200.00
04276               0.80    15000.00
04277               2.00    14800.00
04278               2.00    14600.00
04279               0.80    14400.00
04280               0.80    14200.00
04281               2.00    14000.00
04282               0.80    13600.00
04283               0.80    13400.00
04284               2.00    13200.00
04285               0.80    13000.00
04286               0.40    12600.00
04287               1.20    12400.00
04288               0.80    12200.00
04289               0.40    12000.00
04290               0.80    11600.00
04291               0.80    11200.00
04292               0.40    11000.00
04293               0.80    10800.00
04294               0.80    10400.00
04295               0.80    10200.00
04296               0.40    10000.00
04297               1.20     9600.00
04298               0.80     9200.00
04299               0.80     9000.00
04300               0.80     8600.00
04301               0.40     8400.00
04302               0.40     8000.00
04303               0.80     7800.00
04304               0.80     7400.00
04305               0.40     7000.00
04306               0.40     6800.00
04307               0.80     6600.00
04308               0.40     6000.00
04309               0.40     6000.00
04310               0.40     5400.00
04311               0.40     5200.00
04312               0.40     4800.00
04313               0.40     4400.00
04314              -0.40     4000.00
04315               0.40     3800.00
04316              -0.40     3400.00
04317               0.40     3000.00
04318               0.40     2800.00
04319              -0.80     2400.00
04320               0.80     2000.00
04321               0.40     1800.00
04322              -0.80     1400.00
04323               0.40     1000.00
04324              -0.80      800.00
04325              -0.40      200.00
04326               0.40        0.00
04327              -0.40     -400.00
04328               2.00     -800.00
04329               2.40     -800.00
04330              -3.60    -1200.00
04331              -0.40    -1600.00
04332               2.00    -1800.00
04333              -1.20    -2400.00
04334               1.20    -2400.00
04335              20.00    -2800.00
04336              23.20    -4000.00
04337             -50.00    -4200.00
04338             -22.00    -4400.00
04339              43.60    -4600.00
04340             -19.20    -4600.00
04341             -41.20    -4800.00
04342              50.00    -5600.00
04343             -46.80    -5400.00
04344             -41.20    -6000.00
04345              50.00    -6600.00
04346             -47.20    -6400.00
04347             -22.00    -7200.00
04348              18.80    -7200.00
04349               2.00    -7600.00
04350               7.20    -8200.00
04351             -38.00    -8000.00
04352              39.20    -9000.00
04353              -0.80    -8800.00
04354             -38.80    -9200.00
04355              21.60    -9800.00
04356               4.00    -9800.00
04357             -10.80   -10400.00
04358             -12.40   -10400.00
04359              24.40   -10800.00
04360              -8.80   -11200.00
04361             -21.20   -11400.00
04362              14.00   -11600.00
04363               0.40   -12000.00
04364              -8.40   -12200.00
04365              -7.60   -12400.00
04366              16.00   -12600.00
04367              -7.20   -13000.00
04368             -13.20   -13200.00
04369               7.60   -13400.00
04370              -0.40   -13800.00
04371             -12.40   -14000.00
04372               2.00   -14200.00
04373               8.80   -14400.00
04374             -12.40   -14600.00
04375              -0.40   -15000.00
04376               2.00   -15200.00
04377              -5.20   -15400.00
04378              -4.00   -15600.00
04379               0.40   -15600.00
04380               0.80   -16000.00
04381              -5.60   -16000.00
04382              -1.60   -16200.00
04383               0.80   -16400.00
04384              -5.60   -16600.00
04385              -4.40   -16800.00
04386               2.00   -16800.00
04387              -3.20   -17000.00
04388              -3.60   -17200.00
04389              -0.80   -17200.00
04390              -0.40   -17400.00
04391              -5.60   -17600.00
04392              -2.80   -17800.00
04393               2.00   -17800.00
04394              -6.80   -17800.00
04395              -2.40   -18000.00
04396               2.00   -18000.00
04397              -4.40   -18400.00
04398              -4.80   -18400.00
04399              -0.80   -18400.00
04400              -2.40   -18400.00
04401              -4.00   -18400.00
04402              -2.40   -18600.00
04403              -1.20   -18600.00
04404              -4.00   -18600.00
04405              -2.80   -18600.00
04406              -2.00   -18800.00
04407              -3.60   -18800.00
04408              -4.40   -18800.00
04409              -2.00   -18800.00
04410              -1.20   -18600.00
04411              -3.60   -18600.00
04412              -4.40   -18800.00
04413              -2.00   -18600.00
04414              -1.20   -18600.00
04415              -3.20   -18600.00
04416              -4.00   -18600.00
04417              -2.00   -18600.00
04418              -2.40   -18400.00
04419              -4.40   -18400.00
04420              -2.40   -18400.00
04421              -1.20   -18200.00
04422              -4.00   -18200.00
04423              -2.80   -18000.00
04424              -0.80   -18000.00
04425              -2.40   -17800.00
04426              -4.40   -17800.00
04427              -1.20   -17400.00
04428              -1.20   -17600.00
04429              -3.60   -17200.00
04430              -2.00   -17200.00
04431              -2.00   -17200.00
04432              -2.80   -17000.00
04433              -2.80   -16800.00
04434              -2.40   -16800.00
04435              -2.80   -16400.00
04436              -1.60   -16400.00
04437              -2.00   -16200.00
04438              -4.00   -16000.00
04439              -2.40   -15600.00
04440               0.40   -15600.00
04441              -2.80   -15400.00
04442              -2.80   -15200.00
04443              -0.80   -15000.00
04444              -2.40   -14800.00
04445              -3.60   -14600.00
04446              -2.00   -14400.00
04447              -0.80   -14200.00
04448              -2.40   -13800.00
04449              -2.80   -13600.00
04450              -1.20   -13600.00
04451              -2.00   -13200.00
04452              -2.40   -12800.00
04453              -2.00   -12800.00
04454              -1.20   -12400.00
04455              -1.20   -12000.00
04456              -2.40   -12000.00
04457              -2.80   -11600.00
04458              -0.80   -11000.00
04459              -1.20   -11000.00
04460              -2.80   -10600.00
04461              -1.20   -10400.00
04462              -0.80   -10000.00
04463              -2.80    -9800.00
04464              -2.00    -9600.00
04465               0.40    -9200.00
04466              -2.00    -9000.00
04467              -2.40    -8600.00
04468              -1.20    -8400.00
04469              -1.20    -8000.00
04470              -1.60    -7800.00
04471              -2.00    -7200.00
04472              -1.20    -7000.00
04473              -1.20    -6600.00
04474              -1.20    -6400.00
04475              -0.80    -6000.00
04476              -2.00    -5800.00
04477              -1.20    -5600.00
04478              -1.20    -5000.00
04479              -1.20    -4600.00
04480              -1.20    -4400.00
04481              -2.00    -4000.00
04482              -0.80    -3600.00
04483              -0.40    -3400.00
04484              -1.20    -3000.00
04485              -0.80    -2800.00
04486              -0.40    -2400.00
04487              -0.80    -2000.00
04488              -1.20    -1600.00
04489              -0.40    -1400.00
04490              -0.40    -1000.00
04491              -1.20     -600.00
04492              -0.40     -200.00
04493               0.40        0.00
04494               0.40      400.00
04495               2.80      600.00
04496               0.40     1000.00
04497              -2.40     1400.00
04498               1.20     1600.00
04499               2.40     2000.00
04500              -0.80     2200.00
04501               2.00     2400.00
04502              12.00     3200.00
04503              24.40     3800.00
04504             -23.60     4000.00
04505             -39.20     4400.00
04506              22.00     4600.00
04507              21.20     4800.00
04508             -47.20     4800.00
04509               4.40     5600.00
04510              50.00     6000.00
04511             -50.00     6000.00
04512             -14.80     6600.00
04513              50.00     6400.00
04514             -50.00     7000.00
04515             -24.80     7800.00
04516              36.40     7600.00
04517              10.80     8200.00
04518             -24.40     8400.00
04519              -7.20     8800.00
04520              42.00     9000.00
04521             -19.60     9200.00
04522             -24.40     9600.00
04523              30.80    10000.00
04524               4.00    10200.00
04525             -20.00    10400.00
04526               7.20    11000.00
04527              22.00    11000.00
04528             -16.40    11400.00
04529              -8.40    11800.00
04530              16.40    12000.00
04531               2.80    12400.00
04532             -10.80    12600.00
04533               5.20    12800.00
04534              15.60    12800.00
04535             -12.00    13200.00
04536              -2.80    13400.00
04537              13.60    13600.00
04538              -3.60    14000.00
04539              -6.80    14200.00
04540              11.60    14600.00
04541               4.40    14400.00
04542              -8.80    14800.00
04543               6.00    15200.00
04544               4.40    15200.00
04545              -4.00    15600.00
04546               1.20    15600.00
04547               6.40    15800.00
04548               1.20    16000.00
04549              -1.20    16400.00
04550               4.40    16400.00
04551               2.40    16400.00
04552              -2.00    16600.00
04553               2.00    16800.00
04554               5.60    17200.00
04555              -1.20    17200.00
04556               0.80    17400.00
04557               4.40    17400.00
04558               1.20    17600.00
04559              -0.80    17600.00
04560               3.60    17600.00
04561               4.00    18000.00
04562              -0.80    18000.00
04563               3.60    18000.00
04564               3.60    18200.00
04565               0.40    18200.00
04566               1.20    18400.00
04567               3.60    18400.00
04568               2.00    18400.00
04569               0.80    18400.00
04570               2.80    18800.00
04571               2.80    18600.00
04572               0.80    18400.00
04573               2.00    18600.00
04574               2.80    18800.00
04575               2.00    18600.00
04576               1.60    18800.00
04577               2.80    18800.00
04578               2.40    18800.00
04579               0.80    18600.00
04580               2.00    18600.00
04581               2.80    18800.00
04582               0.80    18400.00
04583               2.00    18400.00
04584               2.40    18400.00
04585               2.00    18400.00
04586               2.00    18400.00
04587               2.40    18200.00
04588               2.00    18200.00
04589               2.00    18000.00
04590               2.40    17800.00
04591               2.00    18000.00
04592               1.60    17800.00
04593               2.00    17600.00
04594               2.00    17600.00
04595               2.40    17400.00
04596               1.20    17400.00
04597               1.20    17200.00
04598               2.00    17000.00
04599               1.20    17000.00
04600               2.00    16800.00
04601               2.80    16600.00
04602               0.80    16600.00
04603               2.40    16200.00
04604               2.00    16200.00
04605               0.80    16000.00
04606               0.80    15800.00
04607               2.00    15600.00
04608               0.80    15200.00
04609               0.80    15200.00
04610               1.20    14800.00
04611               1.60    14800.00
04612               0.80    14400.00
04613               0.80    14200.00
04614               1.20    14200.00
04615               0.80    13800.00
04616               0.80    13600.00
04617               1.20    13400.00
04618               0.80    13000.00
04619               0.80    12800.00
04620               1.20    12600.00
04621               0.80    12400.00
04622               0.80    12000.00
04623               1.20    11800.00
04624               0.80    11600.00
04625               0.80    11000.00
04626               0.80    10800.00
04627               1.20    10600.00
04628               1.20    10400.00
04629               0.80    10200.00
04630               0.40     9600.00
04631               0.80     9400.00
04632               0.80     9200.00
04633               0.40     8800.00
04634               1.20     8400.00
04635               0.80     8200.00
04636              -0.40     8000.00
04637               1.20     7600.00
04638               0.40     7200.00
04639               0.40     7000.00
04640               0.80     6800.00
04641               0.40     6400.00
04642               1.20     6000.00
04643              -0.40     5600.00
04644              -0.40     5400.00
04645               1.20     4800.00
04646              -0.40     4400.00
04647              -0.80     4400.00
04648               0.80     3800.00
04649               0.40     3600.00
04650              -1.20     3200.00
04651               0.40     2800.00
04652               0.40     2600.00
04653              -0.80     2200.00
04654               0.40     1800.00
04655               0.40     1400.00
04656              -0.40     1200.00
04657              -0.40      800.00
04658              -0.40      400.00
04659              -0.40        0.00
04660              -0.40     -200.00
04661              -0.40     -400.00
04662               3.20     -800.00
04663              -1.20    -1000.00
04664              -2.40    -1600.00
04665               0.80    -1800.00
04666               0.40    -2000.00
04667              -2.00    -2400.00
04668               6.40    -2600.00
04669              34.40    -3600.00
04670             -13.60    -4000.00
04671             -50.00    -4200.00
04672              17.20    -4600.00
04673              33.20    -4800.00
04674             -50.00    -4600.00
04675              27.20    -5200.00
04676              50.00    -5800.00
04677             -50.00    -5400.00
04678              43.60    -6400.00
04679              38.80    -6600.00
04680             -50.00    -6800.00
04681              19.20    -7600.00
04682               4.00    -7200.00
04683              12.40    -8000.00
04684             -22.00    -8000.00
04685             -10.00    -8400.00
04686              45.60    -9000.00
04687             -39.60    -8800.00
04688              -6.80    -9600.00
04689              20.00    -9600.00
04690              -4.40   -10000.00
04691             -16.40   -10400.00
04692               4.40   -10400.00
04693              21.20   -11200.00
04694             -28.00   -11000.00
04695              -1.20   -11600.00
04696               9.20   -11800.00
04697              -5.20   -12200.00
04698             -10.80   -12400.00
04699               4.00   -12600.00
04700              11.60   -12800.00
04701             -17.20   -13000.00
04702              -0.80   -13400.00
04703               6.80   -13600.00
04704              -7.20   -13800.00
04705              -9.20   -13800.00
04706              10.40   -14400.00
04707              -2.00   -14600.00
04708             -10.00   -14800.00
04709               4.00   -15000.00
04710              -2.80   -15200.00
04711              -5.20   -15400.00
04712              -3.20   -15600.00
04713               2.80   -15800.00
04714              -3.20   -16000.00
04715              -4.40   -16200.00
04716               0.80   -16200.00
04717              -2.40   -16400.00
04718              -7.20   -16600.00
04719              -0.40   -16800.00
04720               0.40   -16800.00
04721              -4.00   -17000.00
04722              -2.40   -17200.00
04723              -0.80   -17400.00
04724              -2.40   -17600.00
04725              -5.60   -17800.00
04726              -0.40   -17800.00
04727              -1.20   -17800.00
04728              -5.60   -18000.00
04729              -0.40   -18000.00
04730              -2.00   -18000.00
04731              -4.00   -18400.00
04732              -4.00   -18200.00
04733              -1.60   -18400.00
04734              -2.00   -18400.00
04735              -3.60   -18600.00
04736              -2.00   -18600.00
04737              -2.40   -18600.00
04738              -3.60   -18600.00
04739              -2.80   -18800.00
04740              -2.80   -18600.00
04741              -2.80   -18600.00
04742              -2.80   -18600.00
04743              -2.40   -18800.00
04744              -2.80   -18800.00
04745              -2.80   -18800.00
04746              -2.40   -18600.00
04747              -3.60   -18800.00
04748              -2.00   -18800.00
04749              -2.00   -18600.00
04750              -4.00   -18600.00
04751              -2.40   -18400.00
04752              -1.60   -18400.00
04753              -3.20   -18400.00
04754              -3.60   -18200.00
04755              -2.80   -18000.00
04756              -2.80   -18000.00
04757              -2.80   -17800.00
04758              -1.20   -17800.00
04759              -2.00   -17600.00
04760              -2.80   -17600.00
04761              -2.00   -17400.00
04762              -2.40   -17400.00
04763              -2.40   -17200.00
04764              -2.40   -17000.00
04765              -2.40   -17000.00
04766              -2.40   -17000.00
04767              -2.00   -16800.00
04768              -2.80   -16600.00
04769              -2.40   -16400.00
04770              -1.60   -16200.00
04771              -2.80   -16200.00
04772              -2.80   -15800.00
04773              -1.20   -15800.00
04774              -2.00   -15600.00
04775              -2.40   -15400.00
04776              -1.20   -15200.00
04777              -2.40   -14800.00
04778              -2.80   -14800.00
04779              -1.60   -14400.00
04780              -2.00   -14400.00
04781              -2.00   -14000.00
04782              -2.40   -13800.00
04783              -2.00   -13400.00
04784              -2.00   -13200.00
04785              -2.00   -13000.00
04786              -1.60   -12800.00
04787              -2.00   -12600.00
04788              -2.00   -12200.00
04789              -1.20   -12000.00
04790              -2.40   -11800.00
04791              -2.40   -11400.00
04792              -1.20   -10800.00
04793              -2.40   -10800.00
04794              -2.00   -10600.00
04795              -1.20   -10400.00
04796              -2.40   -10000.00
04797              -2.00    -9600.00
04798              -1.20    -9400.00
04799              -2.00    -9200.00
04800              -2.00    -8800.00
04801              -1.20    -8400.00
04802              -1.60    -8200.00
04803              -2.00    -8000.00
04804              -1.20    -7400.00
04805              -1.60    -7200.00
04806              -1.20    -7000.00
04807              -1.20    -6600.00
04808              -1.20    -6000.00
04809              -2.00    -6000.00
04810              -1.20    -5600.00
04811              -0.40    -5000.00
04812              -1.20    -4800.00
04813              -1.20    -4600.00
04814              -0.80    -4200.00
04815              -1.20    -3800.00
04816              -1.20    -3600.00
04817               0.00    -3200.00
04818              -1.20    -2800.00
04819              -1.20    -2600.00
04820               0.40    -2200.00
04821              -0.80    -1800.00
04822              -1.20    -1600.00
04823              -0.40    -1200.00
04824              -0.40     -800.00
04825              -0.80     -400.00
04826               0.40        0.00
04827               0.40      200.00
04828               1.20      600.00
04829               3.20      800.00
04830              -1.20     1200.00
04831              -0.80     1400.00
04832               2.00     1800.00
04833               1.20     2000.00
04834              -1.20     2400.00
04835               5.60     2800.00
04836              20.00     3400.00
04837              12.00     4000.00
04838             -42.80     4200.00
04839             -14.00     4400.00
04840              34.00     4800.00
04841             -13.60     4800.00
04842             -44.00     5000.00
04843              50.00     6000.00
04844              25.20     5600.00
04845             -50.00     6400.00
04846              50.00     6800.00
04847              31.60     6800.00
04848             -50.00     7400.00
04849              15.20     7400.00
04850              28.40     7800.00
04851              -7.60     8400.00
04852             -27.60     8400.00
04853              24.40     8800.00
04854              23.60     9000.00
04855             -39.60     9400.00
04856               6.80     9600.00
04857              28.00    10200.00
04858             -14.00    10400.00
04859             -13.20    10600.00
04860              20.00    11000.00
04861               7.20    11000.00
04862             -20.80    11400.00
04863               6.40    11800.00
04864              13.20    12000.00
04865              -7.20    12400.00
04866              -7.60    12600.00
04867              16.00    12600.00
04868               3.60    13000.00
04869             -14.40    13200.00
04870               9.20    13400.00
04871               7.20    14000.00
04872              -8.80    14000.00
04873               1.20    14200.00
04874              12.40    14600.00
04875              -4.00    14800.00
04876              -4.00    14800.00
04877               8.40    15000.00
04878              -1.20    15400.00
04879              -2.40    15800.00
04880               4.00    15800.00
04881               5.20    16000.00
04882              -0.80    16000.00
04883               0.40    16400.00
04884               5.20    16400.00
04885               0.40    16800.00
04886              -1.20    16600.00
04887               4.40    17000.00
04888               2.40    17200.00
04889              -1.20    17200.00
04890               3.20    17200.00
04891               4.00    17400.00
04892              -0.40    17600.00
04893               0.40    17600.00
04894               5.20    18000.00
04895               0.40    17800.00
04896               0.80    18000.00
04897               5.20    18200.00
04898               0.80    18200.00
04899               0.80    18200.00
04900               3.60    18400.00
04901               2.40    18400.00
04902               0.80    18400.00
04903               2.80    18400.00
04904               3.60    18400.00
04905               0.80    18600.00
04906               2.00    18600.00
04907               2.80    18600.00
04908               2.00    18800.00
04909               2.00    18600.00
04910               2.40    18600.00
04911               2.80    18600.00
04912               2.00    18600.00
04913               2.00    18600.00
04914               2.80    18600.00
04915               2.00    18400.00
04916               1.20    18400.00
04917               2.80    18400.00
04918               2.00    18400.00
04919               2.00    18400.00
04920               2.40    18200.00
04921               2.40    18200.00
04922               1.20    18200.00
04923               2.00    18000.00
04924               2.40    18000.00
04925               1.20    17600.00
04926               2.00    17600.00
04927               2.00    17600.00
04928               2.00    17400.00
04929               1.60    17400.00
04930               2.00    17400.00
04931               2.40    17200.00
04932               2.00    17000.00
04933               1.20    16800.00
04934               2.00    16800.00
04935               1.20    16600.00
04936               1.20    16400.00
04937               2.40    16400.00
04938               1.20    16000.00
04939               0.80    15800.00
04940               2.00    15600.00
04941               2.00    15600.00
04942               0.80    15200.00
04943               1.20    15000.00
04944               1.60    15000.00
04945               0.80    14800.00
04946               1.20    14400.00
04947               2.00    14000.00
04948               1.20    14000.00
04949               1.20    13600.00
04950               0.80    13400.00
04951               2.00    13200.00
04952               0.80    12800.00
04953               0.80    12600.00
04954               2.00    12400.00
04955               0.80    12200.00
04956               0.40    12000.00
04957               1.20    11800.00
04958               0.80    11400.00
04959               0.80    11000.00
04960               1.20    10800.00
04961               2.00    10400.00
04962               0.80    10400.00
04963               0.40    10000.00
04964               1.20     9600.00
04965               0.80     9200.00
04966               0.40     9200.00
04967               1.20     8800.00
04968               0.40     8400.00
04969               0.40     8000.00
04970               1.20     7800.00
04971               0.40     7600.00
04972               0.40     7200.00
04973               0.80     6800.00
04974               0.80     6400.00
04975               0.40     6200.00
04976               0.40     5800.00
04977               0.80     5600.00
04978               0.40     5200.00
04979               0.40     4800.00
04980               0.40     4400.00
04981               0.40     4000.00
04982               0.00     3800.00
04983               0.40     3600.00
04984              -0.40     3000.00
04985               0.40     2800.00
04986              -0.40     2400.00
04987              -0.40     2000.00
04988               0.00     1800.00
04989              -0.80     1200.00
04990              -0.80     1000.00
04991              -0.40      600.00
04992              -0.80      200.00
04993              -0.40      200.00
04994               0.40     -400.00
04995               0.80     -600.00
04996               2.00    -1000.00
04997              -2.80    -1200.00
04998              -1.20    -1600.00
04999               0.80    -1800.00
05000              -0.40    -2200.00
