Unit:(mV)
                     CH1         CH2
Frequency              ? 299.662 kHz
00001             -11.60    -4800.00
00002              25.00    -4800.00
00003             -25.00    -4800.00
00004             -25.00    -4800.00
00005              25.00    -6000.00
00006             -25.00    -5600.00
00007             -15.40    -6400.00
00008              25.00    -6600.00
00009             -25.00    -6600.00
00010               2.20    -7600.00
00011              -5.40    -7400.00
00012              12.20    -7800.00
00013              17.80    -8400.00
00014             -25.00    -8200.00
00015              25.00    -9200.00
00016              11.40    -9000.00
00017             -25.00    -9600.00
00018              12.60    -9800.00
00019              25.00   -10000.00
00020             -18.80   -10600.00
00021             -21.80   -10800.00
00022              25.00   -11200.00
00023             -15.40   -11400.00
00024             -24.60   -11800.00
00025              22.00   -12000.00
00026               4.20   -12200.00
00027             -16.60   -12600.00
00028              -1.80   -12800.00
00029              21.00   -13000.00
00030             -10.20   -13200.00
00031              -8.60   -13600.00
00032               8.40   -13800.00
00033               3.80   -14200.00
00034             -15.00   -14400.00
00035               3.40   -14600.00
00036              13.40   -14800.00
00037             -11.00   -15000.00
00038              -2.00   -15400.00
00039               6.60   -15600.00
00040              -1.20   -15600.00
00041              -9.80   -16000.00
00042               5.20   -16200.00
00043               5.80   -16400.00
00044              -7.60   -16400.00
00045              -0.20   -16600.00
00046               7.00   -17000.00
00047              -6.00   -17000.00
00048              -5.40   -17200.00
00049               6.60   -17200.00
00050               0.20   -17600.00
00051              -5.40   -17600.00
00052               1.40   -17800.00
00053               5.20   -18000.00
00054              -5.60   -18000.00
00055              -2.00   -18400.00
00056               5.80   -18400.00
00057              -3.80   -18400.00
00058              -2.60   -18600.00
00059               3.60   -18600.00
00060              -0.40   -18800.00
00061              -4.20   -18800.00
00062               0.40   -18800.00
00063               2.60   -18800.00
00064              -3.00   -19000.00
00065              -1.00   -19200.00
00066               2.40   -19200.00
00067              -1.20   -19000.00
00068              -1.40   -19200.00
00069               1.20   -19200.00
00070               0.40   -19200.00
00071              -2.00   -19200.00
00072               0.20   -19200.00
00073               1.80   -19200.00
00074              -1.80   -19200.00
00075              -1.20   -19200.00
00076               1.00   -19200.00
00077              -0.20   -19000.00
00078              -1.20   -19200.00
00079              -0.60   -19200.00
00080               0.40   -19200.00
00081              -0.60   -18800.00
00082              -0.40   -18800.00
00083               0.60   -18800.00
00084              -0.60   -18800.00
00085              -1.00   -18600.00
00086              -0.20   -18600.00
00087               0.40   -18400.00
00088              -0.40   -18400.00
00089              -1.40   -18200.00
00090               0.40   -18000.00
00091              -0.20   -18000.00
00092              -1.40   -17800.00
00093              -0.20   -17600.00
00094              -0.20   -17800.00
00095              -0.80   -17400.00
00096              -0.20   -17200.00
00097              -0.20   -17200.00
00098              -0.80   -17000.00
00099              -1.00   -16800.00
00100               0.20   -16600.00
00101              -0.40   -16400.00
00102              -1.00   -16400.00
00103              -0.60   -16000.00
00104              -0.40   -15800.00
00105              -0.40   -15600.00
00106              -0.60   -15600.00
00107              -0.80   -15200.00
00108              -0.20   -14800.00
00109              -0.60   -14800.00
00110              -0.20   -14600.00
00111              -1.00   -14400.00
00112              -1.00   -14000.00
00113               0.00   -13800.00
00114              -1.00   -13600.00
00115              -0.60   -13200.00
00116              -0.60   -13000.00
00117              -1.00   -12800.00
00118               0.40   -12400.00
00119              -1.00   -12200.00
00120              -1.00   -12000.00
00121              -0.20   -11600.00
00122               0.00   -11400.00
00123              -0.40   -11000.00
00124              -0.60   -10600.00
00125              -0.60   -10400.00
00126              -0.40   -10000.00
00127              -0.40    -9800.00
00128              -0.40    -9600.00
00129              -0.40    -9000.00
00130              -0.40    -8800.00
00131              -0.80    -8600.00
00132              -0.20    -8200.00
00133               0.20    -8000.00
00134              -1.20    -7400.00
00135               0.20    -7200.00
00136              -0.20    -6800.00
00137              -0.60    -6600.00
00138              -0.20    -6200.00
00139              -0.60    -6000.00
00140              -0.20    -5600.00
00141              -1.20    -5000.00
00142              -0.20    -4600.00
00143              -0.20    -4400.00
00144              -1.20    -4200.00
00145              -0.60    -3800.00
00146               0.60    -3400.00
00147              -1.00    -3200.00
00148              -0.20    -2800.00
00149               0.60    -2400.00
00150              -1.00    -2000.00
00151              -0.40    -1800.00
00152              -0.20    -1400.00
00153              -1.20    -1000.00
00154              -0.60     -800.00
00155               0.40     -200.00
00156              -0.60        0.00
00157              -0.40      400.00
00158               2.80      600.00
00159               0.40     1000.00
00160              -2.60     1400.00
00161               1.00     1800.00
00162               2.60     2000.00
00163              -1.00     2200.00
00164               1.20     2600.00
00165              11.80     3200.00
00166              24.20     4000.00
00167             -24.60     4000.00
00168             -25.00     4400.00
00169              21.40     4800.00
00170              22.00     5000.00
00171             -25.00     4800.00
00172               0.60     5800.00
00173              25.00     6000.00
00174             -25.00     6200.00
00175             -17.20     6800.00
00176              25.00     6800.00
00177             -25.00     7200.00
00178             -25.00     7600.00
00179              22.60     7800.00
00180              20.40     8400.00
00181             -21.20     8600.00
00182             -22.00     8800.00
00183              25.00     9200.00
00184             -10.20     9400.00
00185             -25.00    10000.00
00186              25.00    10200.00
00187              16.40    10400.00
00188             -25.00    10800.00
00189               2.60    11000.00
00190              25.00    11400.00
00191             -25.00    11800.00
00192             -14.80    12000.00
00193              23.80    12200.00
00194              -1.40    12600.00
00195             -19.00    12800.00
00196               9.40    13000.00
00197              15.80    13400.00
00198             -17.20    13600.00
00199              -2.60    13800.00
00200              13.00    14000.00
00201              -5.00    14200.00
00202             -11.00    14600.00
00203              10.80    14800.00
00204               6.00    15000.00
00205             -12.20    15200.00
00206               2.60    15600.00
00207               7.00    15800.00
00208              -6.20    15800.00
00209              -4.60    16000.00
00210               7.80    16400.00
00211               0.60    16400.00
00212              -6.80    16600.00
00213               3.80    16800.00
00214               4.20    17200.00
00215              -7.00    17200.00
00216              -0.60    17200.00
00217               6.80    17400.00
00218              -3.80    17600.00
00219              -2.80    18000.00
00220               4.40    17800.00
00221               0.60    18000.00
00222              -5.80    18200.00
00223               2.00    18400.00
00224               3.00    18400.00
00225              -5.00    18400.00
00226               0.80    18400.00
00227               3.60    18800.00
00228              -2.60    18800.00
00229              -2.60    18800.00
00230               2.60    19000.00
00231               0.20    19000.00
00232              -2.80    19000.00
00233               1.00    19000.00
00234               1.80    19200.00
00235              -2.00    19000.00
00236              -1.40    19000.00
00237               1.40    19000.00
00238              -0.20    19200.00
00239              -1.80    19200.00
00240               0.60    19200.00
00241               1.20    19200.00
00242              -2.00    19200.00
00243              -0.40    19200.00
00244               1.20    19000.00
00245              -1.00    19200.00
00246              -1.00    19200.00
00247               0.40    19000.00
00248              -0.20    18800.00
00249               0.00    19000.00
00250              -1.00    18800.00
00251              -0.40    18800.00
00252               1.00    18600.00
00253              -0.60    18600.00
00254              -1.20    18400.00
00255               1.80    18400.00
00256               0.00    18400.00
00257              -1.80    18000.00
00258               1.40    18000.00
00259              -0.20    17800.00
00260              -2.00    17600.00
00261               0.40    17600.00
00262               1.00    17400.00
00263              -1.20    17200.00
00264               0.40    17200.00
00265               0.20    17000.00
00266              -0.80    16800.00
00267              -0.60    16600.00
00268               0.60    16400.00
00269              -0.60    16400.00
00270              -0.60    16000.00
00271               0.40    15600.00
00272               0.40    15600.00
00273              -0.60    15600.00
00274              -0.20    15200.00
00275               0.20    15000.00
00276              -0.60    14800.00
00277              -0.20    14400.00
00278              -0.20    14200.00
00279              -0.60    14000.00
00280              -0.40    13600.00
00281               0.20    13400.00
00282              -0.40    13200.00
00283              -0.40    13000.00
00284              -0.40    12800.00
00285              -0.20    12400.00
00286              -0.40    12200.00
00287              -0.60    12000.00
00288              -0.60    11600.00
00289              -0.60    11200.00
00290              -0.20    11000.00
00291              -0.60    10800.00
00292              -0.60    10400.00
00293              -0.40    10000.00
00294              -0.40     9800.00
00295              -0.40     9400.00
00296              -0.40     9200.00
00297              -0.60     8800.00
00298              -0.20     8400.00
00299              -0.40     8400.00
00300              -0.60     7800.00
00301              -0.20     7600.00
00302              -1.00     7200.00
00303              -0.20     6800.00
00304              -0.40     6400.00
00305              -1.00     6200.00
00306               0.20     5800.00
00307              -1.00     5400.00
00308              -1.00     5200.00
00309               0.60     4800.00
00310              -1.00     4400.00
00311              -1.00     4000.00
00312               0.60     3800.00
00313              -0.60     3400.00
00314              -1.00     3000.00
00315               0.40     2800.00
00316              -0.60     2200.00
00317              -1.00     2000.00
00318              -0.40     1600.00
00319              -0.20     1400.00
00320              -1.20      800.00
00321              -0.40      600.00
00322               0.40      200.00
00323              -0.60        0.00
00324               0.20     -400.00
00325               3.20     -800.00
00326               0.60    -1000.00
00327              -2.60    -1400.00
00328               0.20    -1800.00
00329               1.80    -2000.00
00330              -1.40    -2400.00
00331               5.40    -2600.00
00332              25.00    -3400.00
00333              -6.80    -4000.00
00334             -25.00    -4400.00
00335              12.80    -4400.00
00336              25.00    -4800.00
00337             -25.00    -4800.00
00338              14.80    -5200.00
00339              25.00    -5800.00
00340             -25.00    -5600.00
00341              25.00    -6600.00
00342              25.00    -6600.00
00343             -25.00    -7000.00
00344              16.40    -7600.00
00345             -11.80    -7400.00
00346              25.00    -8000.00
00347             -12.20    -8400.00
00348             -25.00    -8400.00
00349              25.00    -9200.00
00350             -21.40    -9200.00
00351             -25.00    -9800.00
00352              23.00    -9800.00
00353              15.00   -10400.00
00354             -25.00   -10600.00
00355               2.20   -10800.00
00356              25.00   -11200.00
00357             -25.00   -11400.00
00358              -6.00   -12000.00
00359              20.20   -12000.00
00360              -4.40   -12400.00
00361             -16.20   -12800.00
00362               8.40   -12800.00
00363              15.20   -13000.00
00364             -15.80   -13200.00
00365              -2.20   -13600.00
00366               9.80   -14000.00
00367              -2.00   -14200.00
00368             -15.20   -14400.00
00369              11.60   -14800.00
00370               6.60   -14800.00
00371             -11.80   -15200.00
00372               1.40   -15400.00
00373               6.00   -15600.00
00374              -4.60   -15600.00
00375              -7.40   -16000.00
00376               8.40   -16200.00
00377               1.00   -16400.00
00378              -7.60   -16400.00
00379               3.60   -16800.00
00380               5.20   -17000.00
00381              -8.60   -17000.00
00382              -0.60   -17200.00
00383               5.40   -17200.00
00384              -2.60   -17400.00
00385              -3.40   -17600.00
00386               2.80   -17800.00
00387               1.80   -18000.00
00388              -6.00   -18200.00
00389               1.80   -18400.00
00390               2.80   -18400.00
00391              -4.40   -18400.00
00392               0.60   -18600.00
00393               2.80   -18600.00
00394              -1.40   -18800.00
00395              -3.00   -18600.00
00396               1.20   -18800.00
00397               1.00   -18800.00
00398              -3.00   -19000.00
00399               0.40   -19000.00
00400               1.40   -19200.00
00401              -1.60   -19200.00
00402              -0.60   -19200.00
00403               0.60   -19200.00
00404               0.00   -19200.00
00405              -1.80   -19200.00
00406               1.00   -19200.00
00407               1.20   -19200.00
00408              -2.20   -19200.00
00409              -0.40   -19200.00
00410               0.60   -19200.00
00411              -0.60   -19200.00
00412              -1.00   -19200.00
00413              -0.20   -19000.00
00414               0.20   -19200.00
00415              -1.00   -19000.00
00416              -0.40   -18800.00
00417               0.40   -18800.00
00418              -1.20   -18800.00
00419              -0.60   -18800.00
00420               0.20   -18400.00
00421              -0.40   -18600.00
00422              -1.20   -18400.00
00423              -0.40   -18000.00
00424               0.40   -18000.00
00425              -1.00   -18000.00
00426              -1.00   -17800.00
00427               0.00   -17600.00
00428              -0.40   -17400.00
00429              -0.60   -17400.00
00430              -0.40   -17200.00
00431              -0.40   -17200.00
00432              -0.60   -16800.00
00433              -0.80   -16600.00
00434              -0.20   -16800.00
00435              -0.60   -16400.00
00436              -1.00   -16200.00
00437              -0.40   -16000.00
00438              -0.40   -15600.00
00439              -0.60   -15600.00
00440              -1.00   -15400.00
00441              -0.40   -15200.00
00442               0.00   -14800.00
00443              -0.40   -14600.00
00444              -0.20   -14600.00
00445              -0.40   -14400.00
00446              -0.60   -14000.00
00447              -0.40   -13600.00
00448              -0.40   -13400.00
00449              -0.60   -13200.00
00450              -1.00   -13000.00
00451              -0.20   -12600.00
00452              -0.20   -12400.00
00453              -1.00   -12200.00
00454              -0.60   -11600.00
00455              -0.20   -11600.00
00456              -0.20   -11200.00
00457              -0.20   -10800.00
00458              -0.20   -10600.00
00459              -0.40   -10400.00
00460              -0.60   -10000.00
00461              -0.40    -9600.00
00462              -0.20    -9600.00
00463              -0.80    -9000.00
00464              -0.60    -8800.00
00465              -0.40    -8400.00
00466              -0.60    -8200.00
00467              -0.60    -8000.00
00468              -0.40    -7400.00
00469              -0.40    -7200.00
00470              -0.20    -6800.00
00471              -0.40    -6600.00
00472              -0.60    -6000.00
00473              -0.40    -5800.00
00474              -0.20    -5600.00
00475              -0.80    -5000.00
00476              -0.20    -4800.00
00477              -0.60    -4400.00
00478              -1.20    -4000.00
00479              -0.20    -3800.00
00480              -0.20    -3400.00
00481              -1.20    -2800.00
00482               0.20    -2800.00
00483              -0.40    -2400.00
00484              -0.60    -2000.00
00485              -0.40    -1600.00
00486              -0.80    -1400.00
00487              -1.00     -800.00
00488              -0.20     -400.00
00489              -0.20     -200.00
00490              -0.20      200.00
00491               0.40      400.00
00492               3.40      800.00
00493              -1.20     1000.00
00494              -2.20     1400.00
00495               1.00     1800.00
00496               1.80     2000.00
00497              -2.00     2200.00
00498               3.40     2800.00
00499              17.00     3200.00
00500              18.80     4000.00
00501             -25.00     4200.00
00502             -25.00     4600.00
00503              25.00     4800.00
00504               2.00     5000.00
00505             -25.00     5200.00
00506              25.00     6000.00
00507              25.00     6000.00
00508             -25.00     6400.00
00509              25.00     6800.00
00510              25.00     6800.00
00511             -25.00     7600.00
00512              -6.20     7800.00
00513              24.40     7800.00
00514              13.00     8600.00
00515             -25.00     8800.00
00516               0.60     8800.00
00517              25.00     9200.00
00518             -25.00     9600.00
00519             -20.40     9800.00
00520              25.00    10200.00
00521              -1.40    10600.00
00522             -25.00    10800.00
00523              19.80    11200.00
00524              24.20    11400.00
00525             -25.00    11800.00
00526               0.40    12000.00
00527              22.20    12200.00
00528             -11.00    12600.00
00529             -14.20    13000.00
00530              17.20    13200.00
00531               7.00    13400.00
00532             -18.60    13600.00
00533               5.80    14000.00
00534              12.60    14200.00
00535             -15.40    14600.00
00536              -2.60    14800.00
00537              13.20    14800.00
00538              -8.60    15200.00
00539              -2.20    15400.00
00540               0.20    15600.00
00541              14.20    15800.00
00542              -8.60    16000.00
00543              -3.40    16000.00
00544               6.20    16400.00
00545              -3.60    16400.00
00546              -7.80    16600.00
00547               2.20    16800.00
00548               4.20    17200.00
00549              -5.20    17200.00
00550               4.40    17400.00
00551               7.40    17400.00
00552              -5.20    17600.00
00553              -3.40    17600.00
00554               2.20    17800.00
00555              -4.60    18000.00
00556              -5.60    18200.00
00557               6.00    18400.00
00558               3.60    18400.00
00559              -3.40    18400.00
00560               3.80    18600.00
00561               0.40    18600.00
00562              -6.20    18800.00
00563              -0.60    18800.00
00564               0.20    19000.00
00565               1.40    18800.00
00566              -3.20    19200.00
00567               2.20    19000.00
00568               3.00    19200.00
00569              -2.80    19000.00
00570              -1.40    19200.00
00571               1.00    19000.00
00572              -2.20    19200.00
00573              -2.60    19000.00
00574               3.60    19200.00
00575              -0.60    19000.00
00576              -0.60    19200.00
00577               0.40    19200.00
00578              -0.20    19000.00
00579              -0.80    19200.00
00580              -0.40    19000.00
00581              -0.40    18800.00
00582              -0.20    18800.00
00583              -0.40    18800.00
00584              -1.00    18800.00
00585               0.60    19000.00
00586              -0.60    18600.00
00587               0.20    18400.00
00588               0.40    18400.00
00589              -0.20    18200.00
00590              -1.00    18200.00
00591              -0.20    18000.00
00592               0.60    17800.00
00593              -0.20    17800.00
00594              -0.40    17600.00
00595              -0.40    17400.00
00596              -0.40    17600.00
00597              -0.40    17200.00
00598               0.40    17000.00
00599              -0.60    16800.00
00600              -0.40    16600.00
00601              -0.40    16600.00
00602              -0.20    16400.00
00603              -0.20    16200.00
00604               0.20    16000.00
00605               0.40    15800.00
00606              -0.40    15600.00
00607              -0.40    15200.00
00608              -0.40    15200.00
00609              -0.20    14800.00
00610              -0.40    14800.00
00611              -0.20    14400.00
00612              -0.20    14200.00
00613              -0.20    14000.00
00614              -0.40    13600.00
00615              -0.60    13400.00
00616              -0.20    13200.00
00617              -1.00    12800.00
00618              -0.60    12600.00
00619               0.20    12400.00
00620              -0.20    12000.00
00621              -0.60    11800.00
00622              -0.20    11400.00
00623              -0.40    11200.00
00624              -1.00    10800.00
00625              -0.40    10600.00
00626              -0.20    10400.00
00627              -0.60    10000.00
00628              -0.60     9600.00
00629               0.60     9200.00
00630              -0.60     9200.00
00631              -1.20     8600.00
00632               0.40     8400.00
00633              -0.40     8200.00
00634              -1.20     7800.00
00635               0.20     7600.00
00636              -0.60     7200.00
00637              -1.20     6800.00
00638              -0.40     6400.00
00639               0.00     6200.00
00640              -1.00     5800.00
00641              -0.60     5400.00
00642               0.20     5200.00
00643              -0.20     4600.00
00644              -0.60     4400.00
00645              -0.40     4000.00
00646              -0.40     3800.00
00647              -0.60     3200.00
00648              -0.60     3000.00
00649              -0.40     2800.00
00650               0.00     2200.00
00651              -0.40     2000.00
00652              -0.60     1600.00
00653              -0.40     1400.00
00654              -0.60      800.00
00655              -0.40      600.00
00656               0.20      200.00
00657               0.20     -200.00
00658               0.40     -400.00
00659               3.40     -800.00
00660              -0.60    -1200.00
00661              -2.00    -1600.00
00662               1.20    -1800.00
00663               1.20    -2000.00
00664              -1.40    -2400.00
00665              10.00    -2800.00
00666              25.00    -3600.00
00667             -25.00    -4000.00
00668             -25.00    -4400.00
00669              25.00    -4400.00
00670              17.80    -4800.00
00671             -25.00    -4600.00
00672              25.00    -5600.00
00673              25.00    -6000.00
00674             -25.00    -5800.00
00675              25.00    -6600.00
00676              -3.60    -6600.00
00677             -25.00    -7200.00
00678              14.00    -7800.00
00679              -9.00    -7600.00
00680              25.00    -8400.00
00681             -25.00    -8200.00
00682              -0.60    -8800.00
00683              25.00    -9200.00
00684             -25.00    -9200.00
00685              -8.60    -9800.00
00686              25.00    -9800.00
00687               3.60   -10400.00
00688             -25.00   -10600.00
00689              24.20   -11000.00
00690              21.40   -11400.00
00691             -25.00   -11400.00
00692              10.00   -12000.00
00693              14.80   -12200.00
00694             -10.60   -12400.00
00695             -13.40   -12600.00
00696              16.80   -13000.00
00697               5.00   -13200.00
00698             -15.80   -13600.00
00699               3.60   -13800.00
00700               9.20   -14000.00
00701              -7.80   -14400.00
00702             -10.20   -14400.00
00703              15.80   -14800.00
00704              -2.00   -14800.00
00705              -9.20   -15200.00
00706               4.40   -15400.00
00707               4.20   -15400.00
00708              -8.00   -16000.00
00709              -3.00   -16000.00
00710               9.40   -16400.00
00711              -3.40   -16400.00
00712              -5.60   -16800.00
00713               6.60   -16800.00
00714               1.20   -17000.00
00715              -8.60   -17000.00
00716               3.00   -17200.00
00717               3.80   -17400.00
00718              -3.80   -17600.00
00719              -1.80   -17600.00
00720               4.40   -18000.00
00721              -1.00   -18000.00
00722              -5.40   -18000.00
00723               4.20   -18200.00
00724               0.20   -18400.00
00725              -3.80   -18400.00
00726               2.00   -18600.00
00727               2.00   -18800.00
00728              -2.20   -18800.00
00729              -2.20   -18800.00
00730               2.40   -18800.00
00731              -0.40   -19000.00
00732              -2.80   -19200.00
00733               1.20   -19000.00
00734               1.00   -19200.00
00735              -1.80   -19200.00
00736              -0.60   -19200.00
00737               1.00   -19200.00
00738              -0.80   -19200.00
00739              -1.80   -19200.00
00740               2.00   -19200.00
00741               0.20   -19200.00
00742              -2.20   -19200.00
00743               0.20   -19200.00
00744               0.20   -19200.00
00745              -1.00   -19200.00
00746              -1.20   -19200.00
00747              -0.20   -19200.00
00748              -0.20   -18800.00
00749              -1.00   -18800.00
00750               0.20   -18600.00
00751              -0.40   -18600.00
00752              -0.80   -18600.00
00753              -0.60   -18600.00
00754               0.00   -18400.00
00755              -0.20   -18400.00
00756              -1.20   -18200.00
00757              -0.60   -18200.00
00758               0.20   -18000.00
00759              -1.20   -18000.00
00760              -0.80   -17800.00
00761              -0.40   -17400.00
00762              -0.40   -17600.00
00763              -0.40   -17400.00
00764              -0.20   -17000.00
00765              -0.40   -17000.00
00766              -1.20   -16800.00
00767              -0.20   -16600.00
00768               0.20   -16600.00
00769              -1.20   -16400.00
00770              -0.60   -16200.00
00771              -0.40   -16000.00
00772              -0.40   -15600.00
00773              -0.40   -15400.00
00774              -0.60   -15200.00
00775              -0.40   -15200.00
00776              -0.20   -14800.00
00777              -0.20   -14600.00
00778              -0.40   -14400.00
00779              -1.00   -14000.00
00780               0.20   -13800.00
00781              -0.20   -13600.00
00782              -0.60   -13600.00
00783              -0.40   -13000.00
00784              -0.40   -12800.00
00785              -0.20   -12600.00
00786              -0.80   -12200.00
00787              -0.60   -12200.00
00788              -0.20   -11600.00
00789              -0.60   -11400.00
00790              -0.20   -11000.00
00791               0.00   -10800.00
00792              -0.40   -10400.00
00793              -0.40   -10200.00
00794              -0.40   -10000.00
00795               0.20    -9800.00
00796              -0.80    -9200.00
00797              -0.60    -9000.00
00798              -0.20    -8800.00
00799              -0.60    -8400.00
00800              -0.40    -8000.00
00801              -0.40    -8000.00
00802              -0.60    -7400.00
00803              -0.40    -7000.00
00804              -0.40    -6800.00
00805              -0.20    -6400.00
00806              -1.00    -6000.00
00807              -0.60    -5800.00
00808              -0.20    -5400.00
00809              -0.60    -5000.00
00810              -0.60    -4600.00
00811              -1.00    -4200.00
00812              -0.80    -4000.00
00813              -0.20    -3600.00
00814              -0.60    -3400.00
00815              -0.80    -3000.00
00816              -0.60    -2600.00
00817               0.20    -2200.00
00818              -0.60    -2000.00
00819              -1.20    -1600.00
00820              -0.20    -1200.00
00821              -0.40     -600.00
00822              -1.00     -400.00
00823               0.20     -200.00
00824               0.60      400.00
00825               0.20      800.00
00826               2.60      800.00
00827              -1.00     1200.00
00828              -1.40     1600.00
00829               1.20     1800.00
00830               2.00     2000.00
00831              -2.00     2400.00
00832               5.80     2800.00
00833              22.40     3600.00
00834               5.20     4000.00
00835             -25.00     4200.00
00836              -6.00     4600.00
00837              25.00     4800.00
00838             -22.20     5000.00
00839             -25.00     5200.00
00840              25.00     6200.00
00841              12.40     6000.00
00842             -25.00     6400.00
00843              25.00     6800.00
00844              17.60     6800.00
00845             -25.00     7600.00
00846               9.80     7600.00
00847              23.80     8200.00
00848               0.60     8600.00
00849             -25.00     8800.00
00850              25.00     9200.00
00851              25.00     9200.00
00852             -25.00     9600.00
00853               1.80    10000.00
00854              25.00    10400.00
00855             -17.80    10800.00
00856             -25.00    11000.00
00857              25.00    11200.00
00858               4.20    11600.00
00859             -25.00    12000.00
00860              15.00    12000.00
00861              14.80    12600.00
00862             -17.80    12600.00
00863              -6.00    12800.00
00864              21.00    13200.00
00865              -4.40    13400.00
00866             -15.40    13600.00
00867              11.60    14000.00
00868               5.40    14400.00
00869             -13.40    14600.00
00870               0.60    14800.00
00871              13.80    15000.00
00872              -7.60    15200.00
00873              -6.20    15400.00
00874               9.00    15600.00
00875              -1.00    15800.00
00876              -8.40    16000.00
00877               3.20    16000.00
00878               5.40    16400.00
00879              -5.40    16600.00
00880              -2.00    16800.00
00881               5.80    16800.00
00882              -2.20    17200.00
00883              -6.20    17200.00
00884               6.00    17200.00
00885               1.20    17600.00
00886              -5.80    17600.00
00887               2.20    17600.00
00888               3.40    18000.00
00889              -4.40    18000.00
00890              -1.80    18200.00
00891               3.60    18200.00
00892              -1.80    18400.00
00893              -2.20    18600.00
00894               2.60    18400.00
00895               0.20    18800.00
00896              -2.20    18800.00
00897               0.20    18800.00
00898               1.80    18800.00
00899              -1.00    19000.00
00900              -1.60    19200.00
00901               1.40    19000.00
00902               0.40    19200.00
00903              -1.80    19000.00
00904              -0.40    19200.00
00905               1.00    19000.00
00906              -1.00    19200.00
00907              -1.20    19000.00
00908               1.40    19200.00
00909               0.00    19000.00
00910              -1.20    19200.00
00911               1.00    19000.00
00912               0.40    19000.00
00913              -0.60    18800.00
00914              -0.20    19000.00
00915               0.40    19000.00
00916               0.00    18800.00
00917              -0.60    18800.00
00918               0.00    18800.00
00919               0.20    18800.00
00920              -0.40    18400.00
00921              -0.60    18400.00
00922               0.20    18400.00
00923               0.20    18200.00
00924              -0.60    18200.00
00925              -0.20    18000.00
00926               0.40    18000.00
00927              -0.20    17600.00
00928              -0.40    17600.00
00929               0.40    17400.00
00930              -0.20    17400.00
00931              -1.20    17200.00
00932              -0.20    17000.00
00933               0.20    16800.00
00934              -0.60    16600.00
00935              -0.40    16600.00
00936               0.20    16200.00
00937              -0.40    16000.00
00938              -0.20    15800.00
00939              -0.20    15600.00
00940              -0.20    15400.00
00941              -0.40    15200.00
00942              -0.80    15000.00
00943               0.00    14800.00
00944              -0.20    14400.00
00945              -1.00    14400.00
00946              -0.20    14200.00
00947              -0.20    14000.00
00948              -0.60    13400.00
00949              -0.60    13400.00
00950              -0.20    13200.00
00951              -0.40    12800.00
00952              -0.60    12600.00
00953              -0.60    12400.00
00954              -0.40    12000.00
00955              -0.60    11800.00
00956              -0.60    11400.00
00957              -0.40    11000.00
00958              -0.40    10800.00
00959              -0.60    10400.00
00960              -0.40    10200.00
00961               0.00    10000.00
00962              -0.40     9600.00
00963              -0.20     9200.00
00964              -0.40     9000.00
00965              -0.60     8800.00
00966              -0.20     8400.00
00967              -0.20     8000.00
00968              -0.40     7800.00
00969              -0.60     7200.00
00970              -0.60     7000.00
00971              -0.60     6800.00
00972              -0.60     6200.00
00973              -0.40     6000.00
00974              -0.40     5600.00
00975              -0.40     5400.00
00976               0.00     5000.00
00977               0.20     4600.00
00978              -0.60     4400.00
00979               0.20     3800.00
00980              -0.20     3600.00
00981              -0.20     3000.00
00982              -0.40     2800.00
00983              -0.40     2600.00
00984              -0.40     2000.00
00985              -0.40     2000.00
00986              -0.60     1400.00
00987              -0.40     1000.00
00988              -0.60      600.00
00989              -0.60      400.00
00990               0.20        0.00
00991               0.40     -400.00
00992               1.00     -600.00
00993               2.80     -800.00
00994              -1.80    -1200.00
00995              -1.40    -1600.00
00996               2.00    -1800.00
00997               0.60    -2200.00
00998               0.20    -2400.00
00999              18.00    -2800.00
01000              25.00    -4000.00
01001             -25.00    -4200.00
01002             -24.60    -4400.00
01003              25.00    -4800.00
01004             -11.60    -4800.00
01005             -25.00    -4600.00
01006              25.00    -5800.00
01007             -25.00    -5600.00
01008             -25.00    -6000.00
01009              25.00    -6800.00
01010             -25.00    -6600.00
01011             -10.20    -7400.00
01012               1.20    -7600.00
01013               3.60    -7600.00
01014              25.00    -8400.00
01015             -25.00    -8200.00
01016              25.00    -9200.00
01017              25.00    -9200.00
01018             -25.00    -9600.00
01019               7.20   -10000.00
01020              25.00   -10000.00
01021             -10.80   -10600.00
01022             -25.00   -10600.00
01023              25.00   -11000.00
01024              -3.80   -11400.00
01025             -25.00   -11600.00
01026              19.60   -12000.00
01027               7.00   -12200.00
01028             -14.60   -12600.00
01029              -6.80   -12800.00
01030              21.00   -13000.00
01031              -5.40   -13200.00
01032             -12.20   -13600.00
01033               7.40   -13800.00
01034               7.00   -14000.00
01035             -13.40   -14400.00
01036              -2.00   -14400.00
01037              16.20   -14800.00
01038              -8.60   -15000.00
01039              -5.40   -15200.00
01040               6.60   -15400.00
01041               1.40   -15800.00
01042             -10.00   -16000.00
01043               2.80   -16000.00
01044               7.80   -16200.00
01045              -6.80   -16400.00
01046              -2.20   -16600.00
01047               7.60   -16800.00
01048              -3.80   -17000.00
01049              -6.80   -17200.00
01050               5.80   -17400.00
01051               1.20   -17200.00
01052              -4.40   -17600.00
01053               0.20   -17800.00
01054               4.40   -17800.00
01055              -3.80   -18000.00
01056              -3.00   -18000.00
01057               5.00   -18400.00
01058              -2.60   -18400.00
01059              -2.40   -18600.00
01060               3.00   -18600.00
01061               0.40   -18800.00
01062              -3.40   -18800.00
01063              -0.60   -18800.00
01064               2.40   -18800.00
01065              -2.00   -19000.00
01066              -2.00   -19000.00
01067               2.00   -19200.00
01068              -0.40   -19000.00
01069              -2.00   -19200.00
01070               0.20   -19200.00
01071               0.40   -19200.00
01072              -1.80   -19200.00
01073              -1.00   -19200.00
01074               1.80   -19400.00
01075              -1.20   -19200.00
01076              -1.80   -19200.00
01077               0.60   -19200.00
01078              -0.40   -19000.00
01079              -1.20   -19200.00
01080              -1.00   -19200.00
01081               0.20   -19000.00
01082              -0.60   -19000.00
01083              -0.60   -18800.00
01084               0.40   -18800.00
01085              -0.40   -18600.00
01086              -1.00   -18800.00
01087              -0.40   -18600.00
01088               0.20   -18400.00
01089              -0.60   -18400.00
01090              -1.40   -18400.00
01091               0.20   -18000.00
01092               0.00   -18000.00
01093              -1.20   -18000.00
01094              -0.60   -17600.00
01095              -0.20   -17400.00
01096               0.00   -17400.00
01097              -0.20   -17200.00
01098              -0.40   -17000.00
01099              -0.40   -17000.00
01100              -0.60   -16800.00
01101              -0.20   -16800.00
01102              -0.20   -16400.00
01103              -1.00   -16400.00
01104              -0.40   -16000.00
01105               0.00   -15800.00
01106              -0.40   -15600.00
01107              -0.60   -15400.00
01108              -0.80   -15200.00
01109              -0.20   -15000.00
01110              -0.20   -14600.00
01111              -0.40   -14600.00
01112              -0.20   -14400.00
01113              -0.60   -14000.00
01114              -0.20   -13800.00
01115              -0.40   -13600.00
01116              -0.40   -13200.00
01117              -0.40   -13000.00
01118              -0.60   -12800.00
01119              -0.40   -12400.00
01120              -0.60   -12200.00
01121              -0.40   -12000.00
01122              -0.60   -11600.00
01123              -0.40   -11400.00
01124               0.20   -11000.00
01125              -0.40   -10800.00
01126              -0.40   -10400.00
01127              -0.40   -10000.00
01128              -0.60    -9800.00
01129               0.00    -9400.00
01130              -0.40    -9200.00
01131              -0.60    -9000.00
01132              -0.60    -8800.00
01133              -0.20    -8400.00
01134              -0.60    -8000.00
01135              -0.60    -7600.00
01136              -1.00    -7400.00
01137              -0.40    -6800.00
01138              -0.20    -6800.00
01139              -0.40    -6400.00
01140              -1.20    -6000.00
01141               0.20    -5600.00
01142              -0.40    -5200.00
01143              -1.00    -4800.00
01144              -0.60    -4600.00
01145              -1.00    -4200.00
01146              -0.60    -4000.00
01147              -0.20    -3600.00
01148              -0.60    -3200.00
01149              -0.40    -2800.00
01150              -0.20    -2400.00
01151              -0.40    -2000.00
01152              -0.60    -1800.00
01153              -0.60    -1600.00
01154              -1.20    -1000.00
01155              -0.60     -600.00
01156               0.20     -200.00
01157              -0.40        0.00
01158              -0.60      400.00
01159               2.60      600.00
01160               1.20     1000.00
01161              -2.60     1200.00
01162               1.00     1600.00
01163               2.60     2000.00
01164              -0.60     2200.00
01165              -0.20     2400.00
01166              10.00     3200.00
01167              24.20     3600.00
01168             -15.00     4000.00
01169             -25.00     4600.00
01170              14.00     4600.00
01171              25.00     4800.00
01172             -25.00     5000.00
01173             -15.40     5600.00
01174              25.00     6200.00
01175             -25.00     6000.00
01176             -25.00     6800.00
01177              25.00     6800.00
01178             -22.60     7000.00
01179             -25.00     7600.00
01180              19.80     7600.00
01181              22.20     8400.00
01182             -13.00     8600.00
01183             -25.00     8800.00
01184              25.00     9200.00
01185               5.40     9200.00
01186             -25.00    10000.00
01187              22.00    10000.00
01188              25.00    10200.00
01189             -25.00    10800.00
01190              -6.80    11000.00
01191              25.00    11400.00
01192             -18.20    11600.00
01193             -22.20    12000.00
01194              24.20    12400.00
01195               3.60    12400.00
01196             -20.60    12800.00
01197               5.60    13000.00
01198              18.20    13200.00
01199             -14.60    13400.00
01200              -7.20    13800.00
01201              12.60    13800.00
01202              -1.40    14400.00
01203             -13.00    14400.00
01204               7.60    14800.00
01205              10.00    15000.00
01206             -12.20    15200.00
01207              -0.80    15600.00
01208               9.00    15600.00
01209              -4.80    15800.00
01210              -7.00    16000.00
01211               6.80    16400.00
01212               2.00    16400.00
01213              -7.00    16600.00
01214               1.80    16800.00
01215               4.80    17000.00
01216              -6.00    17200.00
01217              -2.80    17200.00
01218               6.20    17400.00
01219              -2.00    17600.00
01220              -3.80    17600.00
01221               3.20    17800.00
01222               2.20    17800.00
01223              -4.80    18200.00
01224              -0.20    18200.00
01225               3.60    18400.00
01226              -3.40    18400.00
01227              -1.20    18600.00
01228               3.00    18800.00
01229              -1.20    18800.00
01230              -2.40    18800.00
01231               1.00    19000.00
01232               1.00    19000.00
01233              -1.20    19000.00
01234              -0.60    19000.00
01235               1.60    19200.00
01236               0.20    19200.00
01237              -1.80    19000.00
01238              -0.60    19200.00
01239               1.80    19200.00
01240              -2.20    19000.00
01241              -1.20    19200.00
01242               3.00    19200.00
01243              -1.20    19200.00
01244              -1.40    19000.00
01245               2.60    19200.00
01246              -1.80    19000.00
01247              -0.20    19000.00
01248               0.20    19000.00
01249              -0.60    19000.00
01250               0.40    18800.00
01251              -0.40    18800.00
01252              -1.00    18800.00
01253               0.20    18600.00
01254               0.40    18600.00
01255              -1.00    18400.00
01256               0.40    18200.00
01257               1.20    18200.00
01258              -2.00    18000.00
01259               1.00    18000.00
01260               0.40    18000.00
01261              -1.80    17600.00
01262               0.60    17600.00
01263              -0.20    17400.00
01264              -0.40    17200.00
01265               0.40    17200.00
01266              -1.20    16800.00
01267               0.20    16800.00
01268              -0.20    16600.00
01269              -1.20    16400.00
01270               0.20    16200.00
01271               0.20    16000.00
01272              -1.00    15800.00
01273               0.40    15600.00
01274               0.20    15400.00
01275              -1.40    15200.00
01276              -0.40    15000.00
01277               0.20    14800.00
01278              -1.20    14400.00
01279              -0.40    14400.00
01280               0.60    14000.00
01281              -1.20    13600.00
01282              -0.60    13400.00
01283               0.40    13200.00
01284              -1.00    13000.00
01285              -0.60    12800.00
01286               0.40    12400.00
01287              -0.60    12200.00
01288              -0.60    11800.00
01289               0.00    11600.00
01290              -0.60    11400.00
01291              -0.60    11000.00
01292               0.20    10800.00
01293               0.20    10400.00
01294              -1.00    10200.00
01295              -0.20     9800.00
01296               0.20     9400.00
01297              -0.60     9200.00
01298              -0.60     8800.00
01299               0.80     8600.00
01300              -0.20     8200.00
01301              -0.80     8000.00
01302               0.40     7800.00
01303              -0.60     7200.00
01304              -0.80     7000.00
01305               0.60     6600.00
01306              -1.00     6400.00
01307              -0.60     6000.00
01308               0.20     5600.00
01309              -0.60     5200.00
01310               0.20     4800.00
01311              -0.40     4600.00
01312              -0.60     4400.00
01313               1.00     3800.00
01314              -0.60     3400.00
01315              -1.00     3200.00
01316               1.00     2800.00
01317              -0.60     2400.00
01318              -1.80     2000.00
01319               0.40     1800.00
01320              -0.20     1400.00
01321              -1.80     1000.00
01322               0.40      600.00
01323               0.20      200.00
01324              -0.60        0.00
01325               0.60     -400.00
01326               2.60     -800.00
01327               1.00    -1000.00
01328              -2.80    -1600.00
01329              -0.60    -1800.00
01330               1.40    -2000.00
01331              -1.00    -2400.00
01332               3.60    -2600.00
01333              25.00    -3200.00
01334               5.80    -4000.00
01335             -25.00    -4400.00
01336               0.60    -4600.00
01337              25.00    -4800.00
01338             -25.00    -4600.00
01339              -7.40    -4800.00
01340              25.00    -5800.00
01341             -25.00    -5600.00
01342               9.40    -6400.00
01343              25.00    -6600.00
01344             -25.00    -6600.00
01345              11.20    -7800.00
01346              -9.40    -7400.00
01347              20.60    -8000.00
01348               3.00    -8400.00
01349             -25.00    -8400.00
01350              25.00    -9200.00
01351              -6.40    -9200.00
01352             -25.00    -9600.00
01353              18.80    -9800.00
01354              19.60   -10000.00
01355             -25.00   -10600.00
01356              -9.40   -10600.00
01357              25.00   -11200.00
01358             -25.00   -11400.00
01359             -15.00   -11800.00
01360              21.80   -12000.00
01361              -1.00   -12200.00
01362             -16.40   -12600.00
01363               3.80   -12800.00
01364              18.60   -13000.00
01365             -13.60   -13200.00
01366              -5.20   -13600.00
01367               9.40   -13800.00
01368               1.80   -14200.00
01369             -15.60   -14400.00
01370               7.80   -14600.00
01371              10.60   -14800.00
01372             -11.80   -15200.00
01373              -0.60   -15400.00
01374               6.60   -15400.00
01375              -2.40   -15800.00
01376              -8.60   -16000.00
01377               7.40   -16200.00
01378               3.60   -16400.00
01379              -7.80   -16400.00
01380               2.00   -16800.00
01381               6.60   -16800.00
01382              -7.40   -17000.00
01383              -2.80   -17200.00
01384               6.00   -17200.00
01385              -1.40   -17600.00
01386              -4.00   -17600.00
01387               2.20   -17800.00
01388               3.00   -18000.00
01389              -5.80   -18200.00
01390               0.00   -18200.00
01391               4.40   -18400.00
01392              -3.60   -18400.00
01393              -1.20   -18600.00
01394               3.40   -18600.00
01395               0.00   -18800.00
01396              -4.60   -18800.00
01397               0.60   -18800.00
01398               2.60   -19000.00
01399              -3.80   -19200.00
01400              -1.00   -19200.00
01401               2.80   -19200.00
01402              -2.00   -19200.00
01403              -2.20   -19200.00
01404               1.40   -19200.00
01405               0.20   -19200.00
01406              -2.80   -19400.00
01407               0.80   -19200.00
01408               1.80   -19400.00
01409              -2.20   -19200.00
01410              -0.80   -19200.00
01411               0.60   -19200.00
01412              -0.80   -19200.00
01413              -1.20   -19200.00
01414              -0.60   -19200.00
01415               0.20   -19200.00
01416              -1.20   -19200.00
01417              -0.60   -18800.00
01418               0.20   -18800.00
01419              -1.20   -18800.00
01420              -0.60   -18600.00
01421               0.20   -18400.00
01422              -0.20   -18400.00
01423              -0.60   -18400.00
01424              -0.60   -18000.00
01425               0.20   -18000.00
01426              -0.60   -18200.00
01427              -0.80   -17800.00
01428              -0.60   -17600.00
01429              -0.60   -17400.00
01430               0.20   -17400.00
01431              -0.60   -17200.00
01432              -0.40   -17200.00
01433              -0.20   -17000.00
01434              -1.00   -16800.00
01435               0.40   -16600.00
01436              -0.20   -16400.00
01437              -1.20   -16200.00
01438               0.20   -16000.00
01439              -0.20   -16000.00
01440              -0.60   -15600.00
01441              -0.60   -15400.00
01442              -0.20   -15200.00
01443              -0.40   -15000.00
01444              -0.60   -14600.00
01445              -0.20   -14600.00
01446              -0.20   -14200.00
01447              -0.60   -14000.00
01448              -0.60   -13800.00
01449               0.40   -13400.00
01450              -0.40   -13400.00
01451              -1.60   -13000.00
01452              -0.20   -12800.00
01453               0.60   -12400.00
01454              -2.00   -12200.00
01455              -0.20   -12000.00
01456               0.40   -11600.00
01457              -1.60   -11200.00
01458              -0.60   -11000.00
01459               1.20   -10800.00
01460              -1.80   -10400.00
01461              -1.00   -10000.00
01462               1.00    -9800.00
01463              -1.20    -9600.00
01464              -1.00    -9000.00
01465               0.40    -8800.00
01466              -1.40    -8600.00
01467              -0.40    -8200.00
01468               0.40    -8000.00
01469              -2.00    -7600.00
01470              -0.60    -7200.00
01471               1.80    -6800.00
01472              -1.80    -6600.00
01473              -1.20    -6200.00
01474               1.00    -5800.00
01475              -1.00    -5600.00
01476              -2.00    -5000.00
01477               1.00    -4800.00
01478              -1.20    -4400.00
01479              -1.80    -4000.00
01480               0.60    -3600.00
01481              -0.60    -3400.00
01482              -1.40    -3200.00
01483               0.40    -2600.00
01484              -0.20    -2400.00
01485              -0.60    -2000.00
01486              -0.20    -1800.00
01487              -0.60    -1200.00
01488              -0.60     -800.00
01489               0.00     -600.00
01490               0.20     -400.00
01491               0.00      200.00
01492              -0.40      400.00
01493               3.40      600.00
01494              -0.40      800.00
01495              -2.20     1400.00
01496               1.20     1800.00
01497               2.20     2000.00
01498              -1.60     2200.00
01499               2.60     2800.00
01500              14.80     3000.00
01501              22.60     3800.00
01502             -25.00     4200.00
01503             -25.00     4400.00
01504              25.00     4800.00
01505              13.00     5000.00
01506             -25.00     5200.00
01507              19.60     5800.00
01508              25.00     6000.00
01509             -25.00     6200.00
01510               6.20     6800.00
01511              25.00     6800.00
01512             -25.00     7200.00
01513             -14.80     7800.00
01514              23.60     7800.00
01515              17.00     8400.00
01516             -25.00     8600.00
01517             -10.80     9000.00
01518              25.00     9200.00
01519             -23.60     9400.00
01520             -25.00    10000.00
01521              25.00    10000.00
01522               6.80    10400.00
01523             -25.00    10800.00
01524              12.20    11000.00
01525              25.00    11200.00
01526             -25.00    11800.00
01527              -6.80    12000.00
01528              23.40    12200.00
01529              -7.60    12600.00
01530             -16.40    12800.00
01531              13.80    13200.00
01532              10.80    13400.00
01533             -18.40    13600.00
01534               1.40    13800.00
01535              11.60    14000.00
01536              -8.20    14400.00
01537              -9.20    14600.00
01538              12.80    14800.00
01539               2.80    15000.00
01540             -12.20    15200.00
01541               5.20    15600.00
01542               5.20    15600.00
01543              -8.00    15800.00
01544              -3.00    16000.00
01545               7.80    16400.00
01546              -1.40    16600.00
01547              -5.40    16600.00
01548               4.40    16800.00
01549               2.20    17000.00
01550              -6.80    17200.00
01551               0.60    17400.00
01552               5.40    17600.00
01553              -3.80    17600.00
01554              -2.00    17800.00
01555               4.80    18000.00
01556              -0.40    18000.00
01557              -5.40    18200.00
01558               2.40    18200.00
01559               2.20    18400.00
01560              -4.20    18600.00
01561               1.20    18800.00
01562               2.60    18800.00
01563              -2.00    18800.00
01564              -2.00    18800.00
01565               2.00    19000.00
01566               0.40    19000.00
01567              -2.60    19000.00
01568               0.60    19200.00
01569               2.00    19000.00
01570              -1.60    19200.00
01571              -1.20    19000.00
01572               1.20    19200.00
01573              -0.40    19000.00
01574              -2.00    19200.00
01575               0.60    19000.00
01576               1.20    19200.00
01577              -1.80    19000.00
01578              -0.40    19200.00
01579               1.40    19000.00
01580              -0.40    19200.00
01581              -1.20    18800.00
01582               0.40    19000.00
01583               0.60    19000.00
01584              -1.00    18800.00
01585              -0.40    18800.00
01586               0.60    18800.00
01587              -0.60    18600.00
01588              -1.20    18400.00
01589               0.40    18400.00
01590               0.60    18200.00
01591              -1.20    18200.00
01592              -0.40    18200.00
01593               1.40    18000.00
01594              -0.60    17600.00
01595              -1.40    17600.00
01596              -0.20    17600.00
01597              -0.40    17400.00
01598              -0.60    17200.00
01599               0.40    17200.00
01600              -0.60    16800.00
01601              -0.40    16600.00
01602              -0.60    16600.00
01603              -0.40    16400.00
01604              -0.60    16000.00
01605               0.40    16000.00
01606              -0.60    15800.00
01607              -0.20    15600.00
01608              -0.20    15400.00
01609              -0.60    15200.00
01610              -0.60    14800.00
01611              -0.20    14800.00
01612              -0.40    14400.00
01613              -0.20    14200.00
01614              -0.60    14000.00
01615              -0.60    13600.00
01616               0.00    13400.00
01617              -0.20    13200.00
01618              -0.80    13000.00
01619               0.20    12800.00
01620               0.20    12400.00
01621              -0.60    12400.00
01622              -0.60    11800.00
01623               0.20    11600.00
01624              -0.40    11200.00
01625              -0.40    11000.00
01626              -0.20    10600.00
01627              -0.40    10400.00
01628              -0.40    10000.00
01629              -0.20     9600.00
01630              -0.20     9400.00
01631              -0.40     9200.00
01632              -0.40     8800.00
01633               0.00     8400.00
01634               0.00     8000.00
01635              -0.20     8000.00
01636              -0.40     7600.00
01637              -0.40     7200.00
01638              -0.40     6800.00
01639               0.20     6400.00
01640              -0.60     6200.00
01641              -0.20     5800.00
01642              -0.20     5600.00
01643              -0.40     5400.00
01644              -0.60     4600.00
01645              -0.20     4400.00
01646              -0.20     4000.00
01647              -0.20     3600.00
01648              -0.40     3400.00
01649              -0.40     3000.00
01650              -0.40     2800.00
01651              -0.20     2200.00
01652              -0.60     2000.00
01653              -0.60     1600.00
01654              -0.40     1200.00
01655              -0.40      800.00
01656              -0.60      600.00
01657              -0.20        0.00
01658               0.20     -200.00
01659               0.20     -400.00
01660               3.00     -800.00
01661              -0.20    -1000.00
01662              -2.20    -1600.00
01663               0.40    -1800.00
01664               1.20    -2000.00
01665              -1.80    -2400.00
01666               7.40    -2600.00
01667              25.00    -3600.00
01668             -19.40    -4000.00
01669             -25.00    -4400.00
01670              22.00    -4600.00
01671              25.00    -4800.00
01672             -25.00    -4800.00
01673              25.00    -5200.00
01674              25.00    -6000.00
01675             -25.00    -5600.00
01676              25.00    -6800.00
01677              17.80    -6600.00
01678             -25.00    -7200.00
01679              17.00    -7600.00
01680             -11.20    -7400.00
01681              25.00    -8200.00
01682             -25.00    -8200.00
01683             -16.60    -8600.00
01684              25.00    -9200.00
01685             -25.00    -9200.00
01686             -17.80   -10000.00
01687              25.00    -9800.00
01688              10.00   -10400.00
01689             -25.00   -10600.00
01690              13.60   -10800.00
01691              25.00   -11200.00
01692             -25.00   -11400.00
01693               2.20   -12000.00
01694              18.20   -12200.00
01695              -8.20   -12400.00
01696             -15.80   -12800.00
01697              14.20   -12800.00
01698              10.40   -13200.00
01699             -16.60   -13200.00
01700               1.20   -13800.00
01701              10.20   -13800.00
01702              -4.60   -14400.00
01703             -13.00   -14400.00
01704              14.60   -14800.00
01705               2.40   -14800.00
01706             -11.00   -15200.00
01707               3.40   -15400.00
01708               5.40   -15600.00
01709              -6.20   -16000.00
01710              -5.40   -16000.00
01711               9.20   -16200.00
01712              -1.00   -16400.00
01713              -6.60   -16600.00
01714               5.00   -16800.00
01715               3.40   -17000.00
01716              -9.20   -17200.00
01717               1.60   -17200.00
01718               5.00   -17200.00
01719              -3.60   -17600.00
01720              -2.80   -17600.00
01721               3.60   -18000.00
01722               0.40   -17800.00
01723              -6.20   -18200.00
01724               3.00   -18400.00
01725               1.40   -18400.00
01726              -4.40   -18400.00
01727               1.20   -18400.00
01728               2.60   -18800.00
01729              -2.20   -18800.00
01730              -2.80   -18800.00
01731               1.40   -19000.00
01732               0.60   -18800.00
01733              -3.00   -18800.00
01734               0.40   -19200.00
01735               1.20   -19200.00
01736              -2.20   -19200.00
01737              -1.00   -19200.00
01738               1.00   -19200.00
01739              -0.60   -19200.00
01740              -1.80   -19200.00
01741               0.80   -19200.00
01742               0.60   -19200.00
01743              -2.00   -19200.00
01744              -0.60   -19200.00
01745               0.40   -19200.00
01746              -0.20   -19200.00
01747              -1.40   -19200.00
01748              -0.60   -18800.00
01749               0.40   -19000.00
01750              -1.20   -18800.00
01751              -0.20   -18800.00
01752               0.20   -18600.00
01753              -0.80   -18800.00
01754              -0.60   -18600.00
01755               0.20   -18400.00
01756               0.20   -18400.00
01757              -1.20   -18400.00
01758              -0.40   -18000.00
01759               0.80   -18000.00
01760              -1.20   -17800.00
01761              -1.20   -17800.00
01762               0.60   -17600.00
01763              -0.60   -17400.00
01764              -0.40   -17400.00
01765               0.60   -17000.00
01766              -0.80   -17000.00
01767              -0.60   -16800.00
01768               0.40   -16600.00
01769              -0.40   -16600.00
01770              -1.00   -16400.00
01771               0.20   -16000.00
01772              -0.40   -16000.00
01773              -0.60   -15600.00
01774               0.40   -15600.00
01775              -1.00   -15200.00
01776              -0.60   -15200.00
01777               0.60   -14800.00
01778              -0.60   -14600.00
01779              -0.20   -14400.00
01780              -0.20   -14000.00
01781              -0.60   -14000.00
01782              -0.20   -13600.00
01783              -0.40   -13600.00
01784              -0.60   -13200.00
01785              -0.60   -12800.00
01786              -0.40   -12600.00
01787              -0.40   -12400.00
01788              -0.60   -12000.00
01789              -0.60   -11600.00
01790              -0.60   -11400.00
01791               0.20   -11000.00
01792              -0.20   -10800.00
01793              -0.60   -10600.00
01794              -0.60   -10400.00
01795              -0.40   -10000.00
01796              -0.20    -9800.00
01797              -0.60    -9200.00
01798              -0.60    -9000.00
01799              -0.60    -8800.00
01800              -0.80    -8400.00
01801              -0.40    -8200.00
01802              -0.60    -7800.00
01803              -0.60    -7600.00
01804              -0.20    -7200.00
01805               0.00    -6800.00
01806              -0.60    -6400.00
01807              -0.60    -6000.00
01808              -0.20    -5800.00
01809              -0.20    -5200.00
01810              -0.60    -5000.00
01811               0.00    -4600.00
01812              -0.60    -4400.00
01813              -1.00    -4000.00
01814              -0.20    -3600.00
01815              -0.40    -3400.00
01816              -0.60    -3000.00
01817               0.20    -2600.00
01818              -0.40    -2400.00
01819              -0.60    -2000.00
01820               0.00    -1600.00
01821              -0.40    -1200.00
01822              -0.60     -800.00
01823               0.20     -400.00
01824               0.40     -200.00
01825              -0.20      200.00
01826               1.40      600.00
01827               3.40      800.00
01828              -2.00     1200.00
01829              -0.80     1400.00
01830               1.80     1800.00
01831               0.80     2200.00
01832              -1.40     2400.00
01833               5.20     2800.00
01834              19.40     3400.00
01835              13.40     4000.00
01836             -25.00     4400.00
01837             -17.00     4600.00
01838              25.00     4800.00
01839             -10.00     5000.00
01840             -25.00     5200.00
01841              25.00     6000.00
01842              25.00     6000.00
01843             -25.00     6400.00
01844              25.00     7000.00
01845              25.00     6800.00
01846             -25.00     7600.00
01847               2.00     7600.00
01848              24.20     8000.00
01849               7.00     8600.00
01850             -25.00     8800.00
01851              13.40     9000.00
01852              25.00     9200.00
01853             -25.00     9600.00
01854              -9.00    10000.00
01855              25.00    10200.00
01856             -10.80    10800.00
01857             -25.00    11000.00
01858              25.00    11000.00
01859              14.00    11600.00
01860             -25.00    11800.00
01861               8.40    12000.00
01862              18.80    12400.00
01863             -15.40    12600.00
01864             -10.20    12800.00
01865              19.40    13200.00
01866               1.00    13400.00
01867             -17.80    13600.00
01868               8.60    14000.00
01869               7.80    14200.00
01870             -12.20    14600.00
01871              -3.00    14800.00
01872              14.60    15000.00
01873              -4.40    15200.00
01874              -9.00    15200.00
01875               9.00    15600.00
01876               1.40    15800.00
01877              -9.00    16000.00
01878               1.40    16200.00
01879               7.00    16400.00
01880              -5.00    16600.00
01881              -3.60    16600.00
01882               6.00    16800.00
01883              -1.00    17000.00
01884              -6.20    17200.00
01885               4.00    17400.00
01886               3.40    17600.00
01887              -5.00    17600.00
01888               0.40    18000.00
01889               4.20    18000.00
01890              -2.60    18000.00
01891              -3.80    18200.00
01892               4.20    18400.00
01893              -0.40    18400.00
01894              -3.80    18600.00
01895               3.00    18600.00
01896               1.20    18600.00
01897              -2.40    18800.00
01898              -0.20    18800.00
01899               1.80    19000.00
01900              -0.60    19000.00
01901              -1.80    19000.00
01902               1.20    19000.00
01903               0.60    19200.00
01904              -1.00    19200.00
01905              -0.20    19000.00
01906               0.40    19200.00
01907              -1.20    19000.00
01908              -0.40    19000.00
01909               1.20    19000.00
01910              -0.60    19200.00
01911              -0.40    19000.00
01912               1.00    19200.00
01913              -1.00    19000.00
01914               0.20    19000.00
01915               1.00    18800.00
01916              -2.00    19000.00
01917              -0.20    18800.00
01918               1.00    18800.00
01919              -1.40    18800.00
01920              -0.40    18800.00
01921               1.00    18600.00
01922              -1.20    18600.00
01923              -0.80    18400.00
01924               0.60    18400.00
01925              -0.60    18200.00
01926              -0.60    18200.00
01927               0.60    18000.00
01928              -1.00    17600.00
01929              -0.60    17600.00
01930               1.00    17400.00
01931              -0.60    17400.00
01932              -0.40    17200.00
01933               0.00    17000.00
01934              -0.40    16800.00
01935              -1.00    16800.00
01936              -1.00    16400.00
01937               0.00    16400.00
01938               0.20    16000.00
01939              -0.60    16000.00
01940               0.00    15600.00
01941               0.20    15600.00
01942              -0.40    15200.00
01943              -0.60    15000.00
01944               0.20    15000.00
01945               0.00    14400.00
01946              -0.60    14400.00
01947              -0.40    14000.00
01948               0.00    13800.00
01949              -0.20    13400.00
01950              -0.20    13200.00
01951              -0.20    13200.00
01952              -0.20    12800.00
01953              -0.20    12600.00
01954              -0.20    12400.00
01955              -0.20    12000.00
01956              -0.60    11800.00
01957               0.20    11600.00
01958              -0.40    11000.00
01959              -0.20    10800.00
01960               0.40    10400.00
01961              -1.20    10200.00
01962              -0.40    10000.00
01963               1.00     9600.00
01964              -0.60     9400.00
01965              -0.60     8800.00
01966               1.00     8800.00
01967              -0.20     8400.00
01968              -1.20     8000.00
01969               0.40     7800.00
01970              -0.20     7600.00
01971              -1.20     7000.00
01972               0.40     6800.00
01973              -0.20     6400.00
01974              -1.40     6200.00
01975               0.00     5600.00
01976               0.20     5400.00
01977              -0.60     4800.00
01978              -0.40     4600.00
01979               0.00     4200.00
01980              -0.40     3800.00
01981              -0.60     3600.00
01982              -0.20     3200.00
01983              -0.20     2800.00
01984              -1.00     2600.00
01985              -0.60     2200.00
01986              -0.40     1800.00
01987              -0.40     1400.00
01988              -0.60     1200.00
01989              -0.60      800.00
01990              -0.40      400.00
01991              -0.40        0.00
01992               0.00     -200.00
01993               0.60     -600.00
01994               3.40     -800.00
01995              -1.80    -1200.00
01996              -1.40    -1600.00
01997               1.80    -1800.00
01998               0.60    -2200.00
01999              -1.20    -2400.00
02000              13.80    -3000.00
02001              25.00    -3800.00
02002             -25.00    -4200.00
02003             -25.00    -4400.00
02004              25.00    -4600.00
02005               3.00    -4800.00
02006             -25.00    -4600.00
02007              25.00    -5800.00
02008               1.80    -5800.00
02009             -25.00    -6000.00
02010              25.00    -7000.00
02011             -23.40    -6600.00
02012             -22.40    -7400.00
02013               8.40    -7400.00
02014              -3.40    -7600.00
02015              25.00    -8400.00
02016             -25.00    -8200.00
02017              17.00    -9000.00
02018              25.00    -9000.00
02019             -25.00    -9400.00
02020               0.40   -10000.00
02021              25.00    -9800.00
02022              -2.40   -10400.00
02023             -25.00   -10600.00
02024              25.00   -11000.00
02025               9.20   -11200.00
02026             -25.00   -11600.00
02027              15.40   -12000.00
02028              11.20   -12200.00
02029             -12.60   -12600.00
02030             -10.40   -12800.00
02031              20.00   -13000.00
02032              -0.60   -13200.00
02033             -14.00   -13600.00
02034               5.40   -13800.00
02035               9.00   -14000.00
02036             -10.80   -14000.00
02037              -6.20   -14400.00
02038              17.00   -14800.00
02039              -5.80   -14800.00
02040              -7.40   -15400.00
02041               6.00   -15600.00
02042               3.00   -15600.00
02043              -9.40   -15800.00
02044               0.60   -16200.00
02045               8.60   -16200.00
02046              -5.80   -16400.00
02047              -3.80   -16800.00
02048               6.80   -17000.00
02049              -2.00   -17000.00
02050              -7.60   -17200.00
02051               5.00   -17200.00
02052               2.00   -17400.00
02053              -4.20   -17600.00
02054              -0.60   -17600.00
02055               4.20   -17800.00
02056              -2.80   -18000.00
02057              -4.00   -18000.00
02058               4.20   -18200.00
02059              -1.80   -18400.00
02060              -3.40   -18600.00
02061               2.20   -18600.00
02062               1.20   -18800.00
02063              -2.60   -18600.00
02064              -2.00   -18800.00
02065               2.20   -18800.00
02066              -1.00   -19200.00
02067              -2.20   -18800.00
02068               1.20   -19000.00
02069               0.20   -19200.00
02070              -1.60   -19200.00
02071              -0.40   -19200.00
02072               1.20   -19200.00
02073              -1.40   -19200.00
02074              -1.80   -19200.00
02075               2.60   -19200.00
02076              -0.60   -19200.00
02077              -2.60   -19200.00
02078               1.00   -19200.00
02079              -0.20   -19200.00
02080              -1.40   -19200.00
02081              -0.60   -19000.00
02082               0.40   -19200.00
02083              -0.40   -19000.00
02084              -0.60   -18800.00
02085               0.40   -18800.00
02086              -0.40   -18800.00
02087              -0.60   -18600.00
02088              -0.40   -18600.00
02089               0.20   -18400.00
02090              -0.20   -18400.00
02091              -1.20   -18200.00
02092              -0.20   -18000.00
02093               0.40   -18000.00
02094              -1.40   -18000.00
02095              -0.60   -17800.00
02096               0.40   -17600.00
02097              -0.20   -17400.00
02098              -0.40   -17400.00
02099               0.20   -17000.00
02100              -0.20   -17200.00
02101              -1.00   -16800.00
02102               0.00   -16800.00
02103               0.20   -16600.00
02104              -1.00   -16400.00
02105              -0.40   -16000.00
02106              -0.20   -16000.00
02107              -0.60   -15600.00
02108              -0.60   -15400.00
02109              -0.80   -15200.00
02110              -0.20   -15000.00
02111              -0.60   -14800.00
02112              -0.40   -14600.00
02113              -0.20   -14400.00
02114              -1.00   -14200.00
02115              -0.40   -13800.00
02116              -0.20   -13600.00
02117              -0.20   -13200.00
02118              -0.60   -13000.00
02119              -0.80   -12800.00
02120              -0.40   -12400.00
02121              -0.60   -12200.00
02122              -1.20   -12000.00
02123              -0.60   -11800.00
02124              -0.60   -11400.00
02125              -0.20   -11000.00
02126              -0.40   -10800.00
02127              -0.60   -10600.00
02128              -0.60   -10200.00
02129              -0.40   -10000.00
02130              -0.20    -9600.00
02131              -1.00    -9200.00
02132              -0.60    -9000.00
02133              -0.40    -8800.00
02134              -0.20    -8200.00
02135              -0.60    -8000.00
02136              -0.80    -7600.00
02137              -0.60    -7400.00
02138               0.20    -7000.00
02139              -0.40    -6600.00
02140              -0.40    -6400.00
02141              -1.00    -6000.00
02142              -0.20    -5800.00
02143               0.00    -5200.00
02144              -1.00    -4800.00
02145              -0.40    -4600.00
02146              -0.60    -4200.00
02147              -0.60    -4000.00
02148              -0.20    -3600.00
02149               0.00    -3200.00
02150              -0.60    -2800.00
02151              -0.20    -2600.00
02152               0.00    -2200.00
02153              -0.60    -1800.00
02154              -0.40    -1600.00
02155              -0.40    -1000.00
02156              -0.60     -800.00
02157               0.40     -400.00
02158               0.20        0.00
02159              -0.40      400.00
02160               2.00      800.00
02161               2.60      800.00
02162              -2.20     1400.00
02163               0.40     1600.00
02164               2.60     2000.00
02165               0.20     2200.00
02166              -1.00     2400.00
02167               8.20     3000.00
02168              23.60     3600.00
02169              -5.20     4000.00
02170             -25.00     4400.00
02171               4.60     4600.00
02172              25.00     5000.00
02173             -25.00     5200.00
02174             -25.00     5400.00
02175              25.00     6200.00
02176             -14.00     6000.00
02177             -25.00     6800.00
02178              25.00     6800.00
02179              -4.00     6800.00
02180             -25.00     7600.00
02181              15.80     7600.00
02182              22.80     8200.00
02183              -6.40     8600.00
02184             -25.00     8800.00
02185              25.00     9200.00
02186              17.00     9200.00
02187             -25.00     9800.00
02188              12.40    10000.00
02189              25.00    10400.00
02190             -24.60    10800.00
02191             -16.40    11000.00
02192              25.00    11200.00
02193              -7.60    11400.00
02194             -25.00    11800.00
02195              19.80    12200.00
02196               9.80    12400.00
02197             -19.80    12600.00
02198              -0.60    13000.00
02199              20.20    13200.00
02200             -10.00    13400.00
02201             -11.80    13600.00
02202              12.80    14000.00
02203               2.00    14400.00
02204             -13.40    14600.00
02205               4.40    14800.00
02206              11.80    15000.00
02207             -10.00    15200.00
02208              -3.20    15400.00
02209               9.20    15600.00
02210              -2.80    15800.00
02211              -7.80    16000.00
02212               5.60    16200.00
02213               4.40    16400.00
02214              -6.80    16600.00
02215               0.20    16800.00
02216               6.00    16800.00
02217              -4.20    17200.00
02218              -4.20    17200.00
02219               5.80    17400.00
02220               0.20    17600.00
02221              -4.40    17800.00
02222               2.60    17600.00
02223               3.40    18000.00
02224              -4.40    18200.00
02225              -1.40    18200.00
02226               4.40    18400.00
02227              -2.80    18400.00
02228              -2.20    18600.00
02229               3.40    18600.00
02230               0.20    18800.00
02231              -3.00    18800.00
02232               1.00    18800.00
02233               2.00    19000.00
02234              -2.00    19000.00
02235              -1.00    19000.00
02236               2.20    19000.00
02237              -0.60    19000.00
02238              -1.80    19000.00
02239               0.40    19000.00
02240               0.40    19200.00
02241              -1.40    19200.00
02242              -0.20    19200.00
02243               1.20    19000.00
02244              -1.00    19200.00
02245              -0.60    19000.00
02246               1.00    19000.00
02247              -0.40    19000.00
02248              -1.00    19000.00
02249              -0.20    19000.00
02250               0.20    19000.00
02251              -0.60    18800.00
02252              -0.60    18800.00
02253              -0.20    18800.00
02254              -0.20    18800.00
02255              -0.60    18600.00
02256              -0.20    18400.00
02257               0.60    18400.00
02258              -0.40    18200.00
02259              -1.20    18000.00
02260              -0.20    18000.00
02261              -0.20    18000.00
02262              -0.40    17600.00
02263               0.00    17600.00
02264               0.20    17400.00
02265              -0.20    17200.00
02266              -0.20    17200.00
02267              -1.20    17000.00
02268              -0.20    16800.00
02269              -0.20    16800.00
02270              -0.20    16400.00
02271              -0.20    16400.00
02272               0.20    16000.00
02273              -0.80    15800.00
02274              -0.60    15800.00
02275              -0.80    15600.00
02276               1.40    15000.00
02277              -0.40    15000.00
02278              -1.00    14800.00
02279               0.40    14400.00
02280              -0.40    14400.00
02281              -1.80    14000.00
02282               1.00    13800.00
02283              -0.20    13600.00
02284              -0.60    13200.00
02285               0.60    13000.00
02286              -0.20    12800.00
02287              -0.80    12400.00
02288               0.40    12400.00
02289              -0.40    12000.00
02290              -0.60    11600.00
02291               0.00    11200.00
02292              -0.20    11000.00
02293              -0.40    10800.00
02294              -0.60    10400.00
02295              -0.40    10200.00
02296              -0.40     9600.00
02297               0.00     9600.00
02298              -0.20     9200.00
02299              -0.20     8800.00
02300               0.20     8600.00
02301              -0.20     8400.00
02302              -0.40     7800.00
02303              -0.40     7800.00
02304              -0.60     7200.00
02305              -0.40     6800.00
02306              -0.40     6600.00
02307              -0.40     6200.00
02308              -0.60     6000.00
02309              -0.60     5600.00
02310              -0.40     5200.00
02311              -0.60     4800.00
02312              -0.40     4600.00
02313              -0.20     4000.00
02314              -0.60     3800.00
02315              -0.60     3600.00
02316              -0.40     3000.00
02317              -0.60     2800.00
02318              -0.60     2400.00
02319              -0.40     2200.00
02320              -0.40     1600.00
02321              -0.60     1400.00
02322              -0.40     1000.00
02323              -0.40      600.00
02324              -0.60      400.00
02325              -0.20        0.00
02326               0.40     -400.00
02327               1.20     -600.00
02328               2.00    -1000.00
02329              -2.20    -1400.00
02330              -1.20    -1600.00
02331               1.80    -1800.00
02332              -0.20    -2200.00
02333               1.60    -2600.00
02334              23.60    -3200.00
02335              17.40    -4000.00
02336             -25.00    -4200.00
02337             -10.40    -4600.00
02338              25.00    -4800.00
02339             -25.00    -4600.00
02340             -25.00    -4800.00
02341              25.00    -6000.00
02342             -25.00    -5400.00
02343             -14.00    -6200.00
02344              25.00    -6600.00
02345             -25.00    -6600.00
02346               2.60    -7600.00
02347              -4.00    -7400.00
02348              11.80    -8000.00
02349              16.40    -8400.00
02350             -25.00    -8400.00
02351              25.00    -9200.00
02352               8.60    -9000.00
02353             -25.00    -9600.00
02354              13.80    -9800.00
02355              22.60   -10000.00
02356             -18.80   -10600.00
02357             -18.80   -10800.00
02358              25.00   -11200.00
02359             -16.60   -11200.00
02360             -23.00   -11800.00
02361              21.40   -12000.00
02362               2.80   -12200.00
02363             -15.00   -12400.00
02364              -1.20   -12800.00
02365              20.40   -13000.00
02366             -10.20   -13200.00
02367              -8.20   -13600.00
02368               8.40   -14000.00
02369               3.60   -14200.00
02370             -14.60   -14400.00
02371               3.40   -14400.00
02372              13.00   -15000.00
02373             -10.60   -15000.00
02374              -2.60   -15400.00
02375               6.00   -15600.00
02376              -0.60   -15600.00
02377              -9.40   -15800.00
02378               4.40   -16200.00
02379               5.80   -16400.00
02380              -7.40   -16400.00
02381              -0.40   -16600.00
02382               7.40   -17000.00
02383              -6.00   -17000.00
02384              -5.20   -17200.00
02385               5.80   -17200.00
02386              -0.40   -17600.00
02387              -4.80   -17600.00
02388               1.20   -17600.00
02389               3.80   -18000.00
02390              -5.80   -18000.00
02391              -1.40   -18200.00
02392               5.40   -18200.00
02393              -4.00   -18400.00
02394              -2.20   -18600.00
02395               3.60   -18600.00
02396              -0.20   -18400.00
02397              -4.20   -18800.00
02398               0.20   -18800.00
02399               2.60   -18800.00
02400              -2.80   -19000.00
02401              -2.00   -19200.00
02402               2.40   -19200.00
02403              -0.60   -19200.00
02404              -2.80   -19200.00
02405               0.80   -19200.00
02406               1.20   -19200.00
02407              -2.20   -19200.00
02408              -0.40   -19200.00
02409               2.80   -19200.00
02410              -2.00   -19200.00
02411              -2.20   -19200.00
02412               1.80   -19000.00
02413              -0.20   -19200.00
02414              -2.00   -19200.00
02415              -0.20   -19000.00
02416               0.60   -18800.00
02417              -0.60   -18800.00
02418              -0.60   -18800.00
02419               0.20   -18800.00
02420              -0.60   -18600.00
02421              -0.80   -18600.00
02422              -0.20   -18600.00
02423               0.60   -18400.00
02424              -0.60   -18400.00
02425              -1.20   -18200.00
02426               0.40   -18000.00
02427              -0.20   -18000.00
02428              -1.40   -17800.00
02429              -0.20   -17800.00
02430              -0.20   -17600.00
02431              -0.60   -17400.00
02432              -0.40   -17200.00
02433               0.00   -17200.00
02434              -0.40   -17000.00
02435              -1.00   -16800.00
02436              -0.40   -16600.00
02437              -0.20   -16400.00
02438              -1.00   -16200.00
02439              -0.60   -16000.00
02440               0.00   -15800.00
02441              -0.40   -15600.00
02442              -1.20   -15400.00
02443              -0.60   -15200.00
02444              -0.20   -15000.00
02445              -0.60   -14800.00
02446              -0.20   -14400.00
02447              -0.40   -14400.00
02448              -1.00   -14200.00
02449               0.00   -13800.00
02450              -0.80   -13600.00
02451              -0.60   -13200.00
02452              -0.80   -13200.00
02453              -0.60   -12800.00
02454              -0.20   -12400.00
02455              -0.20   -12000.00
02456              -1.00   -12000.00
02457              -1.00   -11600.00
02458              -1.20   -11400.00
02459               0.60   -11000.00
02460               0.20   -10800.00
02461              -2.00   -10400.00
02462              -0.40   -10000.00
02463               0.40    -9800.00
02464              -1.80    -9600.00
02465              -1.20    -9200.00
02466               1.00    -9000.00
02467              -0.60    -8800.00
02468              -1.00    -8200.00
02469               0.40    -8000.00
02470              -0.40    -7600.00
02471              -1.40    -7200.00
02472              -0.60    -6800.00
02473               0.40    -6600.00
02474               0.60    -6200.00
02475              -1.00    -6000.00
02476              -0.60    -5600.00
02477              -0.60    -5200.00
02478              -0.40    -4800.00
02479              -1.00    -4600.00
02480              -0.20    -4000.00
02481               0.40    -4000.00
02482              -0.40    -3600.00
02483              -1.20    -3200.00
02484               0.20    -2800.00
02485              -0.20    -2400.00
02486              -1.00    -2000.00
02487               0.40    -1800.00
02488               0.00    -1400.00
02489              -1.20    -1000.00
02490               0.20     -600.00
02491               0.40     -400.00
02492              -0.40      200.00
02493               0.00      400.00
02494               3.40      600.00
02495               0.40     1000.00
02496              -2.80     1400.00
02497               1.40     1600.00
02498               2.60     2000.00
02499              -1.40     2200.00
02500               1.20     2400.00
02501              12.60     3200.00
02502              24.20     3800.00
02503             -25.00     4000.00
02504             -25.00     4400.00
02505              22.20     4800.00
02506              21.20     4800.00
02507             -25.00     5000.00
02508               2.00     5600.00
02509              25.00     6000.00
02510             -25.00     6000.00
02511             -15.60     6800.00
02512              25.00     6800.00
02513             -25.00     7000.00
02514             -24.20     7600.00
02515              22.40     7600.00
02516              19.60     8400.00
02517             -21.20     8600.00
02518             -21.20     8800.00
02519              25.00     9200.00
02520             -11.00     9400.00
02521             -25.00    10000.00
02522              25.00    10000.00
02523              15.80    10400.00
02524             -25.00    10800.00
02525               3.00    11000.00
02526              25.00    11200.00
02527             -25.00    11800.00
02528             -14.80    12000.00
02529              23.80    12200.00
02530              -1.20    12600.00
02531             -19.40    12800.00
02532               9.00    13000.00
02533              16.40    13400.00
02534             -17.00    13600.00
02535              -3.80    14000.00
02536              14.00    14000.00
02537              -4.60    14400.00
02538             -12.40    14600.00
02539              11.60    14800.00
02540               7.00    15000.00
02541             -13.40    15200.00
02542               2.60    15400.00
02543               8.00    15600.00
02544              -7.40    16000.00
02545              -5.00    16000.00
02546               8.60    16200.00
02547               0.00    16400.00
02548              -6.60    16600.00
02549               3.80    16800.00
02550               3.60    17000.00
02551              -6.60    17200.00
02552              -1.00    17200.00
02553               6.60    17600.00
02554              -3.20    17400.00
02555              -3.60    17600.00
02556               4.40    18000.00
02557               1.40    18000.00
02558              -6.00    18000.00
02559               1.60    18200.00
02560               3.60    18400.00
02561              -4.40    18400.00
02562               0.20    18400.00
02563               3.40    18600.00
02564              -2.00    18800.00
02565              -2.20    18800.00
02566               1.80    18800.00
02567               0.80    19000.00
02568              -2.40    19000.00
02569              -0.40    19000.00
02570               2.00    19200.00
02571              -1.20    19000.00
02572              -1.80    19000.00
02573               1.00    19000.00
02574               0.00    19200.00
02575              -2.20    19000.00
02576               0.40    19200.00
02577               1.20    19200.00
02578              -1.80    19000.00
02579              -0.60    19000.00
02580               1.20    19200.00
02581              -0.80    19000.00
02582              -1.00    19200.00
02583               0.20    19000.00
02584              -0.20    18800.00
02585              -1.00    18800.00
02586              -0.60    18800.00
02587               0.20    18800.00
02588              -1.00    18600.00
02589              -0.60    18400.00
02590               0.20    18400.00
02591              -0.40    18400.00
02592              -0.20    18200.00
02593               0.40    18200.00
02594               0.20    18000.00
02595              -0.60    17800.00
02596              -0.40    17600.00
02597              -0.60    17600.00
02598              -0.40    17400.00
02599              -0.20    17400.00
02600               0.20    17200.00
02601              -0.60    17000.00
02602              -0.20    16800.00
02603              -0.40    16600.00
02604              -0.40    16400.00
02605              -0.20    16200.00
02606               0.20    16000.00
02607              -0.20    15800.00
02608              -0.20    15600.00
02609              -0.20    15400.00
02610              -0.60    15200.00
02611              -0.20    14800.00
02612               0.20    14800.00
02613              -0.40    14400.00
02614              -0.40    14200.00
02615              -0.40    14000.00
02616              -0.40    13800.00
02617              -0.20    13400.00
02618              -0.40    13400.00
02619              -0.40    12800.00
02620               0.40    12600.00
02621               0.00    12400.00
02622              -0.20    12200.00
02623              -0.40    11800.00
02624              -0.40    11600.00
02625              -0.40    11400.00
02626              -0.20    10800.00
02627              -0.20    10800.00
02628              -0.60    10200.00
02629              -0.40    10000.00
02630              -0.40     9600.00
02631              -0.40     9400.00
02632              -0.40     9200.00
02633              -0.40     8800.00
02634              -0.40     8600.00
02635              -0.20     8200.00
02636              -0.40     8200.00
02637              -0.40     7600.00
02638              -0.60     7200.00
02639              -0.40     6800.00
02640              -0.40     6600.00
02641              -0.80     6200.00
02642              -0.40     6000.00
02643              -0.40     5400.00
02644              -0.60     5200.00
02645              -0.20     4600.00
02646              -0.60     4600.00
02647              -0.40     4000.00
02648              -0.60     3800.00
02649              -0.40     3400.00
02650              -0.40     3000.00
02651              -0.60     2800.00
02652              -0.60     2400.00
02653              -0.40     2000.00
02654              -0.60     1600.00
02655              -0.40     1200.00
02656              -0.40      800.00
02657              -0.20      600.00
02658              -0.40      200.00
02659               0.20     -200.00
02660               0.20     -400.00
02661               2.60     -800.00
02662               0.40    -1000.00
02663              -2.20    -1400.00
02664              -0.20    -1600.00
02665               1.20    -2000.00
02666              -1.20    -2400.00
02667               5.80    -2600.00
02668              25.00    -3400.00
02669              -7.40    -4000.00
02670             -25.00    -4200.00
02671              13.00    -4400.00
02672              25.00    -4800.00
02673             -25.00    -4600.00
02674              16.20    -5000.00
02675              25.00    -6000.00
02676             -25.00    -5400.00
02677              25.00    -6600.00
02678              25.00    -6800.00
02679             -25.00    -6800.00
02680              17.00    -7600.00
02681             -11.80    -7400.00
02682              25.00    -8200.00
02683             -13.00    -8200.00
02684             -25.00    -8600.00
02685              25.00    -9200.00
02686             -22.20    -9000.00
02687             -25.00    -9600.00
02688              23.20    -9800.00
02689              14.80   -10200.00
02690             -25.00   -10600.00
02691               2.80   -10600.00
02692              25.00   -11200.00
02693             -25.00   -11200.00
02694              -5.80   -11800.00
02695              20.20   -12000.00
02696              -5.20   -12400.00
02697             -16.20   -12600.00
02698               9.00   -12800.00
02699              14.80   -13200.00
02700             -15.80   -13200.00
02701              -1.80   -13600.00
02702               9.20   -14000.00
02703              -1.40   -14200.00
02704             -15.00   -14400.00
02705              11.60   -14800.00
02706               6.20   -14800.00
02707             -11.80   -15000.00
02708               1.20   -15400.00
02709               5.80   -15600.00
02710              -4.40   -15800.00
02711              -7.60   -16000.00
02712               8.40   -16200.00
02713               1.20   -16400.00
02714              -7.80   -16400.00
02715               3.20   -16600.00
02716               5.00   -17000.00
02717              -8.60   -17000.00
02718              -1.00   -17200.00
02719               5.40   -17200.00
02720              -2.40   -17600.00
02721              -3.60   -17800.00
02722               2.80   -17600.00
02723               2.00   -18000.00
02724              -6.20   -18000.00
02725               1.80   -18400.00
02726               2.60   -18200.00
02727              -4.40   -18400.00
02728               0.60   -18600.00
02729               2.60   -18600.00
02730              -1.40   -18600.00
02731              -2.80   -18800.00
02732               1.20   -18800.00
02733               0.60   -18800.00
02734              -2.60   -18800.00
02735               0.20   -19200.00
02736               1.20   -19200.00
02737              -1.20   -19000.00
02738              -0.60   -19200.00
02739               0.60   -19200.00
02740              -0.20   -19200.00
02741              -1.80   -19200.00
02742               0.60   -19200.00
02743               1.20   -19200.00
02744              -2.20   -19200.00
02745              -0.40   -19000.00
02746               0.60   -19200.00
02747              -0.60   -19000.00
02748              -1.00   -19200.00
02749              -0.40   -19000.00
02750               0.40   -19000.00
02751              -0.60   -19000.00
02752              -0.20   -18800.00
02753               0.20   -18800.00
02754              -1.00   -18600.00
02755              -0.60   -18600.00
02756               0.20   -18400.00
02757              -0.20   -18600.00
02758              -1.20   -18400.00
02759              -0.60   -18000.00
02760               0.40   -18200.00
02761              -1.00   -17800.00
02762              -1.20   -17800.00
02763              -0.20   -17400.00
02764              -0.40   -17400.00
02765              -0.40   -17400.00
02766              -0.20   -17200.00
02767              -0.60   -17200.00
02768              -1.00   -16800.00
02769              -0.60   -16800.00
02770              -0.40   -16400.00
02771              -0.60   -16400.00
02772              -1.20   -16200.00
02773              -0.20   -16000.00
02774              -0.40   -15600.00
02775              -1.00   -15400.00
02776              -1.00   -15400.00
02777              -0.40   -15200.00
02778              -0.40   -14800.00
02779              -0.60   -14800.00
02780              -0.20   -14400.00
02781              -0.60   -14200.00
02782              -1.00   -14000.00
02783               0.00   -13600.00
02784              -0.40   -13400.00
02785              -1.00   -13200.00
02786              -0.80   -13000.00
02787              -0.20   -12800.00
02788              -0.40   -12400.00
02789              -0.60   -12000.00
02790              -0.40   -11800.00
02791              -0.60   -11600.00
02792              -0.20   -11200.00
02793               0.00   -10800.00
02794              -0.60   -10600.00
02795              -0.40   -10200.00
02796              -0.40   -10000.00
02797              -0.60    -9600.00
02798              -0.20    -9400.00
02799              -0.60    -9000.00
02800              -0.60    -8800.00
02801              -0.40    -8400.00
02802              -0.60    -8200.00
02803              -0.40    -7800.00
02804              -0.40    -7600.00
02805               0.00    -7200.00
02806              -0.20    -6800.00
02807              -0.40    -6400.00
02808              -0.20    -6200.00
02809              -0.40    -5800.00
02810               0.40    -5600.00
02811              -1.00    -5000.00
02812              -0.40    -4800.00
02813              -0.40    -4400.00
02814              -1.20    -4000.00
02815              -0.20    -3800.00
02816               0.20    -3400.00
02817              -1.00    -3000.00
02818               0.20    -2600.00
02819              -0.20    -2400.00
02820              -0.60    -2000.00
02821               0.20    -1600.00
02822              -0.60    -1200.00
02823              -0.60     -800.00
02824              -0.20     -400.00
02825               0.20     -200.00
02826              -0.40        0.00
02827               0.40      400.00
02828               3.60      800.00
02829              -1.20     1000.00
02830              -2.00     1400.00
02831               1.80     1600.00
02832               1.40     2000.00
02833              -2.00     2400.00
02834               3.60     2800.00
02835              17.40     3400.00
02836              18.40     3800.00
02837             -25.00     4200.00
02838             -25.00     4600.00
02839              25.00     4800.00
02840               1.80     5200.00
02841             -25.00     5200.00
02842              25.00     6000.00
02843              25.00     6000.00
02844             -25.00     6400.00
02845              25.00     7000.00
02846              25.00     6800.00
02847             -25.00     7600.00
02848              -5.20     7800.00
02849              23.60     7800.00
02850              12.20     8600.00
02851             -25.00     8600.00
02852               1.40     9000.00
02853              25.00     9200.00
02854             -25.00     9600.00
02855             -19.40    10000.00
02856              25.00    10200.00
02857              -2.80    10600.00
02858             -25.00    10800.00
02859              21.00    11200.00
02860              23.20    11400.00
02861             -25.00    11800.00
02862               1.80    12000.00
02863              21.80    12400.00
02864             -11.80    12600.00
02865             -13.40    12800.00
02866              17.20    13200.00
02867               5.60    13400.00
02868             -18.20    13600.00
02869               5.80    13600.00
02870               9.80    14200.00
02871             -10.20    14400.00
02872              -6.00    14600.00
02873              14.00    14800.00
02874              -1.00    15000.00
02875             -10.60    15400.00
02876               7.00    15600.00
02877               3.20    15800.00
02878              -8.60    16000.00
02879              -0.60    16200.00
02880               7.60    16400.00
02881              -3.60    16600.00
02882              -4.20    16800.00
02883               5.80    16800.00
02884               0.40    17200.00
02885              -6.80    17200.00
02886               2.60    17400.00
02887               4.40    17400.00
02888              -4.60    17600.00
02889              -0.60    17800.00
02890               4.20    18000.00
02891              -1.80    18000.00
02892              -4.60    18200.00
02893               3.40    18200.00
02894               0.60    18400.00
02895              -4.20    18400.00
02896               1.80    18400.00
02897               1.80    18800.00
02898              -2.60    18800.00
02899              -1.40    18800.00
02900               2.00    19000.00
02901              -0.40    18800.00
02902              -2.80    19000.00
02903               0.80    19000.00
02904               1.00    19200.00
02905              -1.80    19200.00
02906              -1.00    19200.00
02907               1.00    19200.00
02908              -0.60    19000.00
02909              -1.60    19000.00
02910               1.00    19200.00
02911               0.40    19000.00
02912              -1.80    19200.00
02913               0.20    19000.00
02914               0.40    19200.00
02915              -0.80    19000.00
02916              -0.40    19000.00
02917              -0.20    18800.00
02918               0.40    18800.00
02919              -0.20    18800.00
02920              -1.20    18800.00
02921               0.20    18600.00
02922               0.20    18600.00
02923              -1.20    18400.00
02924              -0.60    18400.00
02925               0.80    18200.00
02926              -1.00    18000.00
02927              -0.60    18000.00
02928               1.80    18000.00
02929              -0.40    17800.00
02930              -1.20    17600.00
02931               0.40    17400.00
02932              -0.60    17400.00
02933              -1.20    17200.00
02934               0.60    17000.00
02935              -0.40    16800.00
02936              -0.40    16800.00
02937              -0.20    16600.00
02938               0.00    16400.00
02939              -0.60    16200.00
02940              -0.20    16000.00
02941               0.20    15800.00
02942              -0.20    15600.00
02943              -0.40    15200.00
02944              -0.40    15200.00
02945               0.00    14800.00
02946              -0.40    14600.00
02947              -0.60    14400.00
02948              -0.20    14200.00
02949              -0.40    14000.00
02950              -0.20    13600.00
02951               0.00    13400.00
02952              -0.20    13200.00
02953              -0.20    12800.00
02954              -0.20    12400.00
02955              -0.40    12400.00
02956              -0.40    12000.00
02957              -0.60    11800.00
02958              -0.60    11600.00
02959              -0.20    11000.00
02960              -0.40    10800.00
02961              -0.60    10400.00
02962              -0.40    10200.00
02963              -0.20    10000.00
02964              -0.60     9600.00
02965              -0.40     9200.00
02966              -0.20     9200.00
02967              -0.60     8800.00
02968              -0.40     8400.00
02969              -0.20     8000.00
02970              -0.60     7600.00
02971              -0.80     7400.00
02972              -0.40     7000.00
02973               0.00     6800.00
02974              -0.60     6400.00
02975              -0.60     6200.00
02976               0.20     5800.00
02977              -0.60     5600.00
02978              -0.80     4800.00
02979               0.40     4600.00
02980              -0.60     4400.00
02981              -0.80     4000.00
02982               0.20     3600.00
02983              -0.40     3200.00
02984              -1.00     3000.00
02985              -0.40     2600.00
02986              -0.20     2200.00
02987              -0.60     2000.00
02988              -0.60     1600.00
02989              -0.20     1200.00
02990              -0.60      800.00
02991              -0.60      400.00
02992               0.00      200.00
02993               0.40     -200.00
02994               0.40     -600.00
02995               3.40     -800.00
02996              -0.60    -1200.00
02997              -1.80    -1600.00
02998               1.00    -1800.00
02999               1.20    -2000.00
03000              -1.60    -2400.00
03001              10.20    -2800.00
03002              25.00    -3600.00
03003             -25.00    -4200.00
03004             -25.00    -4400.00
03005              25.00    -4600.00
03006              16.60    -4800.00
03007             -25.00    -4600.00
03008              25.00    -5600.00
03009              25.00    -5800.00
03010             -25.00    -5800.00
03011              25.00    -6800.00
03012              -5.80    -6600.00
03013             -25.00    -7200.00
03014              14.00    -7600.00
03015              -8.60    -7600.00
03016              25.00    -8200.00
03017             -25.00    -8200.00
03018               1.00    -8800.00
03019              25.00    -9200.00
03020             -25.00    -9200.00
03021              -7.80   -10000.00
03022              25.00   -10000.00
03023               2.80   -10400.00
03024             -25.00   -10600.00
03025              25.00   -10800.00
03026              20.40   -11400.00
03027             -25.00   -11400.00
03028              10.60   -12000.00
03029              14.60   -12200.00
03030             -11.00   -12400.00
03031             -13.20   -12800.00
03032              17.40   -13000.00
03033               4.60   -13200.00
03034             -15.80   -13400.00
03035               4.00   -13800.00
03036               9.20   -14000.00
03037              -8.40   -14400.00
03038             -10.20   -14400.00
03039              16.20   -14800.00
03040              -2.20   -14800.00
03041              -9.20   -15200.00
03042               4.80   -15600.00
03043               4.40   -15600.00
03044              -8.20   -15800.00
03045              -2.60   -16000.00
03046               9.40   -16200.00
03047              -3.60   -16400.00
03048              -5.60   -16800.00
03049               6.60   -16800.00
03050               0.80   -17000.00
03051              -8.80   -17200.00
03052               3.00   -17200.00
03053               3.60   -17400.00
03054              -4.20   -17600.00
03055              -1.80   -17800.00
03056               4.40   -17800.00
03057              -1.00   -18000.00
03058              -5.40   -18000.00
03059               4.20   -18400.00
03060               0.20   -18400.00
03061              -3.80   -18400.00
03062               2.20   -18600.00
03063               1.80   -18600.00
03064              -2.80   -18800.00
03065              -2.00   -18800.00
03066               2.00   -18800.00
03067              -0.40   -18800.00
03068              -2.80   -19200.00
03069               1.40   -19000.00
03070               0.60   -19200.00
03071              -2.00   -19200.00
03072              -0.40   -19000.00
03073               1.00   -19200.00
03074              -1.20   -19200.00
03075              -1.40   -19200.00
03076               1.80   -19200.00
03077              -0.20   -19200.00
03078              -2.20   -19200.00
03079               0.40   -19200.00
03080               0.20   -19200.00
03081              -1.00   -19200.00
03082              -1.00   -19200.00
03083              -0.20   -19200.00
03084               0.20   -18800.00
03085              -1.00   -18800.00
03086               0.20   -18800.00
03087              -0.20   -18800.00
03088              -1.00   -18800.00
03089              -0.60   -18600.00
03090               0.20   -18400.00
03091              -0.40   -18400.00
03092              -1.40   -18200.00
03093              -0.60   -18200.00
03094               0.40   -18000.00
03095              -1.40   -17800.00
03096              -0.60   -17800.00
03097              -0.20   -17600.00
03098              -0.40   -17400.00
03099              -0.40   -17400.00
03100              -0.60   -17200.00
03101               0.20   -17200.00
03102              -1.00   -16800.00
03103              -1.40   -16800.00
03104               0.80   -16400.00
03105              -1.00   -16400.00
03106              -2.00   -16200.00
03107               0.20   -16000.00
03108              -0.20   -15800.00
03109              -2.00   -15600.00
03110              -0.60   -15200.00
03111               0.40   -15200.00
03112              -1.20   -14800.00
03113              -0.40   -14600.00
03114               0.40   -14400.00
03115              -1.20   -14200.00
03116              -0.80   -13800.00
03117               0.40   -13600.00
03118              -0.60   -13400.00
03119              -1.20   -13200.00
03120              -0.40   -12800.00
03121              -0.40   -12600.00
03122              -1.00   -12400.00
03123              -0.40   -12000.00
03124              -0.60   -11600.00
03125              -1.20   -11400.00
03126               0.20   -11000.00
03127               0.20   -10800.00
03128              -0.60   -10600.00
03129              -0.40   -10400.00
03130              -0.20   -10000.00
03131               0.00    -9800.00
03132              -0.60    -9200.00
03133              -0.80    -9000.00
03134              -0.20    -8800.00
03135              -0.60    -8400.00
03136              -0.60    -8200.00
03137               0.20    -7800.00
03138              -1.20    -7400.00
03139              -0.60    -7200.00
03140               1.40    -6800.00
03141              -1.40    -6400.00
03142              -1.20    -6000.00
03143               1.40    -5600.00
03144              -1.40    -5200.00
03145              -1.20    -5000.00
03146               1.40    -4400.00
03147              -2.80    -4200.00
03148               0.60    -4000.00
03149               0.40    -3600.00
03150              -1.40    -3400.00
03151               0.20    -2800.00
03152               0.00    -2600.00
03153              -1.20    -2200.00
03154              -0.60    -2000.00
03155               0.40    -1600.00
03156              -1.60    -1200.00
03157              -0.40     -800.00
03158               0.40     -400.00
03159              -1.40        0.00
03160               1.00      400.00
03161               1.00      600.00
03162               2.40      800.00
03163              -1.20     1200.00
03164              -1.60     1400.00
03165               2.60     2000.00
03166               1.00     2000.00
03167              -2.60     2200.00
03168               7.00     2800.00
03169              22.40     3600.00
03170               2.80     4000.00
03171             -25.00     4400.00
03172              -5.40     4600.00
03173              25.00     4800.00
03174             -22.80     5000.00
03175             -25.00     5400.00
03176              25.00     6000.00
03177               9.80     6000.00
03178             -25.00     6400.00
03179              25.00     6800.00
03180              15.40     6800.00
03181             -25.00     7800.00
03182              10.00     7600.00
03183              23.60     8200.00
03184               0.20     8400.00
03185             -25.00     8600.00
03186              25.00     9200.00
03187              25.00     9200.00
03188             -25.00     9800.00
03189               3.40    10000.00
03190              25.00    10400.00
03191             -19.40    10800.00
03192             -23.80    10800.00
03193              25.00    11200.00
03194               2.60    11600.00
03195             -25.00    12000.00
03196              15.80    12000.00
03197              14.60    12400.00
03198             -18.80    12800.00
03199              -5.00    12800.00
03200              21.20    13200.00
03201              -5.40    13400.00
03202             -15.00    13800.00
03203              11.80    13600.00
03204               4.80    14400.00
03205             -13.60    14400.00
03206               1.60    14800.00
03207              13.40    15000.00
03208              -8.40    15000.00
03209              -5.20    15400.00
03210               9.20    15600.00
03211              -1.40    15800.00
03212              -8.00    16000.00
03213               4.20    16200.00
03214               5.00    16400.00
03215              -6.00    16400.00
03216              -1.00    16800.00
03217               5.20    16800.00
03218              -3.00    17000.00
03219              -4.80    17200.00
03220               4.40    17400.00
03221               1.60    17400.00
03222              -4.20    17600.00
03223               1.00    17800.00
03224               3.80    18000.00
03225              -3.60    18200.00
03226              -2.80    18200.00
03227               4.20    18400.00
03228              -2.20    18400.00
03229              -2.80    18400.00
03230               3.60    18400.00
03231              -0.40    18600.00
03232              -2.80    18800.00
03233               1.00    18800.00
03234               1.00    18800.00
03235              -1.80    19000.00
03236              -0.60    19000.00
03237               1.00    19000.00
03238              -0.60    19000.00
03239              -1.00    19000.00
03240              -0.40    19200.00
03241              -0.20    19000.00
03242              -0.60    19000.00
03243              -1.00    19000.00
03244               0.60    19200.00
03245               0.20    19200.00
03246              -0.80    19200.00
03247               0.20    19000.00
03248               0.20    19200.00
03249              -0.60    18800.00
03250              -1.00    19000.00
03251               0.60    19000.00
03252               0.20    18800.00
03253              -1.00    18800.00
03254               0.20    18800.00
03255               0.00    18800.00
03256              -1.00    18400.00
03257              -0.20    18400.00
03258               0.20    18400.00
03259              -0.40    18200.00
03260              -0.40    18000.00
03261               0.20    18000.00
03262               0.20    18000.00
03263              -0.60    17600.00
03264              -0.20    17600.00
03265               0.40    17400.00
03266              -1.00    17200.00
03267              -0.40    17200.00
03268               0.20    16800.00
03269              -0.60    16800.00
03270              -0.20    16600.00
03271               0.00    16400.00
03272              -0.40    16400.00
03273              -0.20    16000.00
03274              -0.20    15800.00
03275              -0.20    15800.00
03276               0.00    15400.00
03277              -0.20    15200.00
03278              -0.80    15000.00
03279              -0.20    14800.00
03280              -0.20    14600.00
03281              -1.20    14200.00
03282              -0.60    14200.00
03283              -0.20    13600.00
03284              -0.40    13600.00
03285              -0.40    13200.00
03286              -0.20    13000.00
03287              -0.20    12800.00
03288              -0.40    12400.00
03289              -0.20    12400.00
03290              -0.40    12000.00
03291              -0.60    11800.00
03292              -0.60    11200.00
03293              -0.40    11000.00
03294              -0.60    10800.00
03295              -1.00    10400.00
03296              -0.40    10200.00
03297              -0.40    10000.00
03298              -0.60     9600.00
03299              -0.20     9200.00
03300              -0.20     8800.00
03301              -0.60     8600.00
03302              -0.40     8400.00
03303              -0.20     8000.00
03304              -0.40     7600.00
03305              -0.60     7400.00
03306              -0.60     7000.00
03307              -0.40     6800.00
03308              -0.60     6400.00
03309              -0.40     6000.00
03310              -0.40     5600.00
03311              -0.60     5400.00
03312              -0.40     4800.00
03313              -0.20     4600.00
03314              -0.60     4000.00
03315              -0.60     3800.00
03316              -0.20     3600.00
03317              -0.60     3200.00
03318              -0.40     2800.00
03319              -0.20     2400.00
03320              -0.40     2400.00
03321              -0.40     1800.00
03322              -0.40     1400.00
03323              -0.40     1200.00
03324              -0.40      600.00
03325              -0.40      400.00
03326               0.20        0.00
03327               0.20     -400.00
03328               1.00     -800.00
03329               2.80     -800.00
03330              -2.20    -1400.00
03331              -1.40    -1600.00
03332               2.00    -1800.00
03333               0.60    -2200.00
03334               0.40    -2600.00
03335              18.60    -2800.00
03336              25.00    -4000.00
03337             -25.00    -4200.00
03338             -23.80    -4400.00
03339              25.00    -4800.00
03340             -12.60    -4800.00
03341             -25.00    -4600.00
03342              25.00    -5800.00
03343             -25.00    -5600.00
03344             -25.00    -6000.00
03345              25.00    -6800.00
03346             -25.00    -6600.00
03347              -7.80    -7600.00
03348               1.20    -7400.00
03349               3.80    -7800.00
03350              25.00    -8400.00
03351             -25.00    -8200.00
03352              25.00    -9000.00
03353              23.60    -9000.00
03354             -25.00    -9600.00
03355               8.00    -9800.00
03356              25.00   -10000.00
03357             -11.60   -10400.00
03358             -25.00   -10600.00
03359              25.00   -11000.00
03360              -5.20   -11400.00
03361             -25.00   -11600.00
03362              19.80   -12000.00
03363               6.60   -12200.00
03364             -14.60   -12400.00
03365              -6.20   -12800.00
03366              20.60   -13200.00
03367              -6.20   -13200.00
03368             -11.60   -13600.00
03369               7.60   -13800.00
03370               6.60   -14200.00
03371             -13.80   -14200.00
03372              -1.80   -14600.00
03373              16.40   -14600.00
03374              -8.60   -14800.00
03375              -6.60   -15200.00
03376               6.60   -15400.00
03377               3.60   -15600.00
03378             -10.20   -16000.00
03379               0.20   -16200.00
03380               9.80   -16400.00
03381              -5.20   -16400.00
03382              -4.60   -16800.00
03383               8.20   -16800.00
03384              -2.20   -17000.00
03385              -7.80   -17200.00
03386               5.40   -17600.00
03387               2.00   -17200.00
03388              -5.40   -17600.00
03389               0.40   -17600.00
03390               5.20   -18000.00
03391              -5.20   -17800.00
03392              -2.20   -18000.00
03393               6.00   -18400.00
03394              -4.40   -18400.00
03395              -2.00   -18400.00
03396               4.20   -18600.00
03397              -0.60   -18600.00
03398              -3.60   -18800.00
03399               0.40   -18800.00
03400               1.80   -19000.00
03401              -2.80   -18800.00
03402              -0.60   -19200.00
03403               2.00   -19200.00
03404              -1.20   -19200.00
03405              -1.60   -19200.00
03406               0.60   -19200.00
03407               0.20   -19200.00
03408              -1.40   -19200.00
03409              -1.20   -19200.00
03410               2.60   -19200.00
03411              -0.40   -19200.00
03412              -3.40   -19200.00
03413               1.00   -19000.00
03414               1.40   -19200.00
03415              -3.60   -19200.00
03416              -1.40   -19000.00
03417               2.60   -19000.00
03418              -1.80   -19000.00
03419              -2.00   -18800.00
03420               2.20   -18800.00
03421              -1.20   -18800.00
03422              -2.80   -18600.00
03423               1.00   -18600.00
03424               0.40   -18400.00
03425              -1.40   -18400.00
03426              -0.80   -18200.00
03427               1.20   -18000.00
03428              -0.60   -18000.00
03429              -2.00   -18000.00
03430              -0.40   -17600.00
03431              -0.40   -17400.00
03432              -0.80   -17400.00
03433              -0.20   -17200.00
03434               0.40   -17200.00
03435              -0.40   -17000.00
03436              -1.00   -16800.00
03437               0.20   -16600.00
03438              -0.40   -16400.00
03439              -1.40   -16200.00
03440              -0.20   -16000.00
03441               0.20   -15800.00
03442              -0.20   -15600.00
03443              -0.60   -15600.00
03444              -1.20   -15200.00
03445              -0.40   -15000.00
03446              -0.60   -14600.00
03447              -0.20   -14600.00
03448               0.40   -14400.00
03449              -0.60   -14000.00
03450              -0.40   -13800.00
03451              -0.40   -13600.00
03452              -0.80   -13400.00
03453              -0.60   -13000.00
03454              -0.40   -12600.00
03455              -0.20   -12400.00
03456              -0.40   -12200.00
03457              -0.60   -12000.00
03458              -0.80   -11800.00
03459              -0.20   -11400.00
03460              -0.20   -10800.00
03461              -0.80   -10800.00
03462               0.00   -10400.00
03463               0.00   -10000.00
03464              -0.60    -9800.00
03465               0.20    -9600.00
03466              -0.60    -9200.00
03467              -1.00    -8800.00
03468              -0.40    -8400.00
03469              -0.20    -8400.00
03470              -0.60    -8000.00
03471              -0.60    -7600.00
03472              -0.60    -7400.00
03473              -0.40    -7000.00
03474              -0.40    -6600.00
03475               0.00    -6400.00
03476              -0.60    -6000.00
03477              -0.40    -5600.00
03478              -0.40    -5400.00
03479              -0.60    -4800.00
03480              -1.20    -4600.00
03481              -0.60    -4200.00
03482              -0.40    -4000.00
03483              -0.60    -3600.00
03484              -0.40    -3200.00
03485              -0.20    -2800.00
03486              -0.40    -2600.00
03487              -0.60    -2000.00
03488              -0.20    -1800.00
03489              -0.80    -1600.00
03490              -1.20    -1000.00
03491              -0.20     -600.00
03492               0.20     -400.00
03493               0.20        0.00
03494              -0.40      400.00
03495               2.20      800.00
03496               0.80      800.00
03497              -3.00     1200.00
03498               0.20     1600.00
03499               2.80     2000.00
03500               0.20     2200.00
03501               0.40     2400.00
03502              11.40     3000.00
03503              25.00     3800.00
03504             -15.80     4000.00
03505             -25.00     4600.00
03506              13.20     4600.00
03507              25.00     5200.00
03508             -25.00     5000.00
03509             -14.60     5600.00
03510              25.00     6200.00
03511             -25.00     6000.00
03512             -25.00     6800.00
03513              25.00     6800.00
03514             -24.60     7200.00
03515             -25.00     7600.00
03516              19.00     7800.00
03517              20.20     8200.00
03518             -15.00     8600.00
03519             -25.00     8800.00
03520              25.00     9200.00
03521               4.00     9400.00
03522             -25.00     9600.00
03523              22.80    10000.00
03524              23.00    10400.00
03525             -25.00    10800.00
03526              -7.40    11000.00
03527              25.00    11200.00
03528             -18.00    11600.00
03529             -18.60    12000.00
03530              24.60    12400.00
03531               4.00    12600.00
03532             -19.60    12800.00
03533               4.40    13000.00
03534              16.20    13200.00
03535             -15.00    13400.00
03536              -6.60    13600.00
03537              13.20    14000.00
03538              -0.80    14400.00
03539             -10.80    14600.00
03540               8.40    14800.00
03541               8.20    14800.00
03542             -12.40    15200.00
03543              -0.60    15200.00
03544               6.80    15800.00
03545              -4.60    15800.00
03546              -5.40    16000.00
03547               7.20    16200.00
03548               2.60    16400.00
03549              -6.20    16600.00
03550               2.00    16800.00
03551               4.20    16800.00
03552              -6.20    17200.00
03553              -2.80    17200.00
03554               5.80    17400.00
03555              -1.60    17400.00
03556              -3.40    17600.00
03557               3.60    17800.00
03558               2.00    18000.00
03559              -4.60    18000.00
03560              -0.20    18200.00
03561               3.40    18400.00
03562              -3.60    18400.00
03563              -1.40    18600.00
03564               3.00    18600.00
03565              -1.00    18800.00
03566              -2.20    18800.00
03567               1.40    18800.00
03568               1.40    19000.00
03569              -2.00    18800.00
03570              -0.80    19000.00
03571               1.80    19000.00
03572              -1.20    19000.00
03573              -2.20    19200.00
03574               0.80    19000.00
03575               0.40    19200.00
03576              -1.40    19000.00
03577               0.20    19200.00
03578               1.40    19000.00
03579              -1.40    19200.00
03580              -0.80    19000.00
03581               1.00    19200.00
03582              -0.60    19000.00
03583              -0.40    19000.00
03584               0.40    19000.00
03585               0.40    18800.00
03586              -0.40    18800.00
03587              -0.60    18800.00
03588              -0.60    18600.00
03589              -0.60    18600.00
03590              -0.60    18400.00
03591              -0.20    18400.00
03592               0.40    18200.00
03593               0.60    18200.00
03594              -0.40    18200.00
03595               0.40    17800.00
03596              -0.40    17600.00
03597              -1.20    17600.00
03598              -0.40    17600.00
03599               0.40    17400.00
03600              -0.40    17200.00
03601               0.60    17200.00
03602              -0.20    16800.00
03603              -0.40    16800.00
03604              -0.60    16600.00
03605              -0.60    16400.00
03606              -0.60    16200.00
03607              -0.20    16000.00
03608              -0.40    15800.00
03609               0.40    15600.00
03610              -0.40    15400.00
03611              -0.40    15000.00
03612              -0.20    14800.00
03613              -0.60    14800.00
03614              -0.60    14400.00
03615              -0.60    14200.00
03616              -0.60    14000.00
03617              -0.40    13600.00
03618              -0.40    13600.00
03619              -0.20    13200.00
03620              -0.20    13000.00
03621              -0.60    12600.00
03622              -0.60    12400.00
03623               0.20    12200.00
03624              -0.80    11800.00
03625              -0.60    11600.00
03626               0.20    11200.00
03627              -0.60    11000.00
03628              -0.60    10800.00
03629              -0.80    10400.00
03630              -0.60    10200.00
03631              -0.60     9600.00
03632              -0.60     9400.00
03633              -0.20     9200.00
03634              -0.60     8800.00
03635              -0.60     8600.00
03636              -0.20     8200.00
03637              -0.40     8000.00
03638              -0.60     7600.00
03639              -0.40     7200.00
03640              -0.40     6800.00
03641              -0.60     6400.00
03642              -1.00     6200.00
03643              -0.20     6000.00
03644              -0.60     5600.00
03645              -0.60     5200.00
03646              -0.20     4800.00
03647               0.20     4400.00
03648              -0.60     4000.00
03649              -0.20     3800.00
03650              -0.40     3400.00
03651              -0.40     3000.00
03652              -0.80     2800.00
03653              -0.40     2400.00
03654              -0.20     2000.00
03655              -0.60     1800.00
03656              -0.40     1400.00
03657              -0.20      800.00
03658              -0.40      600.00
03659              -0.20      400.00
03660               0.20        0.00
03661               0.60     -400.00
03662               1.00     -800.00
03663               3.20    -1200.00
03664              -2.60    -1600.00
03665              -1.40    -1800.00
03666               2.80    -1800.00
03667              -1.20    -2400.00
03668               2.20    -2600.00
03669              25.00    -3200.00
03670               4.60    -4000.00
03671             -25.00    -4400.00
03672               3.20    -4800.00
03673              25.00    -4800.00
03674             -25.00    -4800.00
03675              -3.80    -4600.00
03676              25.00    -5800.00
03677             -25.00    -5400.00
03678              13.00    -6400.00
03679              25.00    -6600.00
03680             -25.00    -6600.00
03681              11.80    -7600.00
03682              -9.00    -7400.00
03683              20.60    -8200.00
03684               0.60    -8400.00
03685             -25.00    -8400.00
03686              25.00    -9200.00
03687              -9.20    -9000.00
03688             -25.00    -9800.00
03689              20.20    -9800.00
03690              18.20   -10000.00
03691             -25.00   -10600.00
03692              -7.40   -10600.00
03693              25.00   -11200.00
03694             -25.00   -11200.00
03695             -13.40   -12000.00
03696              21.40   -12000.00
03697              -2.00   -12400.00
03698             -15.60   -12600.00
03699               4.20   -12800.00
03700              18.00   -13200.00
03701             -13.40   -13400.00
03702              -4.60   -13600.00
03703               9.00   -13800.00
03704               1.40   -14200.00
03705             -15.20   -14400.00
03706               7.80   -14600.00
03707              10.20   -14800.00
03708             -11.80   -15000.00
03709              -0.40   -15400.00
03710               6.60   -15400.00
03711              -2.80   -15800.00
03712              -8.60   -16000.00
03713               7.00   -16200.00
03714               3.00   -16200.00
03715              -7.60   -16400.00
03716               2.00   -16600.00
03717               6.00   -17000.00
03718              -7.40   -17000.00
03719              -2.20   -17200.00
03720               6.00   -17400.00
03721              -1.20   -17600.00
03722              -3.60   -17600.00
03723               2.20   -17600.00
03724               2.80   -18000.00
03725              -5.40   -18000.00
03726               0.20   -18000.00
03727               3.80   -18400.00
03728              -4.20   -18200.00
03729               0.00   -18400.00
03730               3.00   -18600.00
03731              -0.80   -18800.00
03732              -3.20   -18600.00
03733               1.00   -18800.00
03734               1.40   -19000.00
03735              -3.00   -19200.00
03736              -0.40   -19000.00
03737               1.40   -19200.00
03738              -1.80   -19200.00
03739              -1.20   -19200.00
03740               0.60   -19200.00
03741              -0.40   -19200.00
03742              -2.20   -19200.00
03743               0.40   -19200.00
03744               1.20   -19400.00
03745              -2.00   -19200.00
03746              -0.60   -19200.00
03747               0.40   -19200.00
03748              -0.60   -19200.00
03749              -1.20   -19200.00
03750              -0.60   -19200.00
03751               0.40   -19000.00
03752              -1.00   -19000.00
03753              -0.60   -18800.00
03754               0.40   -18800.00
03755              -1.00   -18800.00
03756              -1.00   -18600.00
03757               0.20   -18400.00
03758              -0.20   -18400.00
03759              -1.20   -18400.00
03760              -1.00   -18000.00
03761               0.60   -18200.00
03762              -1.00   -18000.00
03763              -1.20   -17800.00
03764               0.20   -17600.00
03765              -0.40   -17600.00
03766              -0.60   -17400.00
03767              -0.20   -17200.00
03768              -0.40   -17200.00
03769              -0.60   -17000.00
03770              -0.60   -16800.00
03771               0.00   -16600.00
03772              -0.60   -16400.00
03773              -1.20   -16200.00
03774               0.00   -16000.00
03775              -0.20   -16000.00
03776              -0.40   -15400.00
03777              -0.60   -15200.00
03778              -0.60   -15200.00
03779              -0.20   -14800.00
03780              -0.40   -14800.00
03781               0.20   -14400.00
03782              -0.40   -14200.00
03783              -0.60   -13800.00
03784               0.00   -13800.00
03785              -0.60   -13600.00
03786              -0.60   -13200.00
03787              -0.60   -13000.00
03788              -0.40   -12800.00
03789              -0.60   -12400.00
03790              -0.60   -12000.00
03791              -0.40   -11800.00
03792              -0.60   -11600.00
03793              -0.20   -11200.00
03794              -0.20   -11000.00
03795              -0.40   -10600.00
03796              -0.20   -10400.00
03797              -0.60   -10000.00
03798              -0.40    -9800.00
03799              -0.20    -9600.00
03800              -1.00    -9200.00
03801              -1.20    -8800.00
03802              -0.20    -8600.00
03803              -0.60    -8200.00
03804              -1.40    -8000.00
03805              -0.60    -7400.00
03806               0.20    -7200.00
03807              -0.60    -6800.00
03808              -1.20    -6400.00
03809               0.60    -6200.00
03810              -0.40    -6000.00
03811              -1.40    -5600.00
03812              -1.00    -5200.00
03813               0.80    -4800.00
03814              -2.00    -4400.00
03815              -1.80    -4200.00
03816               1.40    -3600.00
03817              -1.20    -3400.00
03818              -2.20    -3200.00
03819               1.80    -2800.00
03820              -0.20    -2400.00
03821              -3.00    -2000.00
03822               0.40    -1800.00
03823               0.20    -1200.00
03824              -2.20     -800.00
03825               0.40     -400.00
03826               0.80     -200.00
03827              -0.60      200.00
03828               0.20      400.00
03829               3.60      600.00
03830              -1.00     1200.00
03831              -2.20     1400.00
03832               1.40     1800.00
03833               1.80     2000.00
03834              -1.40     2200.00
03835               2.60     2600.00
03836              14.60     3200.00
03837              22.60     4000.00
03838             -25.00     4400.00
03839             -25.00     4400.00
03840              25.00     4800.00
03841              11.80     4800.00
03842             -25.00     5000.00
03843              21.80     5800.00
03844              25.00     6000.00
03845             -25.00     6200.00
03846               9.00     6800.00
03847              25.00     6800.00
03848             -25.00     7200.00
03849             -13.40     7600.00
03850              23.60     7800.00
03851              15.80     8400.00
03852             -25.00     8600.00
03853              -9.20     9000.00
03854              25.00     9200.00
03855             -24.60     9400.00
03856             -25.00    10000.00
03857              25.00    10200.00
03858               5.80    10600.00
03859             -25.00    10800.00
03860              14.00    11000.00
03861              25.00    11400.00
03862             -25.00    11600.00
03863              -5.40    12000.00
03864              23.40    12400.00
03865              -7.60    12600.00
03866             -16.60    12800.00
03867              14.00    13200.00
03868              10.80    13400.00
03869             -18.60    13600.00
03870               2.00    13600.00
03871              11.80    14000.00
03872              -8.20    14400.00
03873              -9.00    14600.00
03874              13.20    14800.00
03875               2.60    15000.00
03876             -12.20    15200.00
03877               5.20    15400.00
03878               5.20    15600.00
03879              -8.20    16000.00
03880              -3.00    16000.00
03881               8.20    16400.00
03882              -1.80    16400.00
03883              -6.00    16600.00
03884               5.00    16800.00
03885               1.80    16800.00
03886              -7.40    17200.00
03887               1.00    17200.00
03888               5.80    17400.00
03889              -4.20    17600.00
03890              -2.20    17600.00
03891               4.40    17800.00
03892              -0.20    18000.00
03893              -5.40    18200.00
03894               2.20    18200.00
03895               2.00    18400.00
03896              -4.40    18400.00
03897               0.80    18600.00
03898               3.00    18800.00
03899              -2.40    18800.00
03900              -1.60    18800.00
03901               2.20    18800.00
03902               0.20    18800.00
03903              -2.20    19000.00
03904               0.80    19000.00
03905               1.80    19000.00
03906              -1.40    19200.00
03907              -0.60    19000.00
03908               0.40    19200.00
03909              -0.20    19200.00
03910              -1.40    19200.00
03911               0.20    19000.00
03912               1.00    19200.00
03913              -0.80    19000.00
03914              -0.80    19200.00
03915               1.20    19000.00
03916              -0.20    19000.00
03917              -1.00    19000.00
03918               0.20    19000.00
03919               0.40    18800.00
03920              -0.40    18800.00
03921              -0.60    18800.00
03922               0.20    18600.00
03923              -0.20    18400.00
03924              -0.60    18400.00
03925              -0.40    18400.00
03926               0.80    18200.00
03927              -0.60    18200.00
03928              -0.60    18000.00
03929               1.40    17800.00
03930              -0.60    17800.00
03931              -1.20    17600.00
03932               0.00    17400.00
03933              -0.40    17200.00
03934              -0.60    17200.00
03935               0.60    17000.00
03936              -0.60    16800.00
03937              -0.40    16600.00
03938              -0.40    16400.00
03939              -0.60    16400.00
03940              -0.60    16000.00
03941              -0.20    16000.00
03942              -0.40    15800.00
03943              -0.40    15600.00
03944              -0.60    15400.00
03945              -0.60    15200.00
03946              -0.40    14800.00
03947              -0.20    14600.00
03948              -0.40    14400.00
03949              -0.40    14200.00
03950              -0.60    14000.00
03951              -0.60    13600.00
03952              -0.40    13400.00
03953              -0.60    13200.00
03954              -0.40    12800.00
03955              -0.40    12600.00
03956              -0.40    12200.00
03957               0.00    12000.00
03958              -0.60    11800.00
03959              -0.60    11400.00
03960               0.00    11200.00
03961              -0.20    11000.00
03962              -0.60    10600.00
03963              -0.20    10400.00
03964              -0.40    10000.00
03965              -0.60     9600.00
03966              -0.40     9400.00
03967              -0.20     8800.00
03968              -0.40     8800.00
03969              -0.40     8400.00
03970              -0.20     8200.00
03971              -0.60     7800.00
03972              -0.40     7400.00
03973              -0.60     7200.00
03974              -0.40     6800.00
03975              -0.40     6400.00
03976              -0.60     6000.00
03977              -0.60     5800.00
03978              -0.40     5400.00
03979              -0.40     5200.00
03980              -0.40     4600.00
03981              -0.20     4400.00
03982              -0.40     4000.00
03983              -0.60     3800.00
03984              -0.40     3200.00
03985               0.20     3000.00
03986              -0.60     2600.00
03987              -0.40     2200.00
03988              -0.20     2000.00
03989              -0.60     1600.00
03990              -0.60     1200.00
03991              -0.60      800.00
03992              -0.20      600.00
03993               0.00        0.00
03994               0.20     -200.00
03995               0.20     -600.00
03996               3.40     -800.00
03997              -0.20    -1000.00
03998              -2.00    -1600.00
03999               0.60    -1800.00
04000               1.20    -2200.00
04001              -1.80    -2400.00
04002               7.80    -2800.00
04003              25.00    -3600.00
04004             -21.00    -4200.00
04005             -25.00    -4400.00
04006              23.00    -4400.00
04007              25.00    -4800.00
04008             -25.00    -4600.00
04009              25.00    -5200.00
04010              25.00    -6000.00
04011             -25.00    -5600.00
04012              25.00    -6600.00
04013              14.60    -6600.00
04014             -25.00    -7000.00
04015              17.00    -8000.00
04016             -11.60    -7400.00
04017              25.00    -8400.00
04018             -25.00    -8200.00
04019             -15.40    -8800.00
04020              25.00    -9200.00
04021             -25.00    -9200.00
04022             -17.00   -10000.00
04023              25.00   -10000.00
04024               9.00   -10400.00
04025             -25.00   -10800.00
04026              15.40   -10800.00
04027              25.00   -11200.00
04028             -25.00   -11400.00
04029               3.60   -12000.00
04030              17.40   -12200.00
04031              -8.60   -12400.00
04032             -15.40   -12800.00
04033              14.00   -13000.00
04034               9.80   -13000.00
04035             -16.60   -13400.00
04036               1.60   -13600.00
04037              10.00   -14000.00
04038              -4.80   -14200.00
04039             -13.20   -14400.00
04040              15.00   -14800.00
04041               2.00   -14800.00
04042             -10.80   -15200.00
04043               3.60   -15400.00
04044               5.40   -15600.00
04045              -6.20   -15800.00
04046              -5.40   -16000.00
04047              10.00   -16200.00
04048              -1.40   -16200.00
04049              -7.00   -16400.00
04050               6.00   -16800.00
04051               3.00   -16800.00
04052              -9.80   -17000.00
04053               2.00   -17200.00
04054               5.20   -17200.00
04055              -4.00   -17400.00
04056              -2.20   -17600.00
04057               4.60   -17800.00
04058              -0.40   -17800.00
04059              -6.00   -18000.00
04060               3.60   -18200.00
04061               1.00   -18400.00
04062              -4.60   -18400.00
04063               2.00   -18600.00
04064               2.00   -18600.00
04065              -2.60   -18800.00
04066              -2.60   -18800.00
04067               1.80   -18800.00
04068               0.20   -18800.00
04069              -3.00   -19000.00
04070               1.00   -19000.00
04071               1.00   -19200.00
04072              -2.00   -19200.00
04073              -0.60   -19200.00
04074               0.60   -19200.00
04075              -1.00   -19200.00
04076              -2.00   -19200.00
04077               1.40   -19200.00
04078               0.40   -19200.00
04079              -2.40   -19200.00
04080              -0.20   -19200.00
04081               0.20   -19200.00
04082              -1.00   -19000.00
04083              -1.20   -19200.00
04084              -0.20   -19200.00
04085               0.20   -19000.00
04086              -1.00   -19000.00
04087               0.20   -18800.00
04088              -0.40   -18800.00
04089              -0.60   -18800.00
04090              -0.20   -18400.00
04091              -0.40   -18600.00
04092              -0.20   -18400.00
04093              -1.00   -18200.00
04094              -0.60   -18000.00
04095               0.40   -18000.00
04096              -1.00   -18000.00
04097              -1.20   -17800.00
04098               0.20   -17600.00
04099              -0.40   -17400.00
04100              -0.40   -17400.00
04101              -0.20   -17000.00
04102              -0.40   -17000.00
04103              -0.60   -17000.00
04104              -0.60   -16600.00
04105               0.20   -16400.00
04106              -0.60   -16400.00
04107              -0.60   -16200.00
04108              -0.20   -16000.00
04109              -0.40   -15600.00
04110              -0.20   -15600.00
04111              -0.60   -15200.00
04112              -0.60   -15200.00
04113               0.40   -14800.00
04114              -0.40   -14800.00
04115              -0.20   -14400.00
04116              -0.20   -14000.00
04117              -0.60   -14000.00
04118              -0.40   -13600.00
04119               0.20   -13400.00
04120              -0.60   -13200.00
04121              -0.20   -12800.00
04122              -0.40   -12800.00
04123              -0.20   -12400.00
04124              -0.60   -12000.00
04125              -0.60   -11600.00
04126              -0.60   -11400.00
04127              -0.20   -11000.00
04128              -0.60   -10800.00
04129              -0.40   -10600.00
04130              -0.60   -10400.00
04131              -0.60   -10000.00
04132               0.00    -9600.00
04133              -0.60    -9400.00
04134              -1.00    -9000.00
04135              -1.00    -8800.00
04136              -0.40    -8400.00
04137              -0.60    -8000.00
04138              -1.00    -7800.00
04139              -0.60    -7400.00
04140              -0.40    -7200.00
04141              -0.60    -6800.00
04142              -0.60    -6400.00
04143              -0.60    -6000.00
04144              -0.40    -5800.00
04145               0.20    -5400.00
04146              -1.00    -5000.00
04147              -0.60    -4600.00
04148              -0.40    -4400.00
04149              -1.20    -4200.00
04150              -0.40    -3600.00
04151               0.00    -3200.00
04152              -1.20    -3000.00
04153              -0.20    -2800.00
04154              -0.40    -2200.00
04155              -1.00    -2000.00
04156              -0.20    -1600.00
04157              -0.40    -1200.00
04158              -0.60     -800.00
04159               0.00     -400.00
04160               0.20        0.00
04161              -0.60      200.00
04162               1.00      600.00
04163               3.80      800.00
04164              -2.00     1200.00
04165              -1.20     1400.00
04166               2.00     1800.00
04167               1.00     2200.00
04168              -2.00     2400.00
04169               5.20     2800.00
04170              20.20     3600.00
04171              12.20     4000.00
04172             -25.00     4400.00
04173             -15.60     4600.00
04174              25.00     4800.00
04175             -11.00     4800.00
04176             -25.00     5200.00
04177              25.00     6000.00
04178              25.00     6000.00
04179             -25.00     6400.00
04180              25.00     6800.00
04181              25.00     6800.00
04182             -25.00     7600.00
04183               3.40     7600.00
04184              24.20     8200.00
04185               6.40     8600.00
04186             -25.00     8600.00
04187              14.80     9000.00
04188              25.00     9200.00
04189             -25.00     9600.00
04190              -8.20     9800.00
04191              25.00    10200.00
04192             -11.40    10600.00
04193             -25.00    10800.00
04194              25.00    11200.00
04195              13.40    11200.00
04196             -25.00    11800.00
04197               9.20    12000.00
04198              18.80    12400.00
04199             -15.80    12600.00
04200              -9.80    12800.00
04201              20.20    13000.00
04202              -0.20    13200.00
04203             -17.80    13600.00
04204               9.20    14000.00
04205               7.60    14200.00
04206             -12.40    14400.00
04207              -2.60    14800.00
04208              14.60    14800.00
04209              -4.40    15000.00
04210              -8.80    15200.00
04211               8.40    15600.00
04212               1.20    15800.00
04213              -9.00    16000.00
04214               1.40    16000.00
04215               7.60    16400.00
04216              -5.20    16600.00
04217              -3.00    16800.00
04218               6.20    17000.00
04219              -1.80    17200.00
04220              -6.20    17200.00
04221               4.20    17200.00
04222               2.80    17400.00
04223              -5.00    17600.00
04224               0.80    17600.00
04225               4.20    18000.00
04226              -2.80    18000.00
04227              -3.80    18000.00
04228               4.20    18400.00
04229              -0.40    18200.00
04230              -3.80    18400.00
04231               3.00    18600.00
04232               1.20    18800.00
04233              -3.00    18800.00
04234              -0.20    19000.00
04235               2.00    18800.00
04236              -1.00    19000.00
04237              -1.40    19000.00
04238               1.40    19000.00
04239               1.00    19200.00
04240              -2.00    19000.00
04241              -0.40    19000.00
04242               1.80    19000.00
04243              -1.00    19200.00
04244              -1.80    19200.00
04245               2.20    19200.00
04246               0.20    19000.00
04247              -2.60    19200.00
04248               1.40    19000.00
04249               1.20    19200.00
04250              -2.00    19000.00
04251               0.20    19000.00
04252               1.40    19000.00
04253              -1.00    19000.00
04254              -0.80    18800.00
04255               1.00    18800.00
04256              -0.60    18600.00
04257              -1.00    18400.00
04258               0.40    18400.00
04259              -0.40    18200.00
04260              -0.60    18200.00
04261               0.20    18000.00
04262              -0.40    18000.00
04263               0.20    17800.00
04264              -0.60    17600.00
04265              -0.20    17600.00
04266              -0.20    17400.00
04267              -0.60    17400.00
04268              -1.00    17200.00
04269              -0.40    17000.00
04270              -0.40    16800.00
04271              -0.60    16600.00
04272              -0.40    16600.00
04273               0.20    16400.00
04274              -0.40    16000.00
04275              -0.40    15800.00
04276               0.00    15600.00
04277              -0.20    15600.00
04278              -0.60    15200.00
04279              -0.40    15000.00
04280              -0.40    14800.00
04281              -0.40    14600.00
04282              -0.60    14200.00
04283              -0.60    14000.00
04284              -0.60    13800.00
04285              -0.60    13600.00
04286              -0.20    13400.00
04287               0.20    13200.00
04288              -0.60    12800.00
04289               0.20    12600.00
04290               0.20    12400.00
04291              -0.60    12000.00
04292              -0.40    11800.00
04293               0.20    11600.00
04294              -1.20    11200.00
04295              -0.40    10800.00
04296               0.20    10600.00
04297              -0.60    10200.00
04298              -0.40     9800.00
04299               0.00     9600.00
04300               0.20     9400.00
04301              -0.80     8800.00
04302              -0.40     8800.00
04303               0.40     8400.00
04304              -0.40     8000.00
04305              -0.60     7800.00
04306              -0.20     7400.00
04307              -0.20     7200.00
04308              -0.60     6800.00
04309              -0.40     6400.00
04310              -0.40     6000.00
04311              -0.60     5600.00
04312              -0.40     5400.00
04313               0.20     5000.00
04314              -0.60     4600.00
04315              -0.60     4400.00
04316              -0.20     3800.00
04317               0.20     3400.00
04318              -0.60     3200.00
04319              -0.60     2800.00
04320              -0.20     2600.00
04321              -0.60     2200.00
04322              -0.60     1800.00
04323              -0.20     1400.00
04324              -0.60     1000.00
04325              -0.60      600.00
04326              -0.20      400.00
04327              -0.60        0.00
04328              -0.20     -200.00
04329               0.80     -800.00
04330               3.00    -1000.00
04331              -2.20    -1200.00
04332              -1.80    -1600.00
04333               2.00    -2000.00
04334               0.60    -2200.00
04335              -1.20    -2400.00
04336              14.60    -2800.00
04337              25.00    -4000.00
04338             -25.00    -4200.00
04339             -25.00    -4400.00
04340              25.00    -4800.00
04341               1.00    -4800.00
04342             -25.00    -4600.00
04343              25.00    -5600.00
04344              -2.20    -5800.00
04345             -25.00    -6000.00
04346              25.00    -6800.00
04347             -25.00    -6600.00
04348             -20.60    -7200.00
04349               8.20    -7600.00
04350              -2.80    -7400.00
04351              25.00    -8400.00
04352             -25.00    -8200.00
04353              18.60    -9000.00
04354              25.00    -9000.00
04355             -25.00    -9200.00
04356               1.20    -9800.00
04357              25.00   -10000.00
04358              -4.60   -10400.00
04359             -25.00   -10400.00
04360              25.00   -11000.00
04361               7.40   -11200.00
04362             -25.00   -11600.00
04363              16.40   -12000.00
04364              10.60   -12000.00
04365             -12.60   -12400.00
04366             -10.00   -12800.00
04367              20.00   -13000.00
04368              -1.00   -13200.00
04369             -14.00   -13600.00
04370               6.20   -13800.00
04371               8.40   -14000.00
04372             -10.80   -14400.00
04373              -5.60   -14400.00
04374              16.40   -14600.00
04375              -6.20   -14800.00
04376              -6.80   -15200.00
04377               5.80   -15400.00
04378               2.60   -15600.00
04379              -8.60   -16000.00
04380               0.20   -16000.00
04381               8.60   -16200.00
04382              -5.20   -16200.00
04383              -3.80   -16800.00
04384               7.20   -16800.00
04385              -1.80   -16800.00
04386              -7.80   -17000.00
04387               5.00   -17400.00
04388               2.00   -17200.00
04389              -4.40   -17600.00
04390              -0.40   -17600.00
04391               4.20   -17800.00
04392              -3.00   -18000.00
04393              -4.20   -18200.00
04394               4.60   -18200.00
04395              -1.40   -18400.00
04396              -3.40   -18400.00
04397               2.60   -18600.00
04398               1.00   -18800.00
04399              -3.00   -18800.00
04400              -1.20   -18800.00
04401               2.20   -18800.00
04402              -1.40   -18800.00
04403              -2.60   -18800.00
04404               1.80   -19000.00
04405              -0.20   -19000.00
04406              -2.20   -19200.00
04407              -0.20   -19200.00
04408               0.60   -19000.00
04409              -1.20   -19200.00
04410              -2.00   -19200.00
04411               2.00   -19200.00
04412              -0.60   -19200.00
04413              -2.40   -19200.00
04414               0.40   -19200.00
04415               0.40   -19200.00
04416              -1.20   -19000.00
04417              -1.20   -18800.00
04418               0.20   -19200.00
04419              -0.20   -19000.00
04420              -1.20   -18800.00
04421               0.20   -18800.00
04422              -0.20   -18800.00
04423              -1.00   -18800.00
04424              -0.40   -18400.00
04425               0.40   -18400.00
04426              -0.20   -18400.00
04427              -1.40   -18200.00
04428               0.20   -18200.00
04429               0.60   -18000.00
04430              -1.40   -18000.00
04431              -0.40   -17600.00
04432              -0.60   -17600.00
04433              -1.20   -17400.00
04434               1.00   -17200.00
04435               0.60   -17200.00
04436              -1.20   -17000.00
04437              -0.40   -16800.00
04438               0.20   -16800.00
04439              -1.20   -16400.00
04440              -0.80   -16200.00
04441               0.40   -16200.00
04442               0.20   -16000.00
04443              -0.60   -15600.00
04444              -0.20   -15400.00
04445              -0.40   -15400.00
04446              -0.60   -15000.00
04447              -0.60   -14800.00
04448               0.20   -14600.00
04449               1.00   -14400.00
04450              -0.60   -14000.00
04451              -1.40   -13800.00
04452              -0.60   -13600.00
04453              -0.20   -13400.00
04454              -1.20   -13000.00
04455              -0.40   -12800.00
04456               1.00   -12800.00
04457              -0.80   -12400.00
04458              -1.40   -12000.00
04459              -0.40   -12000.00
04460              -0.40   -11200.00
04461              -0.60   -11000.00
04462              -0.40   -10800.00
04463               0.20   -10600.00
04464              -0.60   -10000.00
04465              -0.80    -9800.00
04466              -0.20    -9600.00
04467              -0.60    -9400.00
04468              -0.80    -9000.00
04469              -0.60    -8800.00
04470              -0.60    -8400.00
04471              -0.40    -8000.00
04472              -1.00    -7800.00
04473              -0.60    -7400.00
04474              -0.40    -7200.00
04475              -0.40    -6800.00
04476              -0.60    -6400.00
04477              -0.60    -6000.00
04478               0.20    -5800.00
04479              -0.60    -5200.00
04480              -0.60    -5000.00
04481              -0.40    -4600.00
04482              -1.00    -4200.00
04483              -1.00    -4000.00
04484               0.00    -3600.00
04485              -0.60    -3200.00
04486              -1.00    -3000.00
04487               0.20    -2600.00
04488              -0.40    -2200.00
04489              -0.40    -1800.00
04490              -0.40    -1600.00
04491              -0.60    -1000.00
04492              -0.40     -800.00
04493               0.40     -200.00
04494               0.20        0.00
04495              -0.60      400.00
04496               1.80      600.00
04497               2.20      800.00
04498              -2.20     1200.00
04499               0.20     1600.00
04500               2.20     2000.00
04501               0.20     2000.00
04502              -0.60     2400.00
04503               8.20     3000.00
04504              23.40     3800.00
04505              -5.80     4000.00
04506             -25.00     4400.00
04507               5.40     4800.00
04508              25.00     5000.00
04509             -25.00     5000.00
04510             -25.00     5400.00
04511              25.00     6000.00
04512             -16.60     6000.00
04513             -25.00     6800.00
04514              25.00     6800.00
04515              -5.40     6800.00
04516             -25.00     7800.00
04517              16.40     7800.00
04518              23.00     8200.00
04519              -7.20     8600.00
04520             -25.00     8800.00
04521              25.00     9200.00
04522              15.80     9200.00
04523             -25.00     9800.00
04524              13.80    10000.00
04525              25.00    10200.00
04526             -25.00    10800.00
04527             -15.00    10800.00
04528              25.00    11200.00
04529              -8.60    11400.00
04530             -25.00    12000.00
04531              20.00    12000.00
04532               9.00    12400.00
04533             -19.60    12600.00
04534              -0.40    13000.00
04535              20.40    13200.00
04536             -10.20    13400.00
04537             -11.80    13800.00
04538              12.80    14000.00
04539               1.80    14400.00
04540             -13.80    14400.00
04541               4.40    14800.00
04542              12.20    15000.00
04543             -10.60    15200.00
04544              -3.40    15400.00
04545               9.40    15600.00
04546              -3.00    15800.00
04547              -8.00    16200.00
04548               5.80    16400.00
04549               4.40    16400.00
04550              -6.80    16600.00
04551               0.40    16800.00
04552               6.20    17000.00
04553              -4.60    17000.00
04554              -4.00    17200.00
04555               6.20    17400.00
04556              -0.20    17400.00
04557              -4.40    17800.00
04558               2.60    17800.00
04559               3.40    18000.00
04560              -4.40    18200.00
04561              -1.60    18200.00
04562               4.60    18200.00
04563              -2.60    18400.00
04564              -2.20    18600.00
04565               3.60    18400.00
04566              -0.20    18800.00
04567              -3.00    18800.00
04568               1.00    18800.00
04569               2.00    18800.00
04570              -2.00    19000.00
04571              -1.20    19000.00
04572               2.60    19000.00
04573              -0.40    19000.00
04574              -2.20    19200.00
04575               0.60    19000.00
04576               0.60    19000.00
04577              -1.80    19000.00
04578              -0.20    19000.00
04579               1.80    19200.00
04580              -0.60    19200.00
04581              -1.00    19000.00
04582               1.20    19000.00
04583              -0.40    19000.00
04584              -1.40    18800.00
04585               0.20    18800.00
04586               0.20    18800.00
04587              -0.60    18800.00
04588              -0.40    18800.00
04589              -0.20    18800.00
04590              -0.20    18600.00
04591              -0.60    18400.00
04592              -0.40    18400.00
04593              -0.20    18200.00
04594              -0.20    18200.00
04595              -0.60    18000.00
04596               0.20    18000.00
04597               0.60    18000.00
04598              -0.60    17600.00
04599               0.00    17400.00
04600              -0.20    17400.00
04601              -1.00    17200.00
04602              -0.60    17000.00
04603               0.40    16800.00
04604              -1.00    16800.00
04605              -0.40    16600.00
04606               0.40    16400.00
04607              -0.40    16200.00
04608              -0.60    16000.00
04609               0.20    15800.00
04610              -0.20    15600.00
04611              -0.20    15600.00
04612              -0.20    15200.00
04613              -0.40    14800.00
04614               0.40    14800.00
04615              -0.60    14400.00
04616              -0.60    14200.00
04617               0.40    14000.00
04618              -1.00    13600.00
04619              -0.40    13600.00
04620               0.60    13400.00
04621              -0.60    13200.00
04622              -0.60    12600.00
04623               1.00    12400.00
04624              -0.40    12200.00
04625              -1.20    11800.00
04626               0.40    11600.00
04627               0.20    11400.00
04628              -1.00    11000.00
04629               0.20    10800.00
04630              -0.20    10400.00
04631              -0.60    10200.00
04632              -0.20     9800.00
04633               0.00     9400.00
04634              -0.40     9200.00
04635              -0.20     8800.00
04636              -0.20     8600.00
04637              -0.40     8400.00
04638              -0.20     7800.00
04639              -0.40     7600.00
04640              -0.40     7200.00
04641              -0.40     6800.00
04642              -0.40     6600.00
04643              -0.60     6200.00
04644              -0.60     6000.00
04645              -0.40     5400.00
04646              -0.40     5200.00
04647              -0.20     4800.00
04648              -0.40     4400.00
04649              -0.40     4200.00
04650              -0.60     3800.00
04651              -0.40     3600.00
04652              -0.60     3200.00
04653              -0.20     2800.00
04654              -0.60     2400.00
04655              -0.60     2000.00
04656              -0.20     1800.00
04657              -0.60     1400.00
04658              -0.60     1000.00
04659              -0.40      600.00
04660              -0.40      400.00
04661              -0.20     -200.00
04662               0.20     -400.00
04663               1.60     -800.00
04664               2.00    -1000.00
04665              -2.40    -1400.00
04666              -1.20    -1600.00
04667               1.80    -2000.00
04668              -0.40    -2400.00
04669               1.80    -2600.00
04670              23.20    -3200.00
04671              16.40    -4000.00
04672             -25.00    -4400.00
04673              -9.80    -4400.00
04674              25.00    -4800.00
04675             -25.00    -4800.00
04676             -24.40    -4800.00
04677              25.00    -5800.00
04678             -25.00    -5600.00
04679             -11.20    -6400.00
04680              25.00    -6800.00
04681             -25.00    -6800.00
04682               3.60    -7600.00
04683              -4.60    -7400.00
04684              12.60    -8000.00
04685              14.80    -8400.00
04686             -25.00    -8200.00
04687              25.00    -9200.00
04688               7.20    -9000.00
04689             -25.00    -9600.00
04690              15.00   -10000.00
04691              22.20   -10000.00
04692             -19.60   -10600.00
04693             -18.00   -10600.00
04694              25.00   -11200.00
04695             -17.60   -11200.00
04696             -22.80   -11600.00
04697              22.40   -12200.00
04698               2.20   -12200.00
04699             -16.40   -12400.00
04700              -0.60   -12800.00
04701              21.20   -13000.00
04702             -10.80   -13200.00
04703              -8.20   -13600.00
04704               9.40   -13800.00
04705               3.80   -14200.00
04706             -15.40   -14400.00
04707               4.20   -14600.00
04708              14.00   -14800.00
04709             -11.80   -15000.00
04710              -2.20   -15200.00
04711               7.00   -15600.00
04712              -1.20   -16000.00
04713             -10.20   -16000.00
04714               6.00   -16200.00
04715               5.80   -16200.00
04716              -8.40   -16400.00
04717               0.20   -16800.00
04718               7.60   -17000.00
04719              -6.20   -17000.00
04720              -4.60   -17200.00
04721               6.60   -17400.00
04722              -0.60   -17600.00
04723              -4.60   -17600.00
04724               1.20   -17800.00
04725               3.80   -18000.00
04726              -5.40   -18000.00
04727              -1.80   -18000.00
04728               4.80   -18200.00
04729              -3.40   -18400.00
04730              -2.00   -18600.00
04731               2.60   -18600.00
04732               0.20   -18800.00
04733              -3.60   -18800.00
04734              -0.40   -18800.00
04735               2.20   -19000.00
04736              -2.20   -19000.00
04737              -1.80   -19000.00
04738               2.00   -19200.00
04739              -0.60   -19000.00
04740              -2.00   -19200.00
04741               0.40   -19200.00
04742               0.60   -19200.00
04743              -2.00   -19400.00
04744              -0.40   -19200.00
04745               1.40   -19200.00
04746              -1.20   -19200.00
04747              -1.20   -19200.00
04748               0.40   -19000.00
04749              -0.20   -19000.00
04750              -1.00   -19200.00
04751              -0.60   -19000.00
04752               0.20   -19200.00
04753              -0.20   -18800.00
04754              -0.60   -18800.00
04755               0.20   -18800.00
04756              -0.40   -18600.00
04757              -0.60   -18600.00
04758              -0.20   -18600.00
04759               0.20   -18600.00
04760              -0.60   -18400.00
04761              -1.00   -18000.00
04762               0.40   -18000.00
04763              -0.40   -18000.00
04764              -1.20   -17800.00
04765              -0.20   -17600.00
04766              -0.20   -17400.00
04767              -0.20   -17400.00
04768              -0.40   -17200.00
04769              -0.20   -17200.00
04770              -0.40   -17000.00
04771              -0.60   -16800.00
04772              -0.20   -16600.00
04773               0.00   -16400.00
04774              -0.60   -16200.00
04775              -0.20   -16200.00
04776              -0.40   -16000.00
04777              -0.40   -15600.00
04778              -1.00   -15400.00
04779              -0.60   -15200.00
04780               0.00   -15000.00
04781              -0.40   -14800.00
04782              -0.20   -14600.00
04783              -0.60   -14200.00
04784              -0.60   -14000.00
04785              -0.40   -13600.00
04786              -0.40   -13600.00
04787              -0.60   -13400.00
04788              -0.60   -13000.00
04789              -0.60   -12800.00
04790              -0.40   -12400.00
04791              -0.60   -12200.00
04792              -0.60   -12000.00
04793              -1.00   -11600.00
04794              -0.40   -11200.00
04795              -0.20   -11000.00
04796              -0.60   -10800.00
04797              -0.60   -10400.00
04798              -0.20   -10000.00
04799              -0.60    -9800.00
04800              -0.40    -9600.00
04801              -0.60    -9200.00
04802              -0.80    -8800.00
04803              -0.60    -8600.00
04804              -0.60    -8200.00
04805              -1.00    -8000.00
04806              -0.40    -7600.00
04807              -0.60    -7200.00
04808              -0.60    -6800.00
04809               0.40    -6600.00
04810               0.00    -6200.00
04811              -1.20    -6000.00
04812               0.40    -5600.00
04813              -0.60    -5200.00
04814              -1.20    -4800.00
04815               0.20    -4400.00
04816              -0.40    -4000.00
04817              -1.00    -3800.00
04818               0.40    -3400.00
04819              -0.60    -3400.00
04820              -0.60    -2600.00
04821               0.20    -2400.00
04822              -0.40    -2000.00
04823              -0.40    -1800.00
04824              -0.40    -1400.00
04825              -0.40    -1000.00
04826              -0.20     -600.00
04827               0.40     -200.00
04828               0.20        0.00
04829               0.40      400.00
04830               2.80      600.00
04831               0.20     1000.00
04832              -2.20     1400.00
04833               1.00     1600.00
04834               2.20     2000.00
04835              -0.60     2200.00
04836               1.20     2600.00
04837              12.40     3200.00
04838              24.20     3800.00
04839             -25.00     4200.00
04840             -25.00     4400.00
04841              22.40     4600.00
04842              21.40     4800.00
04843             -25.00     5000.00
04844               2.80     5600.00
04845              25.00     6000.00
04846             -25.00     6200.00
04847             -14.00     6800.00
04848              25.00     6800.00
04849             -25.00     7000.00
04850             -23.80     7600.00
04851              22.80     7800.00
04852              19.40     8400.00
04853             -22.00     8600.00
04854             -20.40     8800.00
04855              25.00     9000.00
04856             -11.60     9400.00
04857             -25.00     9800.00
04858              25.00    10000.00
04859              15.40    10400.00
04860             -25.00    10800.00
04861               4.00    11000.00
04862              25.00    11200.00
04863             -25.00    11600.00
04864             -14.20    12000.00
04865              24.20    12000.00
04866              -2.20    12400.00
04867             -19.00    12800.00
04868               9.80    13200.00
04869              15.00    13200.00
04870             -16.60    13600.00
04871              -2.60    13800.00
04872              12.60    14000.00
04873              -4.40    14600.00
04874             -11.60    14400.00
04875              10.60    14800.00
04876               6.60    15000.00
04877             -12.60    15200.00
04878               2.40    15600.00
04879               7.40    15800.00
04880              -6.20    16000.00
04881              -5.00    16000.00
04882               7.80    16400.00
04883               0.40    16400.00
04884              -6.60    16600.00
04885               3.60    16800.00
04886               3.60    17000.00
04887              -6.80    17200.00
04888              -1.00    17200.00
04889               6.60    17600.00
04890              -2.80    17600.00
04891              -2.80    17600.00
04892               4.20    17600.00
04893               1.20    18000.00
04894              -5.40    18000.00
04895               1.40    18200.00
04896               3.40    18400.00
04897              -4.20    18400.00
04898               0.20    18400.00
04899               3.00    18600.00
04900              -1.80    18800.00
04901              -2.20    18800.00
04902               1.80    19000.00
04903               1.00    18800.00
04904              -2.00    19000.00
04905               0.20    19000.00
04906               2.40    19000.00
04907              -1.00    19000.00
04908              -1.60    19000.00
04909               1.00    19200.00
04910              -0.20    19000.00
04911              -2.00    19000.00
04912               0.60    19200.00
04913               1.00    19200.00
04914              -1.80    19000.00
04915               0.00    19000.00
04916               1.20    19200.00
04917              -1.00    19000.00
04918              -0.40    19000.00
04919               0.40    19000.00
04920               0.20    18800.00
04921              -0.60    18800.00
04922              -0.20    18800.00
04923              -0.20    18800.00
04924              -0.60    18400.00
04925              -0.20    18400.00
04926              -0.20    18400.00
04927              -0.20    18200.00
04928               0.20    18200.00
04929              -0.40    18000.00
04930              -0.20    18000.00
04931              -0.40    17600.00
04932              -0.60    17600.00
04933              -0.20    17600.00
04934               0.40    17400.00
04935              -0.20    17200.00
04936              -0.20    17000.00
04937              -0.40    16800.00
04938              -0.60    16800.00
04939              -0.60    16600.00
04940               0.20    16400.00
04941              -0.40    16200.00
04942              -0.40    16000.00
04943              -0.20    15800.00
04944               0.20    15600.00
04945              -0.60    15200.00
04946              -0.20    15200.00
04947              -0.20    14800.00
04948               0.20    14600.00
04949              -0.40    14400.00
04950              -0.20    14200.00
04951              -0.20    14000.00
04952              -0.40    13800.00
04953              -0.20    13400.00
04954              -0.20    13200.00
04955              -0.40    13000.00
04956              -0.20    12600.00
04957               0.20    12400.00
04958              -0.40    12000.00
04959              -0.40    12000.00
04960              -0.40    11400.00
04961              -0.40    11200.00
04962              -0.20    11000.00
04963              -0.20    10800.00
04964              -0.40    10200.00
04965              -0.20    10000.00
04966              -0.40     9600.00
04967              -0.40     9400.00
04968               0.00     9000.00
04969              -0.40     8800.00
04970              -0.40     8400.00
04971              -0.40     8200.00
04972              -0.40     8000.00
04973              -0.40     7400.00
04974              -0.60     7200.00
04975              -0.40     6800.00
04976              -0.60     6600.00
04977              -1.00     6000.00
04978              -0.40     6000.00
04979              -0.60     5400.00
04980              -0.60     5200.00
04981              -0.20     4800.00
04982              -0.40     4400.00
04983              -0.40     4200.00
04984              -0.20     3800.00
04985              -0.60     3400.00
04986              -0.40     3000.00
04987              -0.60     2800.00
04988              -0.40     2200.00
04989              -0.60     2000.00
04990              -0.60     1600.00
04991              -0.60     1200.00
04992              -0.60      800.00
04993              -0.60      400.00
04994              -0.20        0.00
04995               0.20     -200.00
04996               0.20     -400.00
04997               2.80     -800.00
04998               0.60    -1200.00
04999              -2.60    -1400.00
05000               0.20    -1600.00
