Unit:(mV)
                     CH1         CH2
Frequency              ? 299.082 kHz
00001              50.00    -4400.00
00002              50.00    -4400.00
00003             -50.00    -4200.00
00004              16.80    -5000.00
00005              50.00    -4800.00
00006             -50.00    -5000.00
00007             -23.20    -5600.00
00008               4.40    -5200.00
00009              48.40    -5800.00
00010             -24.80    -6000.00
00011             -50.00    -6000.00
00012              50.00    -6400.00
00013               4.00    -6200.00
00014             -50.00    -6600.00
00015              50.00    -6800.00
00016              28.80    -6800.00
00017             -50.00    -7200.00
00018               5.60    -7200.00
00019              42.00    -7400.00
00020             -17.60    -7800.00
00021             -34.40    -7600.00
00022              35.60    -8000.00
00023               7.20    -8000.00
00024             -36.00    -8400.00
00025               9.20    -8400.00
00026              18.00    -8400.00
00027             -12.00    -8600.00
00028             -14.00    -8800.00
00029              18.00    -8800.00
00030               2.00    -9000.00
00031             -24.80    -9000.00
00032              12.00    -9200.00
00033              10.00    -9400.00
00034             -16.40    -9400.00
00035              -2.00    -9600.00
00036              12.40    -9600.00
00037              -5.20    -9800.00
00038             -12.00   -10000.00
00039               8.40   -10000.00
00040               2.80   -10000.00
00041             -12.00   -10000.00
00042               4.40   -10200.00
00043               6.00   -10400.00
00044             -10.40   -10200.00
00045              -2.00   -10600.00
00046               8.40   -10600.00
00047              -6.00   -10600.00
00048              -6.80   -10600.00
00049               5.60   -10800.00
00050               1.60   -10800.00
00051              -8.40   -10800.00
00052               0.80   -10800.00
00053               4.40   -11000.00
00054              -7.60   -11200.00
00055               0.40   -10800.00
00056               4.40   -11000.00
00057              -5.20   -11000.00
00058              -3.20   -11000.00
00059               2.40   -11000.00
00060               0.40   -11200.00
00061              -5.20   -11000.00
00062              -2.00   -11000.00
00063               3.60   -11000.00
00064              -2.40   -11200.00
00065              -2.80   -11000.00
00066               2.00   -11200.00
00067              -2.00   -11200.00
00068              -2.80   -11000.00
00069               0.80   -11000.00
00070              -0.40   -11000.00
00071              -4.00   -11000.00
00072              -1.20   -11000.00
00073               2.00   -10800.00
00074              -2.40   -10800.00
00075              -2.80   -10800.00
00076               0.00   -10800.00
00077              -0.40   -10800.00
00078              -1.20   -10800.00
00079              -2.40   -10600.00
00080               0.40   -10800.00
00081              -1.20   -10600.00
00082              -2.40   -10400.00
00083               0.00   -10400.00
00084              -1.20   -10400.00
00085              -2.40   -10200.00
00086              -1.20   -10000.00
00087               0.40   -10000.00
00088              -2.00    -9800.00
00089              -2.40    -9800.00
00090               0.00    -9600.00
00091              -1.20    -9600.00
00092              -1.20    -9600.00
00093              -0.40    -9600.00
00094              -1.60    -9200.00
00095              -1.20    -9200.00
00096              -0.40    -8800.00
00097              -0.80    -9000.00
00098              -1.60    -8800.00
00099              -1.20    -8600.00
00100               0.00    -8400.00
00101              -1.20    -8400.00
00102              -1.60    -8400.00
00103              -0.80    -8400.00
00104              -0.80    -8200.00
00105              -0.40    -8000.00
00106              -0.80    -7600.00
00107              -1.20    -7600.00
00108              -0.80    -7400.00
00109              -1.20    -7200.00
00110              -0.40    -7200.00
00111              -1.20    -7000.00
00112              -1.60    -6600.00
00113               0.00    -6600.00
00114              -0.40    -6400.00
00115              -1.20    -6200.00
00116              -0.40    -6000.00
00117              -1.20    -5800.00
00118              -0.80    -5600.00
00119               0.40    -5600.00
00120              -1.20    -5200.00
00121              -1.20    -5200.00
00122              -0.40    -4800.00
00123               0.00    -4600.00
00124              -0.80    -4600.00
00125              -0.40    -4400.00
00126              -0.80    -4200.00
00127              -1.20    -4000.00
00128              -0.40    -4000.00
00129               0.40    -3600.00
00130              -2.00    -3400.00
00131              -0.40    -3200.00
00132               0.40    -3200.00
00133              -0.40    -2800.00
00134              -0.80    -2800.00
00135              -0.80    -2400.00
00136              -1.20    -2400.00
00137               0.40    -2000.00
00138              -0.40    -2000.00
00139              -1.20    -1800.00
00140              -0.80    -1600.00
00141              -0.40    -1200.00
00142              -0.40    -1200.00
00143              -0.40     -800.00
00144              -0.40     -600.00
00145              -0.40     -400.00
00146              -0.40     -200.00
00147               0.40        0.00
00148               0.40      400.00
00149               0.80      400.00
00150               1.20      600.00
00151              -0.80      600.00
00152               0.40      800.00
00153               0.40     1200.00
00154               0.40     1200.00
00155              -0.80     1400.00
00156               2.00     1800.00
00157              10.00     2000.00
00158              18.00     2600.00
00159             -19.60     2800.00
00160             -30.80     2800.00
00161               3.60     2600.00
00162               1.20     2800.00
00163              40.80     3400.00
00164              -2.40     3400.00
00165             -50.00     3400.00
00166              50.00     4000.00
00167              50.00     4000.00
00168             -50.00     3800.00
00169              24.80     4400.00
00170              50.00     4400.00
00171             -50.00     4800.00
00172              -8.40     5200.00
00173              50.00     5200.00
00174             -24.80     5400.00
00175             -24.40     5600.00
00176              10.40     5400.00
00177              34.80     6000.00
00178             -25.20     6000.00
00179             -40.40     6400.00
00180              50.00     6400.00
00181               2.40     6400.00
00182             -50.00     6800.00
00183              44.00     7000.00
00184              26.80     7000.00
00185             -49.20     7200.00
00186               5.20     7400.00
00187              34.00     7800.00
00188             -14.80     7800.00
00189             -19.60     7800.00
00190              26.40     8000.00
00191               5.20     8200.00
00192             -26.40     8200.00
00193               9.20     8400.00
00194              18.80     8600.00
00195             -13.60     8800.00
00196              -8.00     8800.00
00197              19.20     9000.00
00198              -0.40     9000.00
00199             -18.00     9200.00
00200              10.00     9400.00
00201              12.00     9400.00
00202             -13.20     9600.00
00203              -1.20     9600.00
00204              13.60     9800.00
00205              -4.40    10000.00
00206              -9.60    10000.00
00207               9.20    10000.00
00208               4.00    10200.00
00209             -10.00    10200.00
00210               4.80    10400.00
00211               8.40    10400.00
00212              -7.20    10400.00
00213              -1.20    10600.00
00214               8.80    10800.00
00215              -2.40    10600.00
00216              -5.60    10800.00
00217               6.80    10800.00
00218               3.20    10800.00
00219              -6.00    11000.00
00220               2.00    11000.00
00221               4.40    11000.00
00222              -3.60    11000.00
00223               0.40    11200.00
00224               4.40    11200.00
00225              -0.80    11000.00
00226              -2.00    11200.00
00227               3.60    11000.00
00228               2.40    11000.00
00229              -2.00    11000.00
00230               0.40    11200.00
00231               4.00    11200.00
00232              -0.40    11000.00
00233              -1.20    11200.00
00234               2.80    11200.00
00235               0.80    11000.00
00236              -0.80    11200.00
00237               2.40    11200.00
00238               2.40    11000.00
00239              -0.80    11000.00
00240               0.80    11000.00
00241               3.60    11000.00
00242              -0.40    10800.00
00243              -0.80    10800.00
00244               2.00    10800.00
00245               1.20    10800.00
00246               0.80    10800.00
00247               0.40    10800.00
00248               1.20    10600.00
00249               0.80    10400.00
00250               0.40    10400.00
00251               0.80    10400.00
00252               0.80    10200.00
00253               0.80    10200.00
00254               1.20    10000.00
00255               2.00    10000.00
00256               0.40    10000.00
00257              -0.80     9800.00
00258               2.00     9800.00
00259               1.20     9600.00
00260               0.80     9400.00
00261               0.40     9400.00
00262               0.80     9400.00
00263               0.80     9200.00
00264               0.40     9000.00
00265               0.80     8800.00
00266               0.40     8600.00
00267              -0.40     8600.00
00268               0.80     8400.00
00269               1.20     8400.00
00270              -0.40     8400.00
00271               0.40     8200.00
00272               0.80     8000.00
00273              -0.40     7800.00
00274               0.40     7800.00
00275               0.40     7600.00
00276               0.00     7200.00
00277               0.40     7200.00
00278               0.40     7000.00
00279               0.40     6800.00
00280               0.40     6600.00
00281               0.40     6400.00
00282               0.80     6200.00
00283               0.40     6000.00
00284              -0.40     6000.00
00285              -0.40     5800.00
00286               0.40     5600.00
00287               0.00     5400.00
00288               0.00     5200.00
00289              -0.40     5200.00
00290               0.40     4800.00
00291               0.40     4600.00
00292               0.40     4400.00
00293              -0.40     4400.00
00294               0.40     4000.00
00295               0.40     4000.00
00296               0.40     3800.00
00297               0.40     3400.00
00298              -0.40     3200.00
00299              -0.40     3000.00
00300               0.40     3000.00
00301               0.40     2800.00
00302              -0.40     2400.00
00303              -0.80     2200.00
00304               0.40     2200.00
00305               0.40     2000.00
00306               0.40     1600.00
00307               0.00     1800.00
00308              -0.40     1200.00
00309               0.40     1000.00
00310              -0.40      800.00
00311              -0.80      600.00
00312              -0.40      400.00
00313              -0.40      400.00
00314              -0.40        0.00
00315               0.40     -200.00
00316               0.80     -400.00
00317               1.20     -400.00
00318              -0.80     -800.00
00319              -0.40    -1000.00
00320               0.80    -1000.00
00321               0.00    -1200.00
00322              -0.80    -1200.00
00323               1.20    -1600.00
00324              19.60    -2000.00
00325              11.60    -2600.00
00326             -44.40    -2800.00
00327             -16.80    -2800.00
00328               2.40    -2400.00
00329              46.80    -2800.00
00330              34.40    -3600.00
00331             -50.00    -3000.00
00332              34.40    -3400.00
00333              50.00    -4000.00
00334             -50.00    -3800.00
00335             -47.60    -4000.00
00336              50.00    -4800.00
00337             -50.00    -4200.00
00338             -50.00    -4600.00
00339              50.00    -5000.00
00340              -9.20    -4600.00
00341             -45.60    -5600.00
00342              -2.00    -5400.00
00343              33.60    -5600.00
00344              24.80    -6000.00
00345             -50.00    -5800.00
00346              38.80    -6200.00
00347              50.00    -6400.00
00348             -50.00    -6400.00
00349               9.20    -6800.00
00350              50.00    -6800.00
00351             -50.00    -7200.00
00352             -26.80    -7400.00
00353              42.00    -7200.00
00354              10.80    -7600.00
00355             -42.80    -7600.00
00356              10.00    -8000.00
00357              32.40    -8000.00
00358             -31.60    -8000.00
00359             -10.80    -8400.00
00360              23.60    -8400.00
00361              -0.80    -8400.00
00362             -20.40    -8800.00
00363               7.20    -8800.00
00364              18.00    -9000.00
00365             -23.60    -9000.00
00366              -3.60    -9200.00
00367              19.60    -9200.00
00368             -10.80    -9600.00
00369             -10.40    -9600.00
00370              10.40    -9600.00
00371               4.00    -9800.00
00372             -13.60    -9800.00
00373               0.40   -10000.00
00374              10.00   -10000.00
00375              -9.20   -10000.00
00376              -4.00   -10200.00
00377              10.00   -10400.00
00378              -5.20   -10200.00
00379              -8.80   -10400.00
00380               8.40   -10400.00
00381               0.40   -10400.00
00382              -9.60   -10600.00
00383               2.40   -10600.00
00384               5.20   -10600.00
00385              -6.00   -10600.00
00386              -4.40   -10800.00
00387               6.00   -10800.00
00388              -3.60   -10800.00
00389              -5.20   -11000.00
00390               4.80   -11000.00
00391              -1.20   -11000.00
00392              -5.20   -11200.00
00393               0.40   -11000.00
00394               1.60   -11200.00
00395              -2.00   -11000.00
00396              -4.40   -11000.00
00397               2.00   -11000.00
00398               0.80   -11200.00
00399              -5.20   -11200.00
00400               0.40   -11000.00
00401               0.80   -11000.00
00402              -3.60   -11000.00
00403              -1.20   -11000.00
00404               0.80   -11200.00
00405              -2.80   -11000.00
00406              -3.60   -11000.00
00407               2.00   -10800.00
00408              -1.20   -11000.00
00409              -4.00   -10800.00
00410               0.40   -10800.00
00411              -0.80   -10800.00
00412              -1.20   -10800.00
00413              -2.00   -10600.00
00414              -0.80   -10600.00
00415              -0.40   -10600.00
00416              -2.40   -10400.00
00417              -0.80   -10400.00
00418              -1.20   -10400.00
00419              -2.00   -10400.00
00420              -2.00   -10200.00
00421              -0.40   -10000.00
00422               0.00   -10000.00
00423              -3.60    -9800.00
00424              -0.40    -9800.00
00425               0.40    -9600.00
00426              -1.20    -9600.00
00427              -0.80    -9600.00
00428              -0.80    -9400.00
00429              -1.20    -9200.00
00430              -0.80    -9200.00
00431              -0.80    -9000.00
00432              -1.20    -8800.00
00433              -1.60    -8800.00
00434              -0.80    -8800.00
00435               0.00    -8400.00
00436              -1.20    -8400.00
00437              -1.20    -8200.00
00438              -0.80    -8000.00
00439               0.00    -8000.00
00440              -0.40    -7600.00
00441              -1.20    -7600.00
00442              -0.80    -7400.00
00443              -0.80    -7400.00
00444              -0.80    -7200.00
00445              -0.40    -6800.00
00446              -1.60    -6800.00
00447              -0.40    -6600.00
00448              -0.40    -6600.00
00449              -0.80    -6400.00
00450              -0.80    -6000.00
00451              -1.20    -6000.00
00452              -1.20    -5800.00
00453               0.40    -5600.00
00454              -0.80    -5600.00
00455              -0.40    -5200.00
00456              -1.20    -5000.00
00457              -0.80    -4600.00
00458              -0.40    -4600.00
00459              -1.20    -4400.00
00460              -0.80    -4200.00
00461              -0.80    -4200.00
00462              -1.20    -4000.00
00463               0.00    -3600.00
00464              -0.80    -3600.00
00465              -2.00    -3400.00
00466              -0.40    -3200.00
00467               0.40    -2800.00
00468              -1.20    -2800.00
00469              -0.80    -2400.00
00470              -0.40    -2400.00
00471              -0.40    -2000.00
00472               0.40    -2000.00
00473              -0.40    -1800.00
00474              -1.20    -1600.00
00475              -0.40    -1400.00
00476              -0.80    -1200.00
00477              -0.40     -800.00
00478              -0.80     -600.00
00479              -0.40     -400.00
00480               0.00     -200.00
00481              -0.40        0.00
00482              -0.40      200.00
00483               0.80      400.00
00484               2.00      400.00
00485              -0.40      600.00
00486              -1.20      800.00
00487               0.40     1200.00
00488               0.40     1200.00
00489              -0.80     1400.00
00490               0.80     1600.00
00491               6.80     1800.00
00492              16.80     2400.00
00493              -2.40     2600.00
00494             -33.60     2800.00
00495              -5.60     2800.00
00496               2.00     2600.00
00497              18.40     3200.00
00498              34.00     3600.00
00499             -50.00     3200.00
00500               7.20     4000.00
00501              50.00     3800.00
00502             -50.00     4000.00
00503             -50.00     4600.00
00504              50.00     4600.00
00505             -27.20     4400.00
00506             -50.00     5200.00
00507              50.00     5000.00
00508               5.60     5200.00
00509             -32.80     5600.00
00510              -0.80     5600.00
00511              29.60     5600.00
00512               6.40     6000.00
00513             -50.00     6000.00
00514              32.80     6400.00
00515              50.00     6600.00
00516             -50.00     6600.00
00517               2.00     6800.00
00518              50.00     7000.00
00519             -34.00     7200.00
00520             -22.00     7200.00
00521              35.20     7400.00
00522               4.40     7600.00
00523             -28.00     7800.00
00524              11.20     7800.00
00525              21.60     8200.00
00526             -22.80     8400.00
00527              -7.60     8400.00
00528              23.60     8400.00
00529              -2.80     8800.00
00530             -16.80     8800.00
00531              12.00     9000.00
00532              12.40     9000.00
00533             -17.20     9200.00
00534              -2.00     9200.00
00535              17.20     9600.00
00536              -7.20     9600.00
00537              -9.20     9400.00
00538              12.40     9600.00
00539               3.60    10000.00
00540             -11.60    10000.00
00541               3.60    10000.00
00542               9.20    10200.00
00543              -7.60    10200.00
00544              -2.00    10200.00
00545              10.40    10400.00
00546              -2.40    10400.00
00547              -6.00    10400.00
00548               7.20    10400.00
00549               2.80    10600.00
00550              -7.60    10800.00
00551               2.40    10600.00
00552               7.20    10800.00
00553              -4.00    10800.00
00554              -2.40    11000.00
00555               6.40    11000.00
00556              -1.20    11000.00
00557              -2.40    11000.00
00558               4.40    11000.00
00559               1.20    11200.00
00560              -2.00    11000.00
00561               2.00    11200.00
00562               2.80    11000.00
00563              -0.40    11000.00
00564              -1.20    11000.00
00565               2.80    11200.00
00566               2.40    11200.00
00567              -2.00    11200.00
00568               1.20    11000.00
00569               3.20    11000.00
00570              -2.00    11000.00
00571               0.40    11000.00
00572               4.00    11000.00
00573              -1.20    11000.00
00574              -0.80    11000.00
00575               3.60    11000.00
00576               0.80    10800.00
00577              -0.80    10800.00
00578               1.20    10800.00
00579               0.80    10800.00
00580               0.80    10600.00
00581               0.40    10800.00
00582               0.80    10800.00
00583               2.00    10400.00
00584               0.80    10400.00
00585               0.80    10400.00
00586               1.60    10400.00
00587               0.40    10400.00
00588              -0.40    10000.00
00589               0.80    10000.00
00590               1.20    10000.00
00591              -1.20     9800.00
00592               0.40     9600.00
00593               2.00     9600.00
00594               0.80     9400.00
00595              -1.20     9400.00
00596               0.80     9200.00
00597               1.20     9200.00
00598              -0.80     9200.00
00599               0.40     9000.00
00600               2.00     8800.00
00601              -0.80     8800.00
00602               0.40     8600.00
00603               1.20     8400.00
00604              -0.40     8200.00
00605              -0.40     8200.00
00606               0.80     8000.00
00607               0.80     7800.00
00608               0.40     7600.00
00609              -0.40     7600.00
00610               0.40     7400.00
00611               0.40     7000.00
00612               0.40     7000.00
00613               0.40     6800.00
00614              -0.40     6800.00
00615               0.00     6400.00
00616               0.40     6400.00
00617               0.40     6200.00
00618              -0.40     6200.00
00619               0.40     6000.00
00620               0.40     5600.00
00621               0.40     5600.00
00622               0.00     5400.00
00623              -0.40     5000.00
00624               0.00     4800.00
00625               0.40     4800.00
00626               0.00     4400.00
00627               0.40     4400.00
00628               0.40     4200.00
00629              -0.40     4000.00
00630               0.40     4000.00
00631               0.40     3800.00
00632              -0.40     3200.00
00633              -0.40     3000.00
00634              -0.40     3000.00
00635               0.40     2800.00
00636              -0.40     2400.00
00637              -0.80     2400.00
00638              -0.40     2200.00
00639               0.40     2000.00
00640               0.40     1800.00
00641              -0.40     1600.00
00642              -0.80     1400.00
00643              -0.40     1200.00
00644               0.40      800.00
00645              -0.80      600.00
00646              -0.80      400.00
00647               0.00      400.00
00648              -0.80        0.00
00649              -0.80     -200.00
00650               0.80     -200.00
00651               1.20     -400.00
00652               0.80     -600.00
00653              -1.20     -800.00
00654               0.40    -1000.00
00655               0.40    -1200.00
00656              -1.20    -1200.00
00657               0.00    -1600.00
00658               8.80    -1600.00
00659              28.40    -2400.00
00660             -28.00    -2800.00
00661             -37.60    -2800.00
00662               0.80    -2800.00
00663              21.20    -2600.00
00664              50.00    -3400.00
00665             -50.00    -3400.00
00666             -50.00    -3000.00
00667              50.00    -4000.00
00668             -26.80    -4000.00
00669             -50.00    -3600.00
00670              50.00    -4600.00
00671              43.60    -4400.00
00672             -50.00    -4400.00
00673              50.00    -5000.00
00674              50.00    -4600.00
00675             -50.00    -5200.00
00676             -12.00    -5600.00
00677              13.60    -5200.00
00678              48.00    -5800.00
00679             -50.00    -6000.00
00680             -33.60    -6000.00
00681              50.00    -6400.00
00682             -50.00    -6200.00
00683             -50.00    -6600.00
00684              50.00    -6800.00
00685              -8.80    -6800.00
00686             -50.00    -7400.00
00687              24.40    -7200.00
00688              33.20    -7400.00
00689             -32.40    -7600.00
00690             -20.00    -7600.00
00691              42.00    -8000.00
00692             -11.20    -8000.00
00693             -30.00    -8200.00
00694              19.60    -8400.00
00695              12.40    -8400.00
00696             -18.40    -8600.00
00697              -6.80    -8800.00
00698              22.80    -9000.00
00699             -11.60    -9000.00
00700             -19.60    -9200.00
00701              19.60    -9200.00
00702               1.20    -9400.00
00703             -16.40    -9600.00
00704               4.40    -9600.00
00705              10.80    -9600.00
00706             -10.80    -9800.00
00707              -8.40   -10000.00
00708              11.60   -10000.00
00709              -2.00   -10000.00
00710             -10.00   -10000.00
00711               6.80   -10400.00
00712               1.60   -10400.00
00713             -10.80   -10400.00
00714               2.00   -10400.00
00715               6.00   -10800.00
00716              -7.20   -10600.00
00717              -4.40   -10600.00
00718               5.60   -10800.00
00719              -0.80   -10800.00
00720              -8.40   -10800.00
00721               2.80   -10800.00
00722               2.00   -10800.00
00723              -8.40   -10800.00
00724               2.00   -11000.00
00725               2.80   -11000.00
00726              -6.40   -11200.00
00727              -2.80   -11000.00
00728               2.40   -11200.00
00729              -0.40   -11000.00
00730              -5.60   -11000.00
00731               0.40   -11200.00
00732               2.40   -11000.00
00733              -4.40   -11000.00
00734              -1.60   -11000.00
00735               1.20   -11200.00
00736              -2.80   -11000.00
00737              -2.40   -11000.00
00738               0.80   -11000.00
00739              -1.20   -11200.00
00740              -4.40   -10800.00
00741              -0.40   -11000.00
00742               2.00   -10800.00
00743              -3.60   -10800.00
00744              -2.00   -10800.00
00745               0.80   -10800.00
00746              -0.40   -10800.00
00747              -2.00   -10600.00
00748              -1.20   -10600.00
00749               0.00   -10600.00
00750              -1.60   -10600.00
00751              -1.20   -10400.00
00752               0.00   -10400.00
00753              -1.60   -10200.00
00754              -2.40   -10200.00
00755              -0.40   -10000.00
00756              -0.40   -10000.00
00757              -2.00   -10000.00
00758              -2.00    -9800.00
00759               0.40    -9800.00
00760              -1.20    -9600.00
00761              -0.80    -9600.00
00762              -0.80    -9400.00
00763              -1.20    -9200.00
00764              -0.80    -9200.00
00765              -0.80    -9000.00
00766              -0.80    -9000.00
00767              -1.60    -8800.00
00768              -1.20    -8600.00
00769               0.40    -8600.00
00770              -0.80    -8400.00
00771              -1.20    -8400.00
00772              -0.80    -8200.00
00773              -0.40    -8000.00
00774              -1.60    -7600.00
00775               0.80    -7600.00
00776              -1.20    -7600.00
00777              -2.00    -7400.00
00778               0.80    -7200.00
00779               0.00    -7200.00
00780              -3.60    -6800.00
00781               0.80    -6800.00
00782               0.40    -6600.00
00783              -2.00    -6400.00
00784               0.40    -6200.00
00785              -0.40    -6000.00
00786              -2.00    -5800.00
00787              -0.40    -5600.00
00788              -0.40    -5600.00
00789              -0.80    -5200.00
00790              -1.60    -5200.00
00791              -0.40    -5000.00
00792              -0.40    -4600.00
00793              -1.20    -4400.00
00794              -0.40    -4400.00
00795              -1.60    -4200.00
00796              -0.80    -4000.00
00797               0.80    -3800.00
00798              -1.20    -3600.00
00799              -1.20    -3600.00
00800               0.40    -3200.00
00801              -0.80    -3000.00
00802              -0.80    -2800.00
00803              -0.40    -2600.00
00804              -1.20    -2400.00
00805              -0.80    -2200.00
00806              -0.40    -2000.00
00807               0.00    -1800.00
00808              -1.20    -1600.00
00809              -0.80    -1400.00
00810               0.80    -1200.00
00811              -0.40    -1000.00
00812              -0.80     -800.00
00813               0.00     -600.00
00814              -0.40     -400.00
00815              -0.40     -200.00
00816              -0.80        0.00
00817               0.40      200.00
00818               1.20      400.00
00819               0.40      600.00
00820              -1.20      600.00
00821               0.80      800.00
00822               1.20     1200.00
00823              -0.40     1400.00
00824               0.00     1400.00
00825               4.00     1800.00
00826              13.20     2000.00
00827              13.20     2600.00
00828             -27.60     2800.00
00829             -22.40     2800.00
00830               4.40     2800.00
00831               4.40     2800.00
00832              47.20     3600.00
00833             -30.00     3200.00
00834             -50.00     3800.00
00835              50.00     4000.00
00836              12.80     3800.00
00837             -50.00     4200.00
00838              50.00     4600.00
00839              50.00     4400.00
00840             -50.00     4800.00
00841              27.60     5000.00
00842              43.20     4800.00
00843             -33.60     5600.00
00844             -15.20     5600.00
00845              18.00     5600.00
00846              28.80     6000.00
00847             -45.20     6200.00
00848             -13.60     6400.00
00849              50.00     6400.00
00850             -35.60     6600.00
00851             -44.40     6800.00
00852              50.00     6800.00
00853              -0.80     7200.00
00854             -45.20     7400.00
00855              21.60     7400.00
00856              24.40     7600.00
00857             -24.80     7800.00
00858              -8.40     7800.00
00859              29.60     8200.00
00860              -8.40     8200.00
00861             -22.00     8400.00
00862              18.40     8400.00
00863              10.80     8600.00
00864             -18.80     8800.00
00865               0.80     8800.00
00866              18.80     8800.00
00867              -9.20     9200.00
00868             -13.60     9200.00
00869              15.60     9400.00
00870               4.00     9400.00
00871             -13.60     9600.00
00872               5.20     9600.00
00873              10.80     9600.00
00874              -8.40     9800.00
00875              -4.80    10000.00
00876              11.60    10000.00
00877              -0.80    10200.00
00878              -8.00    10200.00
00879               8.80    10400.00
00880               4.00    10400.00
00881              -8.80    10400.00
00882               2.80    10400.00
00883               7.20    10400.00
00884              -5.20    10800.00
00885              -2.40    10800.00
00886               8.40    10800.00
00887               0.00    11000.00
00888              -4.40    10800.00
00889               4.80    11000.00
00890               2.40    10800.00
00891              -4.00    11000.00
00892               2.80    11000.00
00893               2.80    11200.00
00894              -2.00    11000.00
00895               0.40    11000.00
00896               2.80    11200.00
00897               0.80    11200.00
00898              -2.40    11000.00
00899               1.20    11200.00
00900               3.60    11000.00
00901              -1.20    11200.00
00902               0.80    11200.00
00903               2.00    11000.00
00904              -0.40    11000.00
00905               0.80    11000.00
00906               2.40    11000.00
00907               0.40    11000.00
00908              -0.40    11000.00
00909               2.00    11000.00
00910               2.00    10800.00
00911              -1.20    10800.00
00912               0.80    10800.00
00913               1.20    10800.00
00914               0.80    10800.00
00915               0.40    10600.00
00916               0.80    10600.00
00917               0.40    10400.00
00918               0.40    10400.00
00919               1.20    10400.00
00920               1.20    10200.00
00921              -0.40    10200.00
00922               0.40    10200.00
00923               1.20    10000.00
00924               1.20    10000.00
00925               0.00     9800.00
00926               0.40    10000.00
00927               0.80     9600.00
00928              -0.40     9400.00
00929              -0.40     9400.00
00930               0.40     9400.00
00931               0.80     9200.00
00932               0.80     8800.00
00933               0.80     9200.00
00934               0.40     8800.00
00935               0.40     8800.00
00936               0.40     8600.00
00937               0.80     8400.00
00938               0.40     8400.00
00939               0.00     8200.00
00940              -0.40     8200.00
00941               0.80     7800.00
00942               0.40     7800.00
00943               0.00     7600.00
00944               0.40     7600.00
00945               0.80     7400.00
00946               0.80     7000.00
00947               0.80     7000.00
00948               0.40     6800.00
00949               0.40     6600.00
00950               0.40     6600.00
00951               0.40     6200.00
00952               0.40     6200.00
00953              -0.40     6000.00
00954               0.40     6000.00
00955               0.80     5400.00
00956               0.80     5400.00
00957               0.40     5200.00
00958              -0.40     5200.00
00959               0.40     4800.00
00960               0.80     4600.00
00961              -0.40     4400.00
00962               0.00     4200.00
00963               0.80     4000.00
00964              -0.80     3800.00
00965              -0.40     3600.00
00966               1.20     3600.00
00967              -0.80     3200.00
00968              -0.80     3200.00
00969               1.20     2800.00
00970               0.00     2600.00
00971              -1.20     2400.00
00972               0.80     2200.00
00973               0.40     2000.00
00974              -1.20     2000.00
00975               0.40     1600.00
00976               0.40     1600.00
00977              -1.20     1200.00
00978               0.00     1200.00
00979               0.40      800.00
00980              -0.80      600.00
00981              -0.80      400.00
00982               0.40      200.00
00983              -0.40        0.00
00984              -0.40     -200.00
00985               0.80     -400.00
00986               0.80     -400.00
00987              -1.60     -600.00
00988              -0.80    -1000.00
00989               0.80    -1000.00
00990              -0.80    -1200.00
00991              -1.20    -1400.00
00992               3.60    -1600.00
00993              27.60    -2200.00
00994              -5.60    -2600.00
00995             -48.40    -2800.00
00996              -6.00    -2800.00
00997               4.40    -2400.00
00998              50.00    -3000.00
00999               1.60    -3600.00
01000             -50.00    -3000.00
01001              50.00    -3600.00
01002              50.00    -4200.00
01003             -50.00    -3600.00
01004              37.20    -4200.00
01005              50.00    -4600.00
01006             -50.00    -4200.00
01007             -14.00    -4800.00
01008              50.00    -4800.00
01009             -42.00    -5000.00
01010             -29.60    -5600.00
01011               1.20    -5400.00
01012              45.20    -5800.00
01013              -5.20    -6000.00
01014             -50.00    -5800.00
01015              50.00    -6400.00
01016              30.80    -6400.00
01017             -50.00    -6400.00
01018              50.00    -7000.00
01019              45.20    -6800.00
01020             -50.00    -7200.00
01021              -4.40    -7200.00
01022              42.80    -7200.00
01023              -7.60    -7600.00
01024             -38.00    -7600.00
01025              28.00    -8000.00
01026              17.20    -8000.00
01027             -35.60    -8200.00
01028               2.00    -8200.00
01029              21.20    -8400.00
01030              -7.60    -8400.00
01031             -18.00    -8800.00
01032              15.20    -9000.00
01033               8.80    -9000.00
01034             -26.00    -9000.00
01035               7.20    -9200.00
01036              14.40    -9200.00
01037             -15.20    -9200.00
01038              -4.80    -9600.00
01039              12.40    -9600.00
01040              -1.20    -9800.00
01041             -14.00   -10000.00
01042               5.60   -10000.00
01043               5.60   -10000.00
01044             -12.00   -10000.00
01045               1.20   -10200.00
01046               8.00   -10400.00
01047              -9.20   -10400.00
01048              -5.20   -10400.00
01049               8.40   -10400.00
01050              -4.00   -10600.00
01051              -8.40   -10600.00
01052               4.00   -10800.00
01053               3.60   -10800.00
01054              -8.40   -10800.00
01055              -1.20   -10800.00
01056               5.20   -10800.00
01057              -7.20   -10800.00
01058              -2.40   -11000.00
01059               5.20   -11000.00
01060              -4.00   -11200.00
01061              -4.40   -11000.00
01062               2.00   -11000.00
01063               0.80   -11200.00
01064              -5.20   -11000.00
01065              -3.20   -11000.00
01066               3.20   -11000.00
01067              -2.00   -11000.00
01068              -4.00   -11200.00
01069               1.20   -11000.00
01070              -1.20   -11200.00
01071              -4.00   -11000.00
01072              -0.40   -11000.00
01073               0.40   -11000.00
01074              -3.60   -11000.00
01075              -2.40   -11000.00
01076               2.80   -10800.00
01077              -1.20   -10800.00
01078              -4.40   -10800.00
01079               0.40   -10800.00
01080               0.40   -10800.00
01081              -3.20   -10600.00
01082              -1.20   -10600.00
01083               0.80   -10600.00
01084              -2.40   -10400.00
01085              -2.00   -10400.00
01086               0.40   -10400.00
01087              -1.20   -10400.00
01088              -2.00   -10200.00
01089              -1.20   -10000.00
01090               0.80   -10000.00
01091              -0.40   -10000.00
01092              -4.00    -9800.00
01093               0.40   -10000.00
01094               1.20    -9600.00
01095              -3.60    -9600.00
01096              -0.80    -9400.00
01097               1.20    -9200.00
01098              -2.80    -9200.00
01099              -2.00    -9000.00
01100               2.00    -9000.00
01101              -2.00    -9000.00
01102              -2.80    -8800.00
01103               2.00    -8600.00
01104               0.00    -8400.00
01105              -2.80    -8400.00
01106              -0.40    -8200.00
01107              -0.40    -8000.00
01108              -0.80    -8000.00
01109              -0.80    -7600.00
01110              -1.20    -7600.00
01111              -1.20    -7400.00
01112              -1.20    -7400.00
01113              -0.40    -7200.00
01114              -0.80    -6800.00
01115              -1.20    -6800.00
01116              -0.80    -6600.00
01117              -0.80    -6400.00
01118              -0.40    -6400.00
01119              -0.80    -6200.00
01120              -2.00    -6000.00
01121              -0.40    -5800.00
01122              -0.40    -5600.00
01123              -2.00    -5600.00
01124              -0.80    -5200.00
01125              -0.80    -5000.00
01126              -1.20    -4800.00
01127              -0.80    -4600.00
01128              -0.40    -4400.00
01129              -0.80    -4200.00
01130              -0.80    -4000.00
01131              -0.40    -4000.00
01132               0.00    -3600.00
01133              -1.20    -3400.00
01134              -0.80    -3200.00
01135               0.40    -3000.00
01136              -0.80    -2800.00
01137              -0.80    -2600.00
01138              -0.80    -2400.00
01139              -1.20    -2400.00
01140              -0.40    -2000.00
01141               0.40    -1800.00
01142              -0.80    -1800.00
01143              -1.20    -1600.00
01144               0.80    -1200.00
01145              -0.40    -1000.00
01146              -0.80     -800.00
01147               0.40     -600.00
01148              -0.40     -400.00
01149              -0.40     -200.00
01150               0.40        0.00
01151               0.40      400.00
01152               0.40      400.00
01153               1.20      600.00
01154               0.40      800.00
01155              -0.40      800.00
01156               0.40     1200.00
01157               0.40     1200.00
01158               0.80     1400.00
01159               0.80     1800.00
01160               8.40     2000.00
01161              19.60     2400.00
01162             -14.00     2800.00
01163             -34.40     2800.00
01164               2.80     2800.00
01165               1.20     2800.00
01166              32.40     3400.00
01167              12.40     3600.00
01168             -50.00     3200.00
01169              50.00     4000.00
01170              50.00     3800.00
01171             -50.00     3800.00
01172              -3.60     4400.00
01173              50.00     4400.00
01174             -50.00     4600.00
01175             -27.60     5200.00
01176              50.00     4800.00
01177             -16.40     5200.00
01178             -28.40     5600.00
01179               6.40     5400.00
01180              35.20     5800.00
01181             -14.80     6000.00
01182             -50.00     6200.00
01183              50.00     6400.00
01184              20.00     6600.00
01185             -50.00     6800.00
01186              33.20     6800.00
01187              37.20     7000.00
01188             -47.60     7200.00
01189              -1.20     7200.00
01190              33.20     7600.00
01191              -8.40     7600.00
01192             -23.60     7800.00
01193              21.20     8000.00
01194              11.60     8200.00
01195             -26.40     8400.00
01196               3.60     8400.00
01197              21.60     8400.00
01198             -10.40     8800.00
01199             -12.40     8800.00
01200              17.20     9000.00
01201               6.00     9200.00
01202             -20.40     9200.00
01203               6.00     9400.00
01204              15.20     9400.00
01205             -11.60     9600.00
01206              -5.20     9600.00
01207              14.00     9600.00
01208              -0.80    10000.00
01209             -11.20    10000.00
01210               7.20    10000.00
01211               7.20    10200.00
01212              -9.20    10000.00
01213               0.80    10400.00
01214              10.80    10400.00
01215              -4.80    10400.00
01216              -5.60    10400.00
01217               9.20    10400.00
01218               0.80    10800.00
01219              -8.00    10800.00
01220               6.00    10800.00
01221               6.00    10800.00
01222              -6.40    10800.00
01223               0.40    10800.00
01224               6.80    11000.00
01225              -4.00    11000.00
01226              -1.20    11000.00
01227               6.40    11000.00
01228              -1.20    11000.00
01229              -2.80    11000.00
01230               4.40    11000.00
01231               2.00    11200.00
01232              -2.80    11000.00
01233               0.80    11200.00
01234               4.00    11200.00
01235              -0.40    11200.00
01236              -1.20    11000.00
01237               2.80    11200.00
01238               1.20    11200.00
01239              -0.40    11000.00
01240               2.00    11000.00
01241               2.00    11000.00
01242              -1.20    11000.00
01243               0.40    10800.00
01244               2.40    11000.00
01245               0.40    10800.00
01246              -0.40    10800.00
01247               0.40    10800.00
01248               2.00    10600.00
01249               0.80    10600.00
01250              -0.80    10600.00
01251               0.80    10400.00
01252               1.20    10400.00
01253               0.40    10400.00
01254               0.40    10200.00
01255               0.80    10400.00
01256               0.40    10200.00
01257               0.40    10000.00
01258               1.20    10000.00
01259               0.40    10000.00
01260              -1.20     9800.00
01261               0.80     9600.00
01262               0.80     9600.00
01263               0.80     9400.00
01264               0.40     9400.00
01265               0.80     9200.00
01266               0.00     9200.00
01267               0.80     9000.00
01268               0.40     8800.00
01269               0.40     8800.00
01270               0.80     8600.00
01271               0.80     8400.00
01272               0.00     8400.00
01273               0.40     8200.00
01274               0.80     8000.00
01275              -0.40     8000.00
01276               0.80     7800.00
01277               1.20     7600.00
01278              -0.40     7600.00
01279               0.40     7200.00
01280               0.80     7200.00
01281               0.40     7000.00
01282               0.00     6800.00
01283               0.40     6800.00
01284               0.40     6400.00
01285               0.80     6400.00
01286               0.40     6200.00
01287              -0.40     6000.00
01288               0.40     6000.00
01289               0.40     5600.00
01290               0.40     5600.00
01291               0.80     5200.00
01292               0.40     5000.00
01293               0.40     4800.00
01294               0.40     4600.00
01295               0.40     4400.00
01296              -0.80     4400.00
01297              -0.40     4000.00
01298               0.40     4000.00
01299               0.40     3800.00
01300              -0.40     3600.00
01301               0.00     3400.00
01302               0.40     3200.00
01303               0.40     2800.00
01304               0.40     2800.00
01305               0.40     2600.00
01306              -0.80     2400.00
01307              -0.40     2200.00
01308               0.40     2000.00
01309              -0.40     1600.00
01310              -0.80     1600.00
01311              -0.80     1400.00
01312              -0.40     1200.00
01313               0.00      800.00
01314              -0.40      800.00
01315              -0.80      400.00
01316              -0.40      200.00
01317              -0.40        0.00
01318              -0.40     -200.00
01319               0.80     -200.00
01320               0.80     -600.00
01321              -0.80     -600.00
01322              -1.20     -800.00
01323               0.40    -1000.00
01324              -0.40    -1200.00
01325              -1.20    -1400.00
01326               0.80    -1600.00
01327              15.60    -1800.00
01328              18.80    -2600.00
01329             -40.00    -2600.00
01330             -23.20    -3200.00
01331               2.80    -2400.00
01332              38.40    -2600.00
01333              44.40    -3600.00
01334             -50.00    -3200.00
01335               1.20    -3200.00
01336              50.00    -4000.00
01337             -50.00    -3600.00
01338             -50.00    -4000.00
01339              50.00    -4600.00
01340             -42.00    -4200.00
01341             -50.00    -4400.00
01342              50.00    -5000.00
01343              11.60    -4600.00
01344             -50.00    -5200.00
01345              -4.00    -5600.00
01346              26.80    -5600.00
01347              35.60    -6000.00
01348             -50.00    -5800.00
01349              14.80    -6200.00
01350              50.00    -6400.00
01351             -50.00    -6400.00
01352             -15.20    -6800.00
01353              50.00    -6800.00
01354             -41.20    -7000.00
01355             -37.60    -7400.00
01356              37.60    -7200.00
01357              19.60    -7600.00
01358             -42.00    -7800.00
01359              -0.40    -8000.00
01360              38.00    -8200.00
01361             -26.40    -8200.00
01362             -18.00    -8400.00
01363              23.20    -8400.00
01364               3.60    -8400.00
01365             -20.40    -8800.00
01366               2.80    -8800.00
01367              20.40    -9000.00
01368             -20.40    -9200.00
01369              -9.20    -9200.00
01370              20.00    -9200.00
01371              -7.20    -9400.00
01372             -12.40    -9600.00
01373               8.40    -9600.00
01374               6.00    -9800.00
01375             -13.20   -10000.00
01376              -3.60   -10000.00
01377              10.40   -10000.00
01378              -8.40   -10000.00
01379              -6.80   -10200.00
01380              10.00   -10400.00
01381              -2.80   -10400.00
01382             -10.40   -10400.00
01383               6.40   -10400.00
01384               2.00   -10600.00
01385              -9.60   -10600.00
01386              -0.40   -10600.00
01387               5.60   -10800.00
01388              -5.20   -10800.00
01389              -6.00   -10800.00
01390               5.20   -10800.00
01391              -2.40   -10800.00
01392              -7.20   -11000.00
01393               4.40   -11000.00
01394               0.40   -11200.00
01395              -6.00   -11000.00
01396               0.40   -11000.00
01397               2.40   -11200.00
01398              -2.40   -11000.00
01399              -5.20   -11000.00
01400               2.00   -11200.00
01401               0.80   -11000.00
01402              -5.20   -11000.00
01403              -0.40   -11000.00
01404               0.80   -11200.00
01405              -4.00   -11000.00
01406              -1.20   -11000.00
01407               0.80   -11000.00
01408              -2.00   -11000.00
01409              -3.60   -11000.00
01410               1.20   -10800.00
01411               0.80   -11200.00
01412              -4.00   -10800.00
01413              -0.80   -10800.00
01414               0.40   -10800.00
01415              -1.20   -10800.00
01416              -2.00   -10600.00
01417              -0.80   -10600.00
01418              -0.80   -10600.00
01419              -2.00   -10600.00
01420              -0.40   -10400.00
01421              -0.40   -10400.00
01422              -2.00   -10200.00
01423              -1.20   -10000.00
01424               0.40   -10000.00
01425               0.00   -10000.00
01426              -2.40    -9800.00
01427              -1.20    -9800.00
01428               0.40    -9800.00
01429              -1.20    -9600.00
01430              -1.20    -9400.00
01431              -0.80    -9200.00
01432              -0.80    -9200.00
01433              -0.80    -9000.00
01434              -0.80    -9200.00
01435              -0.80    -8800.00
01436              -1.20    -8800.00
01437              -1.20    -8800.00
01438               0.40    -8400.00
01439              -1.20    -8400.00
01440              -2.00    -8400.00
01441              -1.20    -8200.00
01442              -0.40    -8000.00
01443              -0.80    -7800.00
01444              -1.60    -7600.00
01445              -0.80    -7600.00
01446              -1.20    -7200.00
01447              -1.20    -7200.00
01448              -0.80    -7000.00
01449              -1.20    -6800.00
01450              -1.20    -6600.00
01451              -0.40    -6600.00
01452              -0.40    -6400.00
01453              -1.20    -6000.00
01454              -1.20    -6000.00
01455              -1.20    -5800.00
01456              -0.80    -5600.00
01457              -0.80    -5600.00
01458              -0.80    -5200.00
01459              -1.60    -5000.00
01460              -0.80    -5000.00
01461              -0.40    -4600.00
01462              -0.80    -4600.00
01463              -0.80    -4400.00
01464              -0.80    -4000.00
01465              -0.80    -4000.00
01466              -0.40    -3800.00
01467              -1.20    -3600.00
01468              -0.40    -3400.00
01469              -0.80    -3200.00
01470              -1.20    -3000.00
01471              -0.40    -2800.00
01472               0.40    -2600.00
01473              -2.00    -2400.00
01474               0.40    -2000.00
01475               0.80    -2000.00
01476              -1.20    -1800.00
01477              -1.20    -1600.00
01478               0.80    -1200.00
01479              -0.80    -1000.00
01480               0.00     -800.00
01481              -0.80     -800.00
01482              -0.40     -400.00
01483               0.40     -200.00
01484              -0.40     -200.00
01485              -0.40        0.00
01486               1.20      400.00
01487               1.60      600.00
01488              -0.80      600.00
01489              -0.40      800.00
01490               0.80      800.00
01491               0.80     1200.00
01492              -0.40     1400.00
01493               0.80     1800.00
01494               4.40     2000.00
01495              16.80     2400.00
01496               4.40     2600.00
01497             -33.20     2800.00
01498             -12.40     2800.00
01499               3.60     2600.00
01500              12.80     3200.00
01501              39.60     3600.00
01502             -50.00     3200.00
01503             -18.00     3800.00
01504              50.00     3800.00
01505             -50.00     3800.00
01506             -50.00     4400.00
01507              50.00     4400.00
01508              -1.20     4400.00
01509             -50.00     5000.00
01510              50.00     4800.00
01511              18.40     5200.00
01512             -34.40     5600.00
01513              -6.80     5400.00
01514              26.00     5600.00
01515              16.80     6000.00
01516             -50.00     6200.00
01517              17.20     6400.00
01518              50.00     6400.00
01519             -50.00     6600.00
01520             -16.80     7000.00
01521              50.00     7000.00
01522             -23.20     7000.00
01523             -33.20     7200.00
01524              31.60     7400.00
01525              13.20     7800.00
01526             -29.60     7800.00
01527               2.80     8000.00
01528              26.40     8000.00
01529             -18.40     8200.00
01530             -13.20     8400.00
01531              23.20     8400.00
01532               2.40     8600.00
01533             -17.60     8600.00
01534               7.20     8800.00
01535              15.20     9200.00
01536             -14.00     9200.00
01537              -6.80     9200.00
01538              17.20     9400.00
01539              -2.40     9600.00
01540             -11.60     9600.00
01541              10.80     9600.00
01542               7.60     9800.00
01543             -12.00    10000.00
01544               0.80    10000.00
01545              12.00    10200.00
01546              -6.00    10000.00
01547              -5.20    10400.00
01548              11.60    10200.00
01549               0.80    10400.00
01550              -9.20    10400.00
01551               6.80    10400.00
01552               7.20    10600.00
01553              -8.40    10800.00
01554              -0.40    10600.00
01555              10.00    10600.00
01556              -2.80    10800.00
01557              -4.40    11000.00
01558               6.80    10800.00
01559               0.80    11000.00
01560              -4.40    11000.00
01561               4.00    11000.00
01562               3.20    11000.00
01563              -2.80    11000.00
01564               0.80    11000.00
01565               4.00    11000.00
01566              -0.40    11200.00
01567              -2.80    11000.00
01568               2.80    11200.00
01569               2.80    11200.00
01570              -2.40    11200.00
01571               0.80    11000.00
01572               2.80    11000.00
01573              -1.20    11000.00
01574               0.00    11200.00
01575               2.80    11000.00
01576              -0.40    10800.00
01577              -1.20    11000.00
01578               2.40    11000.00
01579               2.00    10800.00
01580              -1.20    11000.00
01581               0.80    10800.00
01582               2.00    10800.00
01583               0.40    10600.00
01584               0.40    10800.00
01585               0.80    10400.00
01586               0.80    10400.00
01587              -0.40    10400.00
01588               0.80    10400.00
01589               0.80    10400.00
01590              -0.40    10000.00
01591               0.40    10200.00
01592               0.80    10000.00
01593               0.40    10000.00
01594              -0.40     9800.00
01595               1.20     9800.00
01596               1.20     9600.00
01597               0.80     9400.00
01598               0.00     9400.00
01599               0.80     9200.00
01600               0.80     9200.00
01601               0.40     9200.00
01602               0.80     8800.00
01603               0.40     8800.00
01604              -0.40     8600.00
01605               0.80     8400.00
01606               0.80     8400.00
01607               0.80     8400.00
01608               0.40     8000.00
01609               0.80     8000.00
01610               0.40     7800.00
01611               0.80     7800.00
01612               0.40     7600.00
01613               0.40     7400.00
01614               0.00     7200.00
01615               0.80     7200.00
01616               0.80     6800.00
01617              -0.40     6800.00
01618               0.40     6600.00
01619               0.80     6400.00
01620               0.40     6200.00
01621               0.40     6000.00
01622               0.40     6000.00
01623               0.40     5600.00
01624               0.40     5400.00
01625               0.80     5400.00
01626               0.40     5200.00
01627               0.40     4800.00
01628               0.00     4800.00
01629               0.80     4600.00
01630              -0.40     4400.00
01631              -0.80     4200.00
01632               0.00     4000.00
01633               0.40     3800.00
01634              -0.40     3600.00
01635              -0.40     3200.00
01636              -0.40     3200.00
01637               0.00     3000.00
01638               0.40     2800.00
01639               0.40     2600.00
01640              -0.40     2400.00
01641              -0.80     2000.00
01642               0.40     2000.00
01643               0.00     1800.00
01644              -0.80     1600.00
01645              -1.20     1400.00
01646              -0.40     1200.00
01647               0.00      800.00
01648              -0.40      600.00
01649              -1.20      600.00
01650               0.40      400.00
01651              -0.40        0.00
01652              -0.80     -200.00
01653               0.80     -200.00
01654               1.20     -400.00
01655              -0.40     -600.00
01656              -1.20     -800.00
01657               0.40    -1000.00
01658               0.00    -1000.00
01659              -0.80    -1200.00
01660              -0.40    -1600.00
01661               6.80    -1600.00
01662              30.40    -2400.00
01663             -20.40    -2800.00
01664             -42.80    -3000.00
01665              -0.80    -2800.00
01666              13.20    -2400.00
01667              50.00    -3200.00
01668             -47.20    -3400.00
01669             -50.00    -2800.00
01670              50.00    -4000.00
01671              17.20    -4000.00
01672             -50.00    -3600.00
01673              50.00    -4400.00
01674              50.00    -4400.00
01675             -50.00    -4400.00
01676              46.80    -5000.00
01677              50.00    -4800.00
01678             -50.00    -5200.00
01679             -16.80    -5600.00
01680               8.40    -5400.00
01681              49.20    -5800.00
01682             -44.00    -6000.00
01683             -50.00    -6000.00
01684              50.00    -6400.00
01685             -24.80    -6400.00
01686             -50.00    -6800.00
01687              50.00    -7000.00
01688              10.40    -6800.00
01689             -50.00    -7200.00
01690              15.60    -7200.00
01691              38.80    -7400.00
01692             -25.60    -7600.00
01693             -28.00    -7600.00
01694              39.60    -8000.00
01695              -1.20    -8000.00
01696             -33.20    -8400.00
01697              13.60    -8400.00
01698              15.20    -8400.00
01699             -14.80    -8800.00
01700             -11.60    -8800.00
01701              21.60    -9000.00
01702              -4.00    -9000.00
01703             -23.20    -9200.00
01704              15.60    -9200.00
01705               6.00    -9200.00
01706             -17.20    -9600.00
01707               0.80    -9600.00
01708              12.00    -9600.00
01709              -7.60    -9800.00
01710             -11.60    -9800.00
01711               9.60   -10000.00
01712              -0.40   -10200.00
01713             -12.00   -10000.00
01714               6.00   -10000.00
01715               4.40   -10400.00
01716             -11.60   -10400.00
01717               0.40   -10400.00
01718               7.20   -10600.00
01719              -7.20   -10600.00
01720              -5.60   -10600.00
01721               5.60   -10800.00
01722               0.40   -10600.00
01723              -8.80   -10800.00
01724               1.20   -10800.00
01725               4.00   -11000.00
01726              -8.80   -11000.00
01727               0.40   -10800.00
01728               4.40   -11000.00
01729              -5.60   -11000.00
01730              -3.60   -11000.00
01731               3.20   -11200.00
01732               0.80   -11000.00
01733              -6.00   -11000.00
01734              -1.20   -11200.00
01735               4.00   -11200.00
01736              -4.40   -11000.00
01737              -2.80   -11000.00
01738               2.00   -11200.00
01739              -2.80   -11000.00
01740              -2.80   -11000.00
01741               0.80   -10800.00
01742              -0.40   -11000.00
01743              -4.00   -11000.00
01744              -0.80   -11000.00
01745               2.40   -10800.00
01746              -2.80   -10800.00
01747              -2.80   -10800.00
01748               0.80   -10800.00
01749              -0.40   -10800.00
01750              -2.40   -10800.00
01751              -1.20   -10600.00
01752               0.40   -10600.00
01753              -2.00   -10600.00
01754              -1.20   -10400.00
01755               0.40   -10400.00
01756              -1.60   -10400.00
01757              -2.00   -10200.00
01758              -0.40   -10000.00
01759               0.40   -10000.00
01760              -2.00   -10000.00
01761              -2.40    -9800.00
01762              -0.40    -9600.00
01763              -1.20    -9800.00
01764              -1.20    -9600.00
01765              -0.80    -9200.00
01766              -1.20    -9200.00
01767              -1.20    -9200.00
01768              -0.80    -9000.00
01769              -0.80    -9000.00
01770              -2.00    -8800.00
01771              -1.20    -8800.00
01772               0.40    -8400.00
01773              -1.20    -8400.00
01774              -1.60    -8400.00
01775              -1.20    -8200.00
01776              -1.20    -8000.00
01777              -0.80    -7600.00
01778              -1.20    -7800.00
01779              -1.20    -7600.00
01780              -1.20    -7400.00
01781              -0.80    -7200.00
01782              -0.40    -7200.00
01783              -1.20    -7000.00
01784              -1.20    -6800.00
01785               0.00    -6600.00
01786              -1.20    -6400.00
01787              -0.80    -6400.00
01788              -0.80    -6000.00
01789              -2.00    -5800.00
01790              -0.80    -5600.00
01791               0.40    -5600.00
01792              -0.80    -5400.00
01793              -1.60    -5200.00
01794              -0.40    -5000.00
01795              -0.40    -4600.00
01796              -1.20    -4600.00
01797              -0.80    -4400.00
01798              -0.80    -4200.00
01799              -0.80    -4000.00
01800               0.40    -4000.00
01801               0.40    -3600.00
01802              -2.00    -3400.00
01803              -0.40    -3200.00
01804              -0.40    -3200.00
01805              -0.40    -2800.00
01806              -0.40    -2600.00
01807              -0.40    -2400.00
01808              -0.80    -2200.00
01809               0.40    -2000.00
01810               0.40    -1800.00
01811              -0.40    -1600.00
01812               0.40    -1600.00
01813               0.40    -1000.00
01814              -0.80    -1000.00
01815               0.40     -800.00
01816              -0.80     -400.00
01817              -0.80     -400.00
01818               0.80     -200.00
01819              -0.40        0.00
01820              -0.80      200.00
01821               1.60      400.00
01822               1.20      600.00
01823              -1.20      800.00
01824               0.80      800.00
01825               1.20     1000.00
01826              -0.40     1200.00
01827              -0.80     1400.00
01828               3.60     1800.00
01829              11.60     2000.00
01830              15.60     2600.00
01831             -24.40     2800.00
01832             -27.60     2800.00
01833               4.40     2600.00
01834               2.40     2800.00
01835              44.40     3400.00
01836             -14.80     3400.00
01837             -50.00     3600.00
01838              50.00     4000.00
01839              43.20     4000.00
01840             -50.00     4000.00
01841              50.00     4600.00
01842              50.00     4400.00
01843             -50.00     4800.00
01844               9.60     5000.00
01845              50.00     5000.00
01846             -30.00     5400.00
01847             -20.40     5600.00
01848              14.00     5400.00
01849              32.80     6000.00
01850             -36.00     6000.00
01851             -28.00     6400.00
01852              50.00     6400.00
01853             -17.20     6400.00
01854             -50.00     6800.00
01855              50.00     6800.00
01856              12.80     7000.00
01857             -47.60     7400.00
01858              14.00     7600.00
01859              29.60     7600.00
01860             -20.40     7800.00
01861             -14.00     8000.00
01862              28.40     8200.00
01863              -1.60     8200.00
01864             -24.40     8400.00
01865              14.80     8400.00
01866              14.80     8600.00
01867             -16.80     8800.00
01868              -3.60     8800.00
01869              19.60     8800.00
01870              -5.20     9200.00
01871             -16.00     9200.00
01872              13.60     9400.00
01873               7.60     9600.00
01874             -13.60     9600.00
01875               2.40     9800.00
01876              13.20     9600.00
01877              -6.80    10000.00
01878              -6.40    10000.00
01879              11.20    10000.00
01880               0.80    10200.00
01881              -8.80    10400.00
01882               6.80    10400.00
01883               6.00    10200.00
01884              -8.40    10400.00
01885               0.80    10600.00
01886               8.40    10600.00
01887              -4.00    10600.00
01888              -4.00    10600.00
01889               8.00    10800.00
01890               1.20    10800.00
01891              -5.60    10800.00
01892               3.60    11000.00
01893               3.60    11000.00
01894              -4.00    11000.00
01895               1.20    11200.00
01896               4.00    11000.00
01897              -2.00    11000.00
01898              -1.20    11200.00
01899               3.60    11000.00
01900               1.20    11200.00
01901              -2.40    11000.00
01902               1.20    11200.00
01903               4.00    11200.00
01904              -1.20    11000.00
01905              -0.80    11000.00
01906               2.80    11200.00
01907              -0.40    11000.00
01908              -1.20    11000.00
01909               2.00    11000.00
01910               1.20    11000.00
01911              -2.00    11000.00
01912               0.80    11000.00
01913               2.80    11000.00
01914              -0.80    10800.00
01915              -0.80    10800.00
01916               2.00    10800.00
01917               0.80    10600.00
01918               0.00    10800.00
01919               0.40    10400.00
01920               1.20    10800.00
01921               0.80    10600.00
01922               0.40    10400.00
01923               0.80    10200.00
01924               0.40    10200.00
01925              -0.40    10200.00
01926               0.80    10000.00
01927               2.00    10000.00
01928               0.40    10000.00
01929              -0.40     9600.00
01930               0.80     9600.00
01931               0.80     9400.00
01932               0.40     9600.00
01933               0.80     9400.00
01934               0.80     9200.00
01935               0.80     9200.00
01936               0.40     9000.00
01937               0.80     8800.00
01938               0.40     8800.00
01939              -0.40     8600.00
01940               1.20     8400.00
01941               0.80     8400.00
01942              -0.40     8200.00
01943               0.40     8000.00
01944               0.80     8000.00
01945               0.80     7800.00
01946               0.40     7600.00
01947               0.80     7600.00
01948               0.40     7200.00
01949               0.40     7200.00
01950               0.80     7000.00
01951               0.00     6800.00
01952              -0.40     6800.00
01953               0.40     6400.00
01954               0.80     6400.00
01955               0.40     6200.00
01956              -0.40     6000.00
01957               0.40     6000.00
01958               0.00     5600.00
01959               0.40     5400.00
01960               0.40     5200.00
01961              -0.40     5000.00
01962              -0.40     4800.00
01963               0.40     4600.00
01964               0.40     4400.00
01965              -0.80     4400.00
01966               0.40     4000.00
01967               0.00     3800.00
01968               0.40     3600.00
01969               0.40     3600.00
01970              -0.80     3400.00
01971              -0.80     3000.00
01972               0.80     2800.00
01973               0.00     2800.00
01974              -0.80     2400.00
01975              -0.40     2200.00
01976               0.40     2000.00
01977              -0.40     2000.00
01978               0.00     1600.00
01979              -0.40     1400.00
01980              -0.80     1400.00
01981               0.40     1000.00
01982               0.40      800.00
01983              -0.40      600.00
01984              -0.40      400.00
01985              -0.40      200.00
01986               0.00        0.00
01987              -0.40     -200.00
01988               0.80     -200.00
01989               1.20     -400.00
01990              -1.20     -600.00
01991              -0.80    -1000.00
01992               0.40    -1000.00
01993               0.00    -1200.00
01994              -1.20    -1600.00
01995               2.40    -1600.00
01996              24.40    -2000.00
01997               4.00    -2600.00
01998             -47.60    -2800.00
01999             -10.80    -2800.00
02000               3.60    -2400.00
02001              50.00    -2800.00
02002              20.00    -3600.00
02003             -50.00    -3000.00
02004              50.00    -3400.00
02005              50.00    -4200.00
02006             -50.00    -3600.00
02007              -4.40    -4200.00
02008              50.00    -4800.00
02009             -50.00    -4200.00
02010             -46.40    -4600.00
02011              50.00    -5200.00
02012             -27.20    -4600.00
02013             -37.60    -5600.00
02014              -0.40    -5400.00
02015              40.40    -5600.00
02016              10.80    -6000.00
02017             -50.00    -5800.00
02018              50.00    -6400.00
02019              50.00    -6400.00
02020             -50.00    -6600.00
02021              30.80    -7000.00
02022              50.00    -6800.00
02023             -50.00    -7200.00
02024             -16.40    -7400.00
02025              44.00    -7200.00
02026               2.00    -7600.00
02027             -42.80    -7800.00
02028              20.00    -8000.00
02029              25.20    -8200.00
02030             -36.00    -8200.00
02031              -4.40    -8400.00
02032              23.20    -8400.00
02033              -4.40    -8400.00
02034             -20.00    -8800.00
02035              11.60    -8800.00
02036              13.60    -9000.00
02037             -26.00    -9000.00
02038               1.60    -9200.00
02039              16.80    -9400.00
02040             -14.00    -9400.00
02041              -8.40    -9600.00
02042              12.00    -9800.00
02043               0.80    -9800.00
02044             -15.20   -10000.00
02045               2.80   -10000.00
02046               7.60   -10000.00
02047             -11.60   -10000.00
02048              -1.20   -10200.00
02049               9.20   -10400.00
02050              -7.60   -10400.00
02051              -6.80   -10400.00
02052               8.80   -10600.00
02053              -1.60   -10600.00
02054              -9.20   -10800.00
02055               2.80   -10800.00
02056               4.40   -10800.00
02057              -7.20   -10800.00
02058              -3.60   -11000.00
02059               6.00   -10800.00
02060              -5.60   -11000.00
02061              -4.40   -11000.00
02062               5.60   -11000.00
02063              -2.40   -11000.00
02064              -5.60   -11000.00
02065               2.00   -11000.00
02066               2.00   -10800.00
02067              -4.40   -11200.00
02068              -3.60   -11000.00
02069               3.60   -11200.00
02070              -2.00   -11000.00
02071              -3.60   -11000.00
02072               1.60   -11200.00
02073              -1.20   -11200.00
02074              -3.60   -11000.00
02075               0.40   -11000.00
02076               0.40   -11000.00
02077              -2.80   -11000.00
02078              -2.00   -11000.00
02079               2.40   -11000.00
02080              -1.20   -10800.00
02081              -4.00   -10800.00
02082               0.40   -10800.00
02083              -0.40   -10800.00
02084              -2.00   -10800.00
02085              -1.20   -10400.00
02086              -0.40   -10600.00
02087              -1.20   -10600.00
02088              -2.00   -10400.00
02089               0.40   -10400.00
02090              -0.80   -10200.00
02091              -2.40   -10400.00
02092              -1.20   -10000.00
02093               0.40   -10000.00
02094              -1.20   -10000.00
02095              -2.80    -9800.00
02096              -0.80    -9800.00
02097              -0.80    -9600.00
02098              -2.40    -9600.00
02099              -0.80    -9600.00
02100              -1.20    -9400.00
02101              -1.20    -9200.00
02102              -0.80    -9200.00
02103              -0.40    -9000.00
02104              -1.20    -8800.00
02105              -2.40    -8800.00
02106              -0.80    -8600.00
02107               0.40    -8400.00
02108              -2.00    -8200.00
02109              -2.40    -8200.00
02110              -0.40    -8200.00
02111              -0.80    -8000.00
02112              -2.00    -7600.00
02113              -0.40    -7600.00
02114               0.40    -7400.00
02115              -2.40    -7200.00
02116              -0.40    -7200.00
02117               0.00    -6800.00
02118              -2.40    -6800.00
02119              -0.80    -6800.00
02120               0.40    -6400.00
02121              -1.20    -6400.00
02122              -1.20    -6200.00
02123              -0.40    -6000.00
02124              -0.80    -5800.00
02125              -0.80    -5600.00
02126              -0.40    -5400.00
02127              -0.80    -5200.00
02128              -1.20    -5200.00
02129               0.00    -4800.00
02130               0.00    -4600.00
02131              -1.20    -4400.00
02132               0.00    -4200.00
02133               0.40    -4200.00
02134              -0.40    -4000.00
02135               0.40    -3600.00
02136              -1.60    -3600.00
02137              -0.80    -3400.00
02138              -0.40    -3200.00
02139              -0.40    -2800.00
02140              -0.40    -2600.00
02141              -0.40    -2600.00
02142              -1.20    -2400.00
02143               0.40    -2200.00
02144               0.40    -2000.00
02145              -0.80    -1800.00
02146              -0.40    -1600.00
02147               0.40    -1200.00
02148              -0.40    -1000.00
02149              -0.40    -1000.00
02150               0.00     -800.00
02151              -0.40     -400.00
02152               0.40     -400.00
02153              -0.80        0.00
02154               1.20        0.00
02155              -0.40      400.00
02156               0.80      400.00
02157               1.20      800.00
02158              -1.20      800.00
02159              -0.40     1200.00
02160               2.00     1200.00
02161              -2.00     1400.00
02162               0.40     1800.00
02163               8.40     2000.00
02164              18.00     2600.00
02165              -8.80     2600.00
02166             -33.20     3000.00
02167              -2.00     2800.00
02168               0.80     2800.00
02169              26.00     3200.00
02170              23.60     3600.00
02171             -50.00     3200.00
02172              32.80     4000.00
02173              50.00     3800.00
02174             -50.00     3800.00
02175             -32.80     4600.00
02176              50.00     4400.00
02177             -50.00     4400.00
02178             -45.60     5400.00
02179              50.00     4800.00
02180              -5.60     5200.00
02181             -31.20     5600.00
02182               3.60     5400.00
02183              33.20     6000.00
02184              -3.60     6000.00
02185             -50.00     6200.00
02186              47.20     6400.00
02187              37.20     6400.00
02188             -50.00     6800.00
02189              17.60     6800.00
02190              48.40     7000.00
02191             -42.00     7200.00
02192             -12.40     7400.00
02193              36.80     7600.00
02194              -2.40     7800.00
02195             -26.00     7800.00
02196              17.20     8200.00
02197              16.40     8200.00
02198             -24.80     8400.00
02199              -1.60     8400.00
02200              23.20     8600.00
02201              -7.20     8800.00
02202             -14.00     8800.00
02203              14.80     9200.00
02204               8.40     9000.00
02205             -18.40     9200.00
02206               2.40     9400.00
02207              16.40     9400.00
02208              -9.20     9600.00
02209              -6.40     9600.00
02210              13.60     9800.00
02211               1.20    10000.00
02212             -10.80    10000.00
02213               6.80    10000.00
02214               7.20    10000.00
02215              -8.80    10200.00
02216               0.80    10400.00
02217               9.20    10400.00
02218              -4.40    10400.00
02219              -5.20    10400.00
02220               8.00    10600.00
02221               1.20    10600.00
02222              -7.20    10800.00
02223               4.40    10800.00
02224               6.00    10800.00
02225              -5.20    10800.00
02226              -0.80    11000.00
02227               6.00    11000.00
02228              -2.40    11000.00
02229              -2.00    10800.00
02230               4.80    11200.00
02231              -0.40    11000.00
02232              -2.40    11200.00
02233               2.00    11000.00
02234               2.40    11200.00
02235              -1.20    11000.00
02236              -2.00    11200.00
02237               4.00    11200.00
02238               1.20    11200.00
02239              -2.40    11200.00
02240               2.00    11200.00
02241               2.00    11000.00
02242              -1.20    11000.00
02243               0.40    11000.00
02244               2.40    11000.00
02245              -0.40    11200.00
02246              -0.80    11000.00
02247               3.60    11000.00
02248               2.80    11000.00
02249              -6.00    10800.00
02250               5.60    10800.00
02251              -4.40    10800.00
02252               0.00    10600.00
02253               2.40    10800.00
02254              -4.00    10600.00
02255              13.60    10400.00
02256              -4.00    10600.00
02257               2.40    10200.00
02258              -0.40    10400.00
02259              -1.20    10000.00
02260              -4.40    10200.00
02261               1.20    10000.00
02262               4.40    10000.00
02263              -0.40    10000.00
02264               4.00     9800.00
02265               2.00     9600.00
02266               2.40     9400.00
02267              -4.40     9400.00
02268               0.00     9200.00
02269              -3.60     9200.00
02270              -0.80     9200.00
02271               5.60     9200.00
02272               2.00     8800.00
02273               2.00     8600.00
02274               4.00     8600.00
02275              -1.60     8400.00
02276              -4.40     8200.00
02277               0.40     8000.00
02278               0.00     8000.00
02279               0.40     7800.00
02280               2.00     7600.00
02281               2.40     7400.00
02282               1.20     7200.00
02283              -0.80     7200.00
02284              -0.40     7000.00
02285              -1.20     6800.00
02286              -2.00     6600.00
02287              -0.40     6400.00
02288               0.80     6400.00
02289               2.00     6200.00
02290               1.20     6000.00
02291              -1.20     6000.00
02292               0.40     5800.00
02293               0.80     5600.00
02294              -1.60     5400.00
02295              -1.20     5000.00
02296               0.40     4800.00
02297               0.40     4800.00
02298              -0.40     4600.00
02299               0.40     4400.00
02300               0.40     4000.00
02301              -0.40     3800.00
02302               0.40     3800.00
02303               0.00     3600.00
02304              -2.00     3400.00
02305               0.40     3000.00
02306               0.80     3000.00
02307              -0.80     2800.00
02308               0.40     2600.00
02309               0.40     2400.00
02310              -0.80     2200.00
02311               0.40     2000.00
02312               0.40     1800.00
02313              -1.20     1600.00
02314              -0.80     1400.00
02315               0.40     1200.00
02316               0.00      800.00
02317              -0.40      800.00
02318               0.80      600.00
02319               0.00      400.00
02320              -0.80        0.00
02321              -0.40     -200.00
02322               0.40     -200.00
02323               2.00     -400.00
02324              -0.40     -800.00
02325              -0.40     -800.00
02326               0.80    -1000.00
02327               0.40    -1000.00
02328              -1.20    -1400.00
02329               0.40    -1600.00
02330              12.40    -1800.00
02331              24.80    -2600.00
02332             -33.20    -2800.00
02333             -29.60    -3000.00
02334               2.40    -2600.00
02335              29.60    -2400.00
02336              50.00    -3600.00
02337             -50.00    -3200.00
02338             -31.20    -3000.00
02339              50.00    -4200.00
02340             -50.00    -3800.00
02341             -50.00    -4000.00
02342              50.00    -4800.00
02343               2.40    -4200.00
02344             -50.00    -4400.00
02345              50.00    -5000.00
02346              32.80    -4800.00
02347             -50.00    -5200.00
02348              -8.00    -5600.00
02349              19.60    -5400.00
02350              43.60    -5800.00
02351             -50.00    -5800.00
02352             -10.00    -6000.00
02353              50.00    -6400.00
02354             -50.00    -6400.00
02355             -39.60    -6600.00
02356              50.00    -6800.00
02357             -26.00    -7200.00
02358             -47.20    -7400.00
02359              31.20    -7200.00
02360              27.20    -7600.00
02361             -37.60    -7800.00
02362             -11.60    -7600.00
02363              40.40    -8000.00
02364             -18.40    -8000.00
02365             -24.80    -8400.00
02366              20.80    -8400.00
02367               8.40    -8600.00
02368             -18.80    -8800.00
02369              -2.80    -8800.00
02370              22.40    -9000.00
02371             -15.60    -9000.00
02372             -15.60    -9000.00
02373              19.60    -9200.00
02374              -2.40    -9200.00
02375             -15.20    -9400.00
02376               5.20    -9600.00
02377              10.00    -9800.00
02378             -12.00    -9800.00
02379              -6.80   -10000.00
02380              12.40   -10000.00
02381              -5.60   -10200.00
02382             -10.00   -10000.00
02383              10.00   -10400.00
02384               0.40   -10400.00
02385             -12.00   -10400.00
02386               4.40   -10600.00
02387               4.80   -10600.00
02388              -9.20   -10600.00
02389              -2.40   -10600.00
02390               7.20   -10600.00
02391              -3.20   -10800.00
02392              -7.60   -10800.00
02393               5.20   -10800.00
02394              -0.40   -10800.00
02395              -7.60   -10800.00
02396               4.00   -11200.00
02397               1.60   -11000.00
02398              -5.60   -11000.00
02399              -1.20   -11000.00
02400               2.40   -11000.00
02401              -1.60   -11000.00
02402              -5.20   -11000.00
02403               0.80   -11200.00
02404               2.00   -11000.00
02405              -4.40   -11200.00
02406              -0.80   -11000.00
02407               1.20   -11000.00
02408              -2.40   -11000.00
02409              -2.00   -11000.00
02410               0.80   -11000.00
02411              -1.20   -11000.00
02412              -4.00   -11000.00
02413              -0.40   -10800.00
02414               1.20   -11000.00
02415              -3.60   -10800.00
02416              -2.00   -10800.00
02417               0.40   -10800.00
02418              -1.20   -10800.00
02419              -2.40   -10600.00
02420              -1.20   -10600.00
02421               0.40   -10600.00
02422              -2.40   -10600.00
02423              -1.20   -10400.00
02424               0.00   -10400.00
02425              -2.00   -10200.00
02426              -2.00   -10000.00
02427               0.00   -10000.00
02428              -0.40   -10000.00
02429              -2.80   -10000.00
02430              -1.20    -9800.00
02431              -0.40    -9800.00
02432              -2.00    -9600.00
02433              -0.80    -9600.00
02434              -1.20    -9400.00
02435              -1.20    -9200.00
02436              -1.20    -9200.00
02437              -0.80    -9200.00
02438              -0.80    -8800.00
02439              -2.00    -8800.00
02440              -1.20    -8600.00
02441               0.00    -8400.00
02442              -0.80    -8400.00
02443              -1.20    -8400.00
02444              -1.20    -8200.00
02445              -1.20    -8200.00
02446              -0.40    -8000.00
02447              -1.20    -7600.00
02448              -1.20    -7400.00
02449              -0.80    -7400.00
02450              -0.40    -7200.00
02451              -0.40    -7200.00
02452              -1.20    -6800.00
02453              -1.20    -6800.00
02454              -0.80    -6600.00
02455              -0.80    -6400.00
02456              -0.80    -6200.00
02457              -1.20    -6000.00
02458              -1.20    -5800.00
02459              -0.40    -5800.00
02460              -0.40    -5600.00
02461              -0.80    -5200.00
02462              -1.20    -5000.00
02463              -0.40    -5000.00
02464              -0.40    -4600.00
02465              -0.80    -4600.00
02466              -0.80    -4400.00
02467               0.00    -4000.00
02468              -0.80    -4000.00
02469               0.40    -3600.00
02470              -1.20    -3600.00
02471              -0.80    -3400.00
02472              -0.80    -3200.00
02473              -0.40    -3000.00
02474               0.40    -2800.00
02475               0.40    -2600.00
02476              -1.20    -2400.00
02477              -0.80    -2400.00
02478               0.80    -2000.00
02479              -0.80    -2000.00
02480              -1.20    -1600.00
02481               0.40    -1400.00
02482              -0.80    -1200.00
02483              -0.80     -800.00
02484               0.40     -800.00
02485              -1.20     -600.00
02486              -0.40     -400.00
02487               0.40     -200.00
02488              -0.80        0.00
02489               1.20      400.00
02490               0.80      400.00
02491               0.00      600.00
02492              -0.40      800.00
02493               0.40     1000.00
02494               0.80     1200.00
02495              -0.40     1400.00
02496              -0.40     1600.00
02497               3.60     1800.00
02498              14.80     2400.00
02499               9.60     2600.00
02500             -31.20     2800.00
02501             -18.40     2800.00
02502               4.00     2400.00
02503               8.40     2800.00
02504              44.80     3600.00
02505             -44.40     3200.00
02506             -43.20     3800.00
02507              50.00     3800.00
02508             -20.40     3800.00
02509             -50.00     4200.00
02510              50.00     4600.00
02511              24.40     4400.00
02512             -50.00     4800.00
02513              42.80     5000.00
02514              30.00     5000.00
02515             -34.80     5600.00
02516              -9.60     5400.00
02517              22.00     5600.00
02518              23.20     6000.00
02519             -50.00     6000.00
02520               2.40     6400.00
02521              50.00     6400.00
02522             -50.00     6600.00
02523             -30.00     6800.00
02524              50.00     6800.00
02525             -13.20     7000.00
02526             -38.00     7400.00
02527              27.60     7400.00
02528              18.00     7600.00
02529             -26.80     7800.00
02530              -2.00     8000.00
02531              28.00     8000.00
02532             -13.60     8400.00
02533             -18.40     8400.00
02534              22.40     8600.00
02535               6.80     8600.00
02536             -19.20     8800.00
02537               5.20     8800.00
02538              18.00     9200.00
02539             -13.20     9200.00
02540              -8.80     9400.00
02541              18.00     9200.00
02542              -0.80     9400.00
02543             -13.60     9600.00
02544               8.80     9600.00
02545              10.00     9600.00
02546             -11.60    10000.00
02547              -1.20    10000.00
02548              11.60    10000.00
02549              -5.20    10000.00
02550              -6.80    10200.00
02551              10.40    10200.00
02552               1.60    10400.00
02553              -8.80    10400.00
02554               4.40    10600.00
02555               6.80    10800.00
02556              -7.60    10800.00
02557              -1.20    10800.00
02558               8.40    10800.00
02559              -0.80    10800.00
02560              -4.00    10800.00
02561               4.00    10800.00
02562               1.20    11000.00
02563              -2.80    11000.00
02564               2.00    11000.00
02565               2.80    11000.00
02566              -1.20    11000.00
02567              -0.80    11200.00
02568               2.40    11000.00
02569               1.20    11000.00
02570              -2.80    11000.00
02571               1.20    11200.00
02572               4.00    11200.00
02573              -1.20    11000.00
02574              -0.40    11200.00
02575               2.40    11200.00
02576              -0.80    11000.00
02577              -0.80    11200.00
02578               2.80    11200.00
02579               0.40    11000.00
02580              -0.80    11000.00
02581               2.40    11000.00
02582               2.00    10800.00
02583              -0.80    11000.00
02584               0.80    10800.00
02585               2.00    10800.00
02586               0.40    10800.00
02587               0.40    10600.00
02588               0.80    10600.00
02589               0.80    10600.00
02590               0.40    10400.00
02591               1.20    10400.00
02592               0.80    10200.00
02593               0.40    10200.00
02594               0.40    10200.00
02595               2.00    10000.00
02596               0.80    10000.00
02597               0.40    10000.00
02598               0.80     9600.00
02599               0.80     9600.00
02600               0.80     9600.00
02601               0.00     9400.00
02602               0.40     9400.00
02603               0.80     9200.00
02604               0.40     9200.00
02605               0.00     8800.00
02606               0.80     8800.00
02607               0.00     8600.00
02608               0.80     8600.00
02609               1.20     8400.00
02610               0.80     8400.00
02611               0.40     8200.00
02612               0.40     8000.00
02613               0.00     7800.00
02614               0.40     7800.00
02615               0.00     7600.00
02616              -0.40     7400.00
02617               0.00     7200.00
02618               0.80     7200.00
02619               0.40     7000.00
02620               0.40     6800.00
02621               0.00     6800.00
02622               0.40     6400.00
02623               0.80     6400.00
02624               0.00     6200.00
02625               0.40     6000.00
02626               0.40     5800.00
02627               0.40     5600.00
02628               0.80     5400.00
02629              -0.40     5200.00
02630              -0.80     4800.00
02631               0.40     4800.00
02632               0.40     4600.00
02633              -0.80     4400.00
02634               0.00     4400.00
02635               0.40     3800.00
02636              -0.40     3800.00
02637               0.80     3600.00
02638              -0.40     3400.00
02639              -0.80     3200.00
02640               0.80     3200.00
02641               0.00     2800.00
02642              -0.40     2600.00
02643               0.40     2600.00
02644              -0.80     2200.00
02645              -0.40     2200.00
02646               0.40     2000.00
02647               0.40     1800.00
02648              -0.40     1400.00
02649               0.00     1400.00
02650               0.40     1000.00
02651              -0.40      800.00
02652              -0.40      600.00
02653               0.40      400.00
02654              -0.40        0.00
02655              -0.40        0.00
02656               0.40     -200.00
02657               0.80     -200.00
02658               0.80     -600.00
02659              -1.20     -800.00
02660              -0.40    -1000.00
02661               0.40    -1200.00
02662              -0.40    -1400.00
02663              -0.80    -1400.00
02664               5.20    -1800.00
02665              30.40    -2200.00
02666             -13.60    -2600.00
02667             -47.20    -2800.00
02668              -3.60    -2800.00
02669               8.40    -2400.00
02670              50.00    -3000.00
02671             -21.20    -3600.00
02672             -50.00    -3000.00
02673              50.00    -3800.00
02674              50.00    -4200.00
02675             -50.00    -3600.00
02676              50.00    -4400.00
02677              50.00    -4400.00
02678             -50.00    -4200.00
02679              18.00    -4800.00
02680              50.00    -5000.00
02681             -50.00    -5000.00
02682             -23.20    -5600.00
02683               4.00    -5600.00
02684              49.20    -6000.00
02685             -25.20    -6000.00
02686             -50.00    -6000.00
02687              50.00    -6600.00
02688               3.20    -6200.00
02689             -50.00    -6600.00
02690              50.00    -7000.00
02691              28.80    -6800.00
02692             -50.00    -7400.00
02693               5.60    -7400.00
02694              42.40    -7400.00
02695             -18.00    -7600.00
02696             -35.20    -7600.00
02697              36.00    -8000.00
02698               7.60    -8000.00
02699             -36.40    -8200.00
02700               8.80    -8400.00
02701              18.80    -8400.00
02702             -12.00    -8800.00
02703             -15.20    -8600.00
02704              19.60    -8800.00
02705               2.40    -9000.00
02706             -26.00    -9200.00
02707              12.00    -9200.00
02708              10.80    -9200.00
02709             -17.20    -9400.00
02710              -2.40    -9600.00
02711              12.80    -9600.00
02712              -4.80    -9800.00
02713             -13.20    -9800.00
02714               8.80   -10000.00
02715               3.60   -10000.00
02716             -12.40   -10000.00
02717               4.00   -10200.00
02718               6.80   -10400.00
02719             -10.80   -10400.00
02720              -2.40   -10400.00
02721               8.40   -10600.00
02722              -6.00   -10600.00
02723              -6.80   -10600.00
02724               5.20   -10800.00
02725               2.00   -10800.00
02726              -8.80   -10800.00
02727               0.80   -10800.00
02728               4.40   -10800.00
02729              -7.60   -10800.00
02730              -0.80   -10800.00
02731               5.20   -11200.00
02732              -4.40   -11000.00
02733              -4.00   -11200.00
02734               2.40   -11000.00
02735               0.40   -11000.00
02736              -5.60   -11200.00
02737              -2.00   -11000.00
02738               3.20   -11200.00
02739              -2.80   -11000.00
02740              -2.80   -11000.00
02741               1.60   -11200.00
02742              -2.40   -11200.00
02743              -2.40   -11000.00
02744               0.40   -11000.00
02745              -0.40   -11000.00
02746              -4.00   -11000.00
02747              -1.60   -11000.00
02748               1.60   -11000.00
02749              -2.80   -10800.00
02750              -2.80   -11000.00
02751               0.40   -10800.00
02752              -0.80   -10800.00
02753              -2.00   -10800.00
02754              -1.20   -10600.00
02755               0.00   -10600.00
02756              -2.00   -10600.00
02757              -1.20   -10400.00
02758               0.40   -10400.00
02759              -2.40   -10400.00
02760              -2.40   -10400.00
02761              -0.40   -10000.00
02762               0.00   -10000.00
02763              -2.00   -10000.00
02764              -2.40    -9800.00
02765              -0.40    -9800.00
02766              -1.20    -9800.00
02767              -1.20    -9600.00
02768              -0.80    -9400.00
02769              -0.80    -9200.00
02770              -1.20    -9200.00
02771              -1.20    -9200.00
02772              -0.80    -8800.00
02773              -1.20    -8800.00
02774              -2.00    -8800.00
02775               0.00    -8400.00
02776              -0.40    -8400.00
02777              -1.20    -8200.00
02778              -1.20    -8200.00
02779              -0.80    -8000.00
02780              -0.80    -7800.00
02781              -1.20    -7600.00
02782              -0.80    -7600.00
02783              -0.40    -7400.00
02784              -1.20    -7200.00
02785               0.40    -7000.00
02786              -1.60    -6800.00
02787              -1.20    -6600.00
02788               0.00    -6600.00
02789              -0.80    -6400.00
02790              -0.40    -6200.00
02791              -0.80    -6200.00
02792              -1.60    -6000.00
02793              -0.40    -5800.00
02794              -0.40    -5600.00
02795              -0.80    -5400.00
02796              -0.80    -5200.00
02797              -0.40    -5000.00
02798               0.40    -4600.00
02799              -0.80    -4600.00
02800              -0.40    -4400.00
02801              -0.80    -4200.00
02802              -1.20    -4000.00
02803              -0.40    -4000.00
02804               0.40    -3600.00
02805              -2.40    -3600.00
02806              -1.20    -3200.00
02807               0.00    -3200.00
02808              -0.40    -2800.00
02809              -1.20    -2600.00
02810              -0.40    -2600.00
02811              -0.40    -2400.00
02812              -0.80    -2000.00
02813               0.40    -2000.00
02814              -0.80    -1600.00
02815              -0.80    -1400.00
02816              -0.40    -1200.00
02817              -0.40    -1000.00
02818              -0.40     -800.00
02819              -1.20     -600.00
02820              -0.80     -400.00
02821               0.80     -200.00
02822              -0.40        0.00
02823              -0.80      400.00
02824               0.80      400.00
02825               2.00      400.00
02826              -1.20      800.00
02827               0.00      800.00
02828               1.20     1200.00
02829              -0.40     1200.00
02830              -0.80     1600.00
02831               2.40     1800.00
02832              10.00     2200.00
02833              18.00     2400.00
02834             -19.60     2800.00
02835             -30.00     2800.00
02836               3.60     2600.00
02837               1.20     2800.00
02838              40.40     3400.00
02839              -1.60     3200.00
02840             -50.00     3400.00
02841              50.00     4000.00
02842              50.00     3800.00
02843             -50.00     4000.00
02844              24.80     4600.00
02845              50.00     4400.00
02846             -50.00     4800.00
02847              -8.40     5200.00
02848              50.00     4800.00
02849             -24.80     5400.00
02850             -24.40     5600.00
02851              12.00     5400.00
02852              34.40     6000.00
02853             -26.00     6000.00
02854             -39.20     6200.00
02855              50.00     6400.00
02856               0.80     6600.00
02857             -50.00     6800.00
02858              44.40     6800.00
02859              24.80     7200.00
02860             -48.80     7200.00
02861               6.00     7600.00
02862              34.00     7600.00
02863             -16.40     7800.00
02864             -18.40     7800.00
02865              27.60     8000.00
02866               3.60     8400.00
02867             -26.40     8400.00
02868              11.60     8400.00
02869              16.40     8600.00
02870             -14.80     8600.00
02871              -6.00     8800.00
02872              18.40     9000.00
02873              -1.60     9000.00
02874             -16.00     9200.00
02875              10.40     9400.00
02876              10.40     9400.00
02877             -12.00     9600.00
02878              -0.80     9600.00
02879              13.20     9800.00
02880              -4.40    10000.00
02881              -8.80    10000.00
02882               9.20    10000.00
02883               3.60    10200.00
02884              -9.20    10200.00
02885               4.40    10400.00
02886               7.60    10400.00
02887              -7.60    10400.00
02888              -0.80    10400.00
02889               8.40    10600.00
02890              -2.40    10600.00
02891              -5.60    10800.00
02892               6.80    10800.00
02893               2.80    10800.00
02894              -6.00    10800.00
02895               2.00    11000.00
02896               4.40    11000.00
02897              -4.00    11000.00
02898               0.40    11000.00
02899               5.20    11000.00
02900              -1.20    11200.00
02901              -1.20    11200.00
02902               3.60    11200.00
02903               2.00    11000.00
02904              -2.00    11200.00
02905               0.40    11200.00
02906               3.60    11000.00
02907               0.40    11000.00
02908              -0.80    11200.00
02909               2.80    11000.00
02910               0.80    11000.00
02911              -0.80    11200.00
02912               2.00    11200.00
02913               2.00    11000.00
02914              -1.20    11000.00
02915               0.80    11000.00
02916               3.20    10800.00
02917              -0.40    10800.00
02918              -0.80    10800.00
02919               2.40    10800.00
02920               0.80    10800.00
02921               0.00    10600.00
02922               0.80    10800.00
02923               0.80    10400.00
02924               0.40    10400.00
02925               0.80    10400.00
02926               0.80    10400.00
02927               0.40    10400.00
02928               0.40    10000.00
02929               0.40    10000.00
02930               2.00    10000.00
02931               1.20     9800.00
02932               0.00     9800.00
02933               0.40     9600.00
02934               1.20     9400.00
02935              -0.80     9400.00
02936              -0.80     9400.00
02937               1.20     9200.00
02938               1.20     9200.00
02939              -1.20     9200.00
02940               0.40     8800.00
02941               1.60     8800.00
02942              -0.80     8800.00
02943               0.40     8600.00
02944               2.00     8400.00
02945              -0.80     8200.00
02946              -0.40     8000.00
02947               0.40     7800.00
02948               0.00     7600.00
02949               0.80     7600.00
02950              -0.40     7600.00
02951              -0.80     7200.00
02952               2.00     7000.00
02953               0.40     7000.00
02954              -2.40     6800.00
02955               2.00     6600.00
02956               0.80     6400.00
02957              -2.00     6400.00
02958               2.00     6200.00
02959               1.20     6000.00
02960              -2.40     5800.00
02961               0.80     5600.00
02962               1.20     5400.00
02963              -1.20     5200.00
02964              -0.80     5000.00
02965               1.20     4800.00
02966               0.40     4800.00
02967              -0.40     4400.00
02968               0.40     4400.00
02969              -0.40     4000.00
02970              -0.40     3800.00
02971               0.40     3800.00
02972               0.00     3600.00
02973              -0.40     3200.00
02974               0.40     3000.00
02975              -0.40     3000.00
02976              -0.40     2800.00
02977               0.00     2600.00
02978              -1.20     2400.00
02979               0.00     2000.00
02980               0.80     2000.00
02981              -0.40     1600.00
02982              -0.40     1600.00
02983               0.40     1400.00
02984               0.00     1200.00
02985              -0.40      800.00
02986              -0.40      600.00
02987              -0.40      400.00
02988              -0.80      200.00
02989              -0.40        0.00
02990               0.40     -200.00
02991               0.80     -400.00
02992               1.20     -600.00
02993              -0.80     -800.00
02994              -1.20     -800.00
02995               0.80    -1000.00
02996               0.40    -1200.00
02997              -1.20    -1200.00
02998               2.00    -1600.00
02999              20.00    -2000.00
03000              10.80    -2600.00
03001             -44.40    -2800.00
03002             -16.40    -3000.00
03003               2.40    -2400.00
03004              46.80    -2800.00
03005              34.40    -3600.00
03006             -50.00    -3000.00
03007              35.60    -3200.00
03008              50.00    -4200.00
03009             -50.00    -3600.00
03010             -46.00    -4000.00
03011              50.00    -5000.00
03012             -50.00    -4200.00
03013             -50.00    -4600.00
03014              50.00    -5000.00
03015              -9.20    -4800.00
03016             -45.60    -5400.00
03017              -3.60    -5400.00
03018              34.80    -5600.00
03019              24.40    -6200.00
03020             -50.00    -6000.00
03021              40.40    -6400.00
03022              50.00    -6400.00
03023             -50.00    -6400.00
03024               9.20    -6800.00
03025              50.00    -6800.00
03026             -50.00    -6800.00
03027             -26.80    -7400.00
03028              42.40    -7200.00
03029              10.80    -7600.00
03030             -44.00    -7600.00
03031              10.40    -7800.00
03032              33.20    -8200.00
03033             -32.40    -8000.00
03034             -12.00    -8400.00
03035              24.40    -8400.00
03036              -0.40    -8600.00
03037             -21.60    -8800.00
03038               7.60    -8800.00
03039              18.40    -9000.00
03040             -24.40    -9200.00
03041              -3.60    -9200.00
03042              19.60    -9200.00
03043             -10.80    -9400.00
03044             -10.80    -9600.00
03045              10.80    -9600.00
03046               4.00    -9800.00
03047             -14.80    -9800.00
03048               0.40    -9800.00
03049              10.40   -10000.00
03050             -10.40   -10000.00
03051              -4.00   -10000.00
03052              10.40   -10400.00
03053              -5.60   -10400.00
03054              -8.80   -10400.00
03055               7.60   -10400.00
03056               0.80   -10600.00
03057             -10.40   -10600.00
03058               2.00   -10600.00
03059               5.60   -10800.00
03060              -6.00   -10800.00
03061              -4.40   -10800.00
03062               6.00   -11000.00
03063              -4.40   -11000.00
03064              -6.00   -11000.00
03065               5.20   -11000.00
03066              -1.20   -11200.00
03067              -6.00   -11000.00
03068               0.00   -11000.00
03069               2.40   -11000.00
03070              -3.60   -11200.00
03071              -5.60   -11200.00
03072               2.80   -11200.00
03073               0.80   -11000.00
03074              -5.60   -11000.00
03075               0.40   -11000.00
03076               0.80   -11000.00
03077              -4.00   -11000.00
03078              -1.20   -11000.00
03079               0.80   -11000.00
03080              -2.40   -11200.00
03081              -4.00   -11000.00
03082               1.20   -10800.00
03083              -0.40   -11000.00
03084              -4.00   -11000.00
03085              -2.00   -10800.00
03086               0.80   -10800.00
03087              -0.40   -10600.00
03088              -4.00   -10600.00
03089               0.40   -10600.00
03090               1.20   -10600.00
03091              -4.00   -10400.00
03092               2.00   -10400.00
03093              -2.00   -10400.00
03094              -3.20   -10200.00
03095               0.80   -10200.00
03096              -1.60   -10000.00
03097              -0.80   -10000.00
03098              -2.00    -9800.00
03099              -1.20    -9800.00
03100              -0.80    -9600.00
03101              -0.40    -9600.00
03102              -1.20    -9600.00
03103              -2.00    -9400.00
03104               0.80    -9200.00
03105              -1.20    -9200.00
03106              -2.00    -8800.00
03107               0.00    -9000.00
03108              -2.00    -8800.00
03109              -0.80    -8600.00
03110              -0.80    -8400.00
03111              -0.80    -8400.00
03112              -0.80    -8200.00
03113              -2.40    -8200.00
03114              -0.80    -8000.00
03115               1.20    -7800.00
03116              -2.40    -7600.00
03117              -1.20    -7600.00
03118               0.80    -7200.00
03119              -1.20    -7200.00
03120              -2.00    -7000.00
03121              -0.40    -6800.00
03122              -1.20    -6600.00
03123              -0.40    -6600.00
03124               0.40    -6400.00
03125              -1.20    -6200.00
03126              -1.20    -6000.00
03127              -0.40    -5800.00
03128              -0.80    -5600.00
03129              -0.80    -5600.00
03130              -0.40    -5200.00
03131              -1.20    -5000.00
03132              -0.80    -4800.00
03133              -0.40    -4600.00
03134              -1.20    -4400.00
03135              -1.20    -4200.00
03136               0.40    -4200.00
03137              -0.80    -4000.00
03138              -0.40    -3800.00
03139              -1.20    -3600.00
03140              -0.80    -3400.00
03141              -1.20    -3200.00
03142               0.80    -2800.00
03143              -0.80    -2600.00
03144              -1.20    -2600.00
03145              -0.40    -2400.00
03146              -0.80    -2200.00
03147              -0.40    -2000.00
03148              -0.40    -1800.00
03149              -0.40    -1600.00
03150              -0.80    -1400.00
03151              -1.20    -1000.00
03152               0.40    -1000.00
03153              -0.80     -800.00
03154              -2.00     -400.00
03155               0.80     -200.00
03156               0.40     -200.00
03157              -1.20        0.00
03158               0.40      400.00
03159               2.80      400.00
03160              -0.40      600.00
03161              -2.00      800.00
03162               1.20     1000.00
03163               1.20     1200.00
03164              -1.20     1400.00
03165               1.20     1800.00
03166               7.20     2000.00
03167              17.20     2400.00
03168              -2.40     2600.00
03169             -31.60     2800.00
03170              -6.80     2800.00
03171               0.80     2600.00
03172              20.40     3200.00
03173              33.20     3600.00
03174             -50.00     3200.00
03175              10.00     4000.00
03176              50.00     4000.00
03177             -50.00     3800.00
03178             -50.00     4400.00
03179              50.00     4600.00
03180             -30.00     4400.00
03181             -50.00     5200.00
03182              50.00     5000.00
03183               5.20     5200.00
03184             -34.00     5600.00
03185               0.00     5600.00
03186              30.00     5800.00
03187               5.60     6000.00
03188             -50.00     6200.00
03189              34.00     6400.00
03190              50.00     6400.00
03191             -50.00     6800.00
03192               2.40     6800.00
03193              50.00     7000.00
03194             -34.40     7200.00
03195             -21.60     7200.00
03196              35.60     7600.00
03197               4.40     7800.00
03198             -28.00     7800.00
03199              10.80     7800.00
03200              21.20     8000.00
03201             -22.80     8400.00
03202              -7.20     8400.00
03203              23.60     8400.00
03204              -2.80     8600.00
03205             -16.80     8600.00
03206              11.60     8800.00
03207              12.00     9200.00
03208             -17.60     9000.00
03209              -1.20     9400.00
03210              18.00     9400.00
03211              -6.80     9400.00
03212              -9.20     9600.00
03213              12.40     9600.00
03214               3.60     9800.00
03215             -12.00    10000.00
03216               3.60    10000.00
03217               9.20    10000.00
03218              -7.60    10200.00
03219              -1.20    10400.00
03220              10.40    10200.00
03221              -2.40    10400.00
03222              -6.00    10600.00
03223               7.60    10400.00
03224               2.80    10600.00
03225              -7.20    10600.00
03226               2.80    10800.00
03227               6.80    11000.00
03228              -4.40    10800.00
03229              -2.00    10800.00
03230               5.60    11000.00
03231              -1.20    11000.00
03232              -2.40    11000.00
03233               4.40    11000.00
03234               2.00    11200.00
03235              -2.00    11200.00
03236               1.20    11000.00
03237               2.80    11200.00
03238              -0.80    11200.00
03239              -2.00    11200.00
03240               3.60    11200.00
03241               2.00    11000.00
03242              -2.00    11000.00
03243               1.60    11000.00
03244               2.40    11000.00
03245              -0.80    11200.00
03246               0.80    11000.00
03247               2.40    11000.00
03248              -0.40    11000.00
03249               0.00    11000.00
03250               2.00    11000.00
03251               1.20    11000.00
03252              -0.40    10800.00
03253               0.00    10800.00
03254               2.00    10800.00
03255               0.80    10800.00
03256              -1.20    10600.00
03257               0.80    10600.00
03258               2.00    10400.00
03259              -0.40    10400.00
03260               0.40    10200.00
03261               1.60    10400.00
03262              -0.40    10200.00
03263               0.40    10200.00
03264               1.20    10000.00
03265               0.80    10000.00
03266              -1.20     9800.00
03267               0.40     9800.00
03268               1.20     9600.00
03269               0.40     9400.00
03270              -0.80     9400.00
03271               0.80     9400.00
03272               0.40     9200.00
03273              -0.40     9200.00
03274               0.80     8800.00
03275               0.80     8800.00
03276              -0.80     8600.00
03277               0.80     8600.00
03278               0.80     8400.00
03279               0.40     8400.00
03280               0.00     8200.00
03281               0.40     8000.00
03282               0.40     7800.00
03283               0.40     7800.00
03284              -0.40     7400.00
03285               0.40     7400.00
03286               0.00     7200.00
03287               0.40     7200.00
03288               0.40     6800.00
03289               0.00     6800.00
03290               0.40     6400.00
03291               0.80     6400.00
03292               0.40     6200.00
03293              -0.40     6000.00
03294               0.40     6000.00
03295               0.40     5800.00
03296               0.00     5400.00
03297               0.00     5400.00
03298               0.40     5200.00
03299              -0.40     4800.00
03300               0.40     4800.00
03301               0.40     4600.00
03302              -0.40     4400.00
03303              -0.40     4200.00
03304               0.80     4000.00
03305               0.40     3800.00
03306              -0.40     3600.00
03307               0.40     3400.00
03308               0.00     3200.00
03309              -0.80     3000.00
03310               0.40     3000.00
03311               0.40     2800.00
03312              -0.80     2400.00
03313              -0.40     2200.00
03314               0.40     2000.00
03315              -0.40     1600.00
03316              -0.40     1800.00
03317               0.40     1400.00
03318              -0.80     1200.00
03319              -0.40      800.00
03320               0.40      800.00
03321              -0.40      400.00
03322              -1.20      200.00
03323               0.00      200.00
03324              -0.40        0.00
03325              -0.40     -400.00
03326               1.20     -400.00
03327               0.40     -600.00
03328              -1.20     -800.00
03329               0.00    -1000.00
03330               0.40    -1200.00
03331              -1.20    -1400.00
03332               0.00    -1600.00
03333               8.80    -1800.00
03334              28.80    -2400.00
03335             -28.40    -2800.00
03336             -37.20    -3000.00
03337               0.80    -2800.00
03338              21.60    -2400.00
03339              50.00    -3400.00
03340             -50.00    -3200.00
03341             -50.00    -3000.00
03342              50.00    -4000.00
03343             -29.60    -4000.00
03344             -50.00    -3800.00
03345              50.00    -4800.00
03346              40.80    -4200.00
03347             -50.00    -4400.00
03348              50.00    -5000.00
03349              50.00    -4600.00
03350             -50.00    -5400.00
03351             -11.20    -5600.00
03352              14.00    -5600.00
03353              48.40    -6000.00
03354             -50.00    -5800.00
03355             -32.40    -6000.00
03356              50.00    -6600.00
03357             -50.00    -6400.00
03358             -50.00    -6800.00
03359              50.00    -6800.00
03360             -10.00    -6800.00
03361             -50.00    -7400.00
03362              24.80    -7200.00
03363              34.00    -7400.00
03364             -33.20    -7600.00
03365             -19.60    -8000.00
03366              42.80    -8000.00
03367             -10.80    -8000.00
03368             -30.00    -8200.00
03369              19.20    -8400.00
03370              12.00    -8400.00
03371             -18.40    -8800.00
03372              -6.00    -8800.00
03373              22.80    -9000.00
03374             -10.80    -9000.00
03375             -20.00    -9200.00
03376              19.60    -9200.00
03377               0.80    -9200.00
03378             -16.40    -9600.00
03379               3.60    -9600.00
03380              11.60    -9800.00
03381             -10.00    -9800.00
03382              -8.80    -9800.00
03383              11.60   -10000.00
03384              -1.60   -10000.00
03385             -11.20   -10000.00
03386               7.60   -10400.00
03387               2.80   -10400.00
03388             -12.40   -10600.00
03389               2.80   -10400.00
03390               6.00   -10600.00
03391              -8.80   -10600.00
03392              -4.40   -10600.00
03393               6.80   -10800.00
03394              -1.20   -10800.00
03395              -8.80   -10800.00
03396               3.60   -10800.00
03397               2.40   -10800.00
03398              -8.80   -11000.00
03399               0.80   -10800.00
03400               3.60   -11200.00
03401              -6.00   -11000.00
03402              -3.60   -11000.00
03403               3.60   -11200.00
03404              -0.80   -11000.00
03405              -6.80   -11200.00
03406              -0.40   -11000.00
03407               3.60   -11200.00
03408              -5.20   -11200.00
03409              -1.20   -11000.00
03410               1.20   -11000.00
03411              -3.60   -11200.00
03412              -2.40   -11000.00
03413               0.80   -11000.00
03414              -1.20   -11200.00
03415              -3.60   -10800.00
03416              -0.40   -11000.00
03417               0.80   -11000.00
03418              -3.20   -10800.00
03419              -2.00   -10800.00
03420              -0.40   -10800.00
03421              -1.20   -10800.00
03422              -0.80   -10800.00
03423              -1.20   -10600.00
03424              -0.80   -10600.00
03425              -2.00   -10600.00
03426               0.40   -10400.00
03427              -1.20   -10400.00
03428              -2.40   -10400.00
03429              -0.80   -10200.00
03430              -0.40   -10200.00
03431              -0.40   -10000.00
03432              -2.00   -10000.00
03433              -0.40   -10000.00
03434              -1.20    -9800.00
03435              -2.40    -9600.00
03436               1.20    -9600.00
03437              -0.40    -9400.00
03438              -5.20    -9200.00
03439               0.40    -9200.00
03440               2.40    -9200.00
03441              -3.60    -8800.00
03442              -2.40    -8800.00
03443               1.20    -8800.00
03444              -1.20    -8600.00
03445              -2.40    -8400.00
03446               0.80    -8400.00
03447              -0.40    -8200.00
03448              -1.20    -8000.00
03449              -0.40    -8000.00
03450              -1.20    -7600.00
03451              -1.20    -7600.00
03452              -0.40    -7200.00
03453              -1.20    -7200.00
03454              -1.20    -7200.00
03455              -1.20    -6800.00
03456              -2.40    -6800.00
03457              -1.20    -6600.00
03458              -0.80    -6400.00
03459              -0.40    -6200.00
03460              -0.80    -6000.00
03461              -2.00    -5800.00
03462               0.40    -5800.00
03463               0.40    -5600.00
03464              -1.60    -5200.00
03465              -1.60    -5200.00
03466              -0.40    -5000.00
03467              -0.40    -4800.00
03468              -2.40    -4600.00
03469              -0.80    -4400.00
03470               0.00    -4200.00
03471              -2.00    -4000.00
03472              -1.20    -4000.00
03473               0.40    -3400.00
03474              -1.20    -3400.00
03475              -2.00    -3200.00
03476               0.40    -3000.00
03477               0.80    -2800.00
03478              -1.20    -2600.00
03479              -1.20    -2400.00
03480              -0.40    -2200.00
03481               0.40    -2000.00
03482              -1.20    -1800.00
03483              -0.40    -1600.00
03484               0.40    -1600.00
03485              -0.40    -1200.00
03486              -0.40    -1000.00
03487              -0.40     -800.00
03488              -1.20     -600.00
03489              -0.80     -400.00
03490               0.40     -200.00
03491               0.40        0.00
03492              -0.40      400.00
03493               2.00      400.00
03494               0.80      600.00
03495              -1.20      800.00
03496               0.00      800.00
03497               2.00     1200.00
03498               0.40     1400.00
03499              -1.20     1600.00
03500               4.00     1800.00
03501              13.60     2200.00
03502              13.20     2400.00
03503             -28.00     2800.00
03504             -22.00     2800.00
03505               5.20     2600.00
03506               4.80     2800.00
03507              47.20     3600.00
03508             -30.80     3200.00
03509             -50.00     3600.00
03510              50.00     4000.00
03511              10.80     3800.00
03512             -50.00     4200.00
03513              50.00     4600.00
03514              49.20     4400.00
03515             -50.00     4800.00
03516              29.20     5200.00
03517              42.40     5000.00
03518             -34.00     5600.00
03519             -14.00     5600.00
03520              18.40     5600.00
03521              28.40     6000.00
03522             -46.00     6000.00
03523             -12.00     6200.00
03524              50.00     6400.00
03525             -36.80     6400.00
03526             -43.20     6800.00
03527              50.00     6800.00
03528              -1.60     7200.00
03529             -44.00     7200.00
03530              22.00     7200.00
03531              23.60     7800.00
03532             -24.80     7800.00
03533              -7.60     8000.00
03534              28.00     8000.00
03535              -7.20     8400.00
03536             -22.80     8400.00
03537              18.80     8400.00
03538              12.00     8600.00
03539             -19.20     8800.00
03540               0.40     8800.00
03541              20.40     9000.00
03542             -10.40     9200.00
03543             -12.80     9200.00
03544              16.80     9400.00
03545               2.80     9400.00
03546             -14.00     9600.00
03547               6.00     9600.00
03548              10.80     9800.00
03549              -9.20    10000.00
03550              -4.00    10000.00
03551              12.00    10200.00
03552              -1.60    10200.00
03553              -8.00    10200.00
03554               9.20    10200.00
03555               4.00    10400.00
03556              -8.80    10400.00
03557               2.80    10400.00
03558               7.60    10600.00
03559              -5.60    10800.00
03560              -2.40    10800.00
03561               8.00    11000.00
03562              -0.40    10800.00
03563              -4.80    10800.00
03564               4.00    10800.00
03565               2.80    11000.00
03566              -4.00    11000.00
03567               2.40    11000.00
03568               4.40    11200.00
03569              -1.60    11200.00
03570              -0.80    11200.00
03571               3.60    11000.00
03572               2.00    11200.00
03573              -2.40    11200.00
03574               1.20    11000.00
03575               4.40    11200.00
03576              -1.20    11000.00
03577              -0.80    11200.00
03578               3.60    11200.00
03579              -0.40    11000.00
03580              -1.20    11200.00
03581               2.80    11200.00
03582               1.20    11000.00
03583              -1.20    11000.00
03584               1.60    11000.00
03585               2.40    10800.00
03586              -1.20    11000.00
03587              -0.40    10800.00
03588               2.00    10800.00
03589               0.40    10800.00
03590              -0.40    10800.00
03591               0.80    10600.00
03592               0.80    10400.00
03593              -0.40    10400.00
03594               0.80    10400.00
03595               0.80    10400.00
03596               0.00    10200.00
03597               0.40    10000.00
03598               0.80    10200.00
03599               1.20    10000.00
03600               0.40    10000.00
03601               0.00    10000.00
03602               0.80     9600.00
03603               0.80     9600.00
03604              -0.80     9400.00
03605               0.40     9200.00
03606               0.80     9200.00
03607               0.40     9200.00
03608               0.40     8800.00
03609               0.40     8800.00
03610               0.40     8600.00
03611               0.40     8600.00
03612               0.80     8400.00
03613               0.80     8400.00
03614               0.00     8200.00
03615              -0.40     8000.00
03616               0.40     7800.00
03617               0.40     7800.00
03618               0.40     7600.00
03619               0.40     7600.00
03620               0.40     7200.00
03621               0.80     7000.00
03622               0.40     7000.00
03623              -0.40     6800.00
03624               0.40     6800.00
03625               0.40     6400.00
03626               0.40     6400.00
03627               0.80     6200.00
03628              -0.80     6000.00
03629              -0.40     5600.00
03630               0.80     5600.00
03631               0.40     5400.00
03632               0.40     5200.00
03633               0.40     5000.00
03634               0.40     4800.00
03635               0.40     4600.00
03636               0.40     4400.00
03637              -0.80     4400.00
03638               0.00     4000.00
03639               0.40     3800.00
03640               0.40     3600.00
03641              -0.40     3400.00
03642              -0.40     3200.00
03643               0.40     3000.00
03644               0.40     2800.00
03645              -0.40     2800.00
03646              -0.40     2400.00
03647               0.00     2200.00
03648               0.00     2200.00
03649              -0.40     1800.00
03650               0.40     1600.00
03651              -0.80     1400.00
03652              -0.40     1200.00
03653              -0.40     1000.00
03654              -0.40      800.00
03655              -0.80      600.00
03656              -0.40      400.00
03657              -0.80      200.00
03658               0.00        0.00
03659               0.00     -200.00
03660               0.80     -400.00
03661               0.80     -600.00
03662              -1.20     -800.00
03663              -0.80    -1000.00
03664               0.40    -1000.00
03665              -0.40    -1400.00
03666              -1.20    -1600.00
03667               2.80    -1800.00
03668              27.60    -2200.00
03669              -5.60    -2600.00
03670             -49.20    -2800.00
03671              -6.00    -3000.00
03672               5.60    -2400.00
03673              50.00    -2800.00
03674              -0.80    -3600.00
03675             -50.00    -2800.00
03676              50.00    -3600.00
03677              50.00    -4200.00
03678             -50.00    -3600.00
03679              40.40    -4200.00
03680              50.00    -4600.00
03681             -50.00    -4200.00
03682             -11.20    -4800.00
03683              50.00    -4800.00
03684             -42.40    -4800.00
03685             -29.20    -5600.00
03686               1.20    -5200.00
03687              45.60    -5600.00
03688              -6.80    -6000.00
03689             -50.00    -6000.00
03690              50.00    -6600.00
03691              30.00    -6200.00
03692             -50.00    -6600.00
03693              50.00    -7000.00
03694              45.20    -6800.00
03695             -50.00    -7200.00
03696              -4.40    -7200.00
03697              44.00    -7200.00
03698              -8.00    -7600.00
03699             -39.20    -7600.00
03700              29.20    -8000.00
03701              16.80    -8000.00
03702             -36.40    -8200.00
03703               2.40    -8400.00
03704              21.20    -8200.00
03705              -8.40    -8600.00
03706             -18.40    -8800.00
03707              16.40    -8800.00
03708               8.40    -9000.00
03709             -26.80    -9200.00
03710               8.40    -9200.00
03711              14.00    -9400.00
03712             -16.40    -9400.00
03713              -4.80    -9600.00
03714              13.60    -9600.00
03715              -2.40    -9800.00
03716             -14.00   -10000.00
03717               6.80   -10000.00
03718               4.80   -10000.00
03719             -12.40   -10200.00
03720               2.00   -10200.00
03721               7.60   -10400.00
03722              -9.60   -10600.00
03723              -4.40   -10400.00
03724               8.80   -10400.00
03725              -4.40   -10600.00
03726              -7.60   -10800.00
03727               5.20   -10800.00
03728               2.80   -10800.00
03729              -8.80   -11000.00
03730              -0.80   -11000.00
03731               4.80   -10800.00
03732              -7.60   -10800.00
03733              -2.40   -11000.00
03734               4.00   -11000.00
03735              -4.40   -11000.00
03736              -3.60   -11000.00
03737               2.00   -10800.00
03738              -0.40   -11200.00
03739              -4.00   -11000.00
03740              -2.80   -11200.00
03741               2.00   -11000.00
03742              -1.20   -11200.00
03743              -2.80   -11200.00
03744               0.80   -11000.00
03745              -1.20   -11000.00
03746              -2.80   -11000.00
03747              -0.80   -11000.00
03748              -0.40   -11200.00
03749              -4.00   -10800.00
03750              -2.00   -10800.00
03751               3.20   -10800.00
03752              -2.00   -10800.00
03753              -4.40   -11000.00
03754               0.80   -10800.00
03755               0.40   -10800.00
03756              -2.40   -10800.00
03757              -0.80   -10600.00
03758               0.80   -10600.00
03759              -2.40   -10600.00
03760              -2.40   -10400.00
03761               0.40   -10400.00
03762              -2.00   -10400.00
03763              -2.40   -10200.00
03764              -0.40   -10000.00
03765               0.80   -10000.00
03766              -1.20   -10000.00
03767              -2.40    -9800.00
03768              -0.40    -9600.00
03769              -0.80    -9800.00
03770              -1.20    -9600.00
03771              -0.40    -9400.00
03772              -1.20    -9400.00
03773              -1.20    -9200.00
03774              -0.40    -9000.00
03775              -1.20    -9000.00
03776              -2.00    -8800.00
03777              -1.20    -8800.00
03778               0.00    -8600.00
03779              -0.80    -8400.00
03780              -1.20    -8400.00
03781              -1.20    -8200.00
03782              -1.20    -8200.00
03783              -1.20    -8000.00
03784              -1.20    -7600.00
03785              -1.20    -7600.00
03786              -0.80    -7400.00
03787              -1.20    -7400.00
03788              -0.40    -7200.00
03789              -1.20    -7000.00
03790              -2.40    -6800.00
03791              -0.80    -6600.00
03792              -0.80    -6600.00
03793              -1.20    -6200.00
03794              -0.80    -6000.00
03795              -0.80    -6000.00
03796              -0.80    -5600.00
03797              -1.20    -5600.00
03798              -1.20    -5600.00
03799              -1.20    -5200.00
03800              -1.20    -5000.00
03801              -0.40    -4800.00
03802              -0.40    -4600.00
03803              -1.60    -4400.00
03804              -1.20    -4200.00
03805              -0.80    -4000.00
03806              -0.80    -4000.00
03807               0.40    -3600.00
03808              -1.60    -3600.00
03809              -0.80    -3400.00
03810               0.00    -3000.00
03811              -0.40    -2800.00
03812              -0.80    -2800.00
03813              -0.40    -2600.00
03814              -1.20    -2400.00
03815              -0.40    -2000.00
03816               0.40    -1800.00
03817              -1.20    -1600.00
03818              -1.20    -1600.00
03819               0.80    -1200.00
03820              -0.40    -1000.00
03821              -0.80     -800.00
03822               0.40     -800.00
03823              -0.40     -400.00
03824              -0.80     -200.00
03825               0.40        0.00
03826               0.40      200.00
03827               0.40      400.00
03828               1.20      600.00
03829              -0.40      600.00
03830              -0.80      800.00
03831               0.80     1200.00
03832               1.20     1200.00
03833              -1.20     1400.00
03834               2.00     1800.00
03835               8.80     2000.00
03836              18.40     2400.00
03837             -14.80     2600.00
03838             -32.80     2800.00
03839               2.00     2800.00
03840               0.80     2600.00
03841              34.00     3600.00
03842              10.40     3400.00
03843             -50.00     3400.00
03844              50.00     4000.00
03845              50.00     3800.00
03846             -50.00     4000.00
03847              -0.40     4600.00
03848              50.00     4400.00
03849             -50.00     4600.00
03850             -26.00     5200.00
03851              50.00     4800.00
03852             -17.60     5400.00
03853             -28.00     5600.00
03854               7.20     5400.00
03855              34.40     6000.00
03856             -15.60     6200.00
03857             -48.40     6400.00
03858              50.00     6400.00
03859              18.80     6400.00
03860             -50.00     6800.00
03861              32.80     6800.00
03862              36.40     7000.00
03863             -46.80     7600.00
03864              -2.40     7200.00
03865              35.60     7800.00
03866              -9.20     7800.00
03867             -23.60     7800.00
03868              22.00     8200.00
03869              10.40     8200.00
03870             -26.80     8400.00
03871               4.00     8400.00
03872              21.20     8400.00
03873             -10.80     8800.00
03874             -10.80     8800.00
03875              18.00     8800.00
03876               3.60     9200.00
03877             -18.80     9200.00
03878               7.20     9200.00
03879              13.60     9400.00
03880             -12.00     9600.00
03881              -2.80     9600.00
03882              13.60     9600.00
03883              -2.00    10000.00
03884             -10.00    10000.00
03885               8.80    10000.00
03886               5.60    10200.00
03887              -9.20    10200.00
03888               3.60    10400.00
03889               8.80    10400.00
03890              -5.60    10400.00
03891              -2.00    10400.00
03892               8.40    10400.00
03893              -1.20    10600.00
03894              -4.40    10800.00
03895               5.20    10800.00
03896               3.60    10800.00
03897              -4.00    10800.00
03898               1.20    10800.00
03899               5.20    11000.00
03900              -2.40    11000.00
03901              -0.40    11000.00
03902               4.40    11000.00
03903              -0.40    11000.00
03904              -2.00    11200.00
03905               2.40    11000.00
03906               2.80    11200.00
03907              -2.40    11000.00
03908              -0.80    11200.00
03909               4.40    11000.00
03910               0.40    11200.00
03911              -2.00    11200.00
03912               2.80    11000.00
03913               0.80    11000.00
03914              -1.20    11200.00
03915               1.20    11000.00
03916               2.00    11000.00
03917              -1.20    11000.00
03918              -0.40    11000.00
03919               2.40    10800.00
03920               0.40    10800.00
03921              -1.20    11000.00
03922               1.20    10800.00
03923               2.00    10800.00
03924               0.40    10800.00
03925               0.00    10600.00
03926               0.80    10600.00
03927               0.40    10400.00
03928              -0.40    10400.00
03929               0.80    10400.00
03930               0.40    10200.00
03931               0.00    10200.00
03932               0.80    10200.00
03933               2.00    10000.00
03934               0.40    10000.00
03935              -0.80     9800.00
03936               0.40     9600.00
03937               0.80     9600.00
03938               0.40     9600.00
03939              -0.40     9400.00
03940               1.20     9400.00
03941               0.80     9200.00
03942               0.40     9000.00
03943               0.80     8800.00
03944               0.40     8800.00
03945              -0.40     8600.00
03946               1.20     8400.00
03947               1.20     8400.00
03948               0.00     8400.00
03949               0.00     8000.00
03950               0.40     8000.00
03951               0.40     7800.00
03952              -0.40     7600.00
03953               0.40     7600.00
03954               0.80     7200.00
03955               0.80     7000.00
03956               2.00     7000.00
03957               0.80     7000.00
03958               0.80     6800.00
03959               1.20     6400.00
03960              -0.40     6200.00
03961              -0.80     6200.00
03962              -1.20     6000.00
03963              -2.40     5800.00
03964               0.40     5600.00
03965               2.00     5400.00
03966               0.80     5400.00
03967               2.40     5200.00
03968               2.80     4800.00
03969              -0.80     4800.00
03970              -1.20     4400.00
03971              -1.20     4200.00
03972              -2.80     4000.00
03973              -0.80     3800.00
03974               2.00     3800.00
03975               1.60     3600.00
03976               2.00     3200.00
03977               0.80     3200.00
03978              -1.20     2800.00
03979              -1.20     2800.00
03980              -2.80     2400.00
03981              -2.40     2200.00
03982               0.80     2200.00
03983               0.80     2000.00
03984               2.40     1800.00
03985               2.00     1600.00
03986              -0.80     1200.00
03987              -1.20     1200.00
03988              -2.40      800.00
03989              -3.60      800.00
03990              -0.80      400.00
03991               0.40      400.00
03992               1.20        0.00
03993               2.40     -200.00
03994               0.80     -200.00
03995               0.80     -400.00
03996              -2.40     -800.00
03997              -4.00     -800.00
03998              -0.40    -1000.00
03999               0.40    -1200.00
04000              -1.20    -1400.00
04001               2.80    -1600.00
04002              17.20    -2000.00
04003              18.00    -2600.00
04004             -40.40    -2800.00
04005             -23.20    -2800.00
04006               1.60    -2600.00
04007              38.80    -2600.00
04008              43.60    -3600.00
04009             -50.00    -3200.00
04010               4.40    -3200.00
04011              50.00    -4200.00
04012             -50.00    -3600.00
04013             -50.00    -4000.00
04014              50.00    -4800.00
04015             -45.60    -4200.00
04016             -50.00    -4400.00
04017              50.00    -5000.00
04018              11.20    -4600.00
04019             -50.00    -5600.00
04020              -5.20    -5400.00
04021              29.20    -5600.00
04022              34.80    -6000.00
04023             -50.00    -5800.00
04024              17.20    -6200.00
04025              50.00    -6400.00
04026             -50.00    -6400.00
04027             -12.40    -6800.00
04028              50.00    -6800.00
04029             -42.80    -6800.00
04030             -37.60    -7400.00
04031              39.60    -7200.00
04032              18.80    -7600.00
04033             -42.80    -7600.00
04034               0.80    -7800.00
04035              39.20    -8000.00
04036             -27.60    -8000.00
04037             -17.20    -8400.00
04038              24.80    -8400.00
04039               3.60    -8400.00
04040             -21.60    -8800.00
04041               2.40    -8800.00
04042              21.20    -9000.00
04043             -22.00    -9000.00
04044              -9.20    -9200.00
04045              21.20    -9400.00
04046              -7.20    -9200.00
04047             -13.60    -9600.00
04048               9.20    -9600.00
04049               6.80    -9800.00
04050             -14.80    -9800.00
04051              -2.80   -10000.00
04052              11.60   -10000.00
04053              -8.80   -10000.00
04054              -6.40   -10200.00
04055              10.80   -10200.00
04056              -2.80   -10600.00
04057             -10.80   -10600.00
04058               6.00   -10400.00
04059               2.00   -10600.00
04060             -10.00   -10800.00
04061               0.00   -10800.00
04062               6.40   -10800.00
04063              -4.40   -10800.00
04064              -5.60   -10800.00
04065               6.00   -10800.00
04066              -2.80   -10800.00
04067              -7.60   -10800.00
04068               5.20   -11000.00
04069              -0.80   -11200.00
04070              -6.00   -11000.00
04071               0.80   -11200.00
04072               2.80   -11000.00
04073              -2.80   -11000.00
04074              -4.40   -11000.00
04075               2.00   -11200.00
04076               0.40   -11000.00
04077              -5.20   -11200.00
04078               0.00   -11000.00
04079               0.40   -11000.00
04080              -2.80   -11000.00
04081              -0.80   -11000.00
04082               0.80   -11000.00
04083              -2.00   -11000.00
04084              -3.60   -11000.00
04085               0.80   -10800.00
04086               0.40   -10800.00
04087              -3.60   -10800.00
04088              -0.80   -10800.00
04089               0.40   -10800.00
04090              -0.80   -10600.00
04091              -2.00   -10600.00
04092              -1.20   -10600.00
04093              -0.40   -10600.00
04094              -1.20   -10400.00
04095              -1.20   -10400.00
04096              -0.40   -10400.00
04097              -1.20   -10000.00
04098              -1.20   -10000.00
04099               0.40   -10000.00
04100               0.40   -10000.00
04101              -2.40   -10000.00
04102              -2.00    -9800.00
04103               0.40    -9600.00
04104              -1.20    -9800.00
04105              -2.00    -9600.00
04106              -1.20    -9400.00
04107              -1.20    -9400.00
04108              -1.20    -9200.00
04109              -1.20    -9000.00
04110              -0.40    -9000.00
04111              -2.00    -8800.00
04112              -1.20    -8600.00
04113               0.40    -8400.00
04114              -1.20    -8400.00
04115              -1.20    -8400.00
04116              -1.20    -8000.00
04117              -0.40    -8000.00
04118              -1.20    -7600.00
04119              -2.00    -7600.00
04120              -1.20    -7600.00
04121              -1.20    -7400.00
04122              -1.20    -7200.00
04123              -0.80    -7200.00
04124              -1.20    -6800.00
04125              -1.20    -6800.00
04126              -0.40    -6600.00
04127              -0.80    -6400.00
04128              -1.20    -6400.00
04129              -1.20    -6000.00
04130              -1.20    -5800.00
04131              -0.40    -5600.00
04132              -0.80    -5600.00
04133              -1.20    -5200.00
04134              -1.20    -5000.00
04135              -0.40    -5000.00
04136              -0.40    -4600.00
04137              -1.20    -4600.00
04138              -0.80    -4200.00
04139              -0.40    -4200.00
04140              -0.80    -4000.00
04141               0.80    -3800.00
04142              -0.80    -3600.00
04143              -1.20    -3400.00
04144              -0.40    -3200.00
04145               0.00    -3000.00
04146              -0.80    -2800.00
04147              -0.80    -2600.00
04148              -0.80    -2400.00
04149               0.00    -2200.00
04150               0.40    -2000.00
04151              -0.40    -1800.00
04152              -0.80    -1600.00
04153              -0.40    -1200.00
04154              -0.40    -1000.00
04155               0.00     -800.00
04156               0.00     -800.00
04157              -0.40     -600.00
04158              -0.40     -400.00
04159               0.80        0.00
04160              -0.40        0.00
04161               0.40      400.00
04162               2.00      400.00
04163               0.40      600.00
04164              -1.20      800.00
04165               0.80     1200.00
04166               1.20     1000.00
04167              -0.80     1400.00
04168               0.40     1600.00
04169               5.60     1800.00
04170              16.80     2400.00
04171               3.60     2400.00
04172             -33.20     2800.00
04173             -10.80     2800.00
04174               2.80     2600.00
04175              13.20     3000.00
04176              40.40     3600.00
04177             -50.00     3200.00
04178             -15.20     3800.00
04179              50.00     4000.00
04180             -50.00     3800.00
04181             -50.00     4400.00
04182              50.00     4400.00
04183              -5.60     4400.00
04184             -50.00     5200.00
04185              50.00     5000.00
04186              16.40     4800.00
04187             -35.20     5600.00
04188              -4.40     5400.00
04189              26.40     5600.00
04190              14.00     6200.00
04191             -50.00     6000.00
04192              20.00     6400.00
04193              50.00     6400.00
04194             -50.00     6800.00
04195             -12.00     6800.00
04196              50.00     6800.00
04197             -26.40     7200.00
04198             -30.00     7200.00
04199              33.20     7600.00
04200              10.80     7800.00
04201             -29.20     7800.00
04202               5.60     8000.00
04203              24.80     8200.00
04204             -19.60     8400.00
04205             -12.00     8400.00
04206              24.40     8400.00
04207               1.20     8600.00
04208             -18.40     8800.00
04209               9.20     8800.00
04210              15.60     9000.00
04211             -16.40     9200.00
04212              -5.20     9200.00
04213              18.00     9400.00
04214              -4.00     9600.00
04215             -10.80     9600.00
04216              11.60     9600.00
04217               6.00    10000.00
04218             -11.60    10000.00
04219               2.40    10000.00
04220              10.40    10000.00
04221              -5.60    10200.00
04222              -4.00    10200.00
04223              10.40    10400.00
04224              -0.40    10400.00
04225              -7.60    10400.00
04226               6.80    10400.00
04227               4.40    10600.00
04228              -7.20    10800.00
04229               1.20    10800.00
04230               8.40    10800.00
04231              -3.60    11000.00
04232              -2.40    11000.00
04233               6.00    11000.00
04234              -0.40    10800.00
04235              -2.80    11000.00
04236               4.00    11000.00
04237               1.60    11000.00
04238              -2.80    11000.00
04239               0.80    11200.00
04240               3.20    11200.00
04241              -0.40    11000.00
04242              -2.40    11000.00
04243               2.80    11000.00
04244               2.40    11000.00
04245              -2.40    11200.00
04246               0.80    11200.00
04247               2.40    11200.00
04248              -0.80    11000.00
04249               0.40    11000.00
04250               2.40    11000.00
04251              -0.40    11000.00
04252              -0.80    11000.00
04253               2.80    11000.00
04254               0.80    10800.00
04255              -1.20    10800.00
04256               0.40    10800.00
04257               1.20    10800.00
04258               0.80    10800.00
04259               0.40    10600.00
04260               0.80    10600.00
04261               1.20    10400.00
04262               0.00    10400.00
04263               0.80    10200.00
04264               0.80    10400.00
04265               0.40    10400.00
04266               0.40    10200.00
04267               0.80    10000.00
04268               0.80    10000.00
04269              -0.40     9800.00
04270               0.80     9600.00
04271               1.20     9600.00
04272               1.20     9400.00
04273              -0.40     9400.00
04274               0.80     9400.00
04275               0.80     9200.00
04276               0.40     9000.00
04277               0.40     9000.00
04278               0.80     8800.00
04279              -0.40     8600.00
04280               0.80     8400.00
04281               1.20     8400.00
04282               0.80     8400.00
04283               0.00     8400.00
04284               0.40     8000.00
04285               1.20     7800.00
04286               0.40     7800.00
04287              -0.40     7600.00
04288               0.80     7400.00
04289               0.40     7200.00
04290               0.40     7000.00
04291               0.80     7000.00
04292              -0.40     6800.00
04293               0.00     6600.00
04294               0.80     6400.00
04295               0.40     6200.00
04296              -0.40     6200.00
04297               0.00     6000.00
04298               0.40     5600.00
04299               0.80     5400.00
04300               0.00     5400.00
04301               0.40     5200.00
04302               0.00     4800.00
04303               0.40     4800.00
04304              -0.40     4400.00
04305              -0.80     4400.00
04306               0.00     4200.00
04307              -0.40     4000.00
04308              -0.40     3800.00
04309               0.00     3600.00
04310              -0.40     3200.00
04311              -0.40     3200.00
04312               0.00     3000.00
04313               0.40     2800.00
04314              -0.40     2400.00
04315              -0.40     2400.00
04316               0.40     2200.00
04317              -0.40     2000.00
04318               0.40     2000.00
04319              -0.40     1600.00
04320              -1.20     1400.00
04321              -0.40     1200.00
04322              -0.40     1000.00
04323              -0.40      800.00
04324              -0.80      600.00
04325              -0.40      400.00
04326              -0.40        0.00
04327               0.00        0.00
04328               0.40     -200.00
04329               1.20     -400.00
04330               0.40     -800.00
04331              -1.20     -800.00
04332               0.40    -1000.00
04333               0.40    -1000.00
04334              -1.60    -1200.00
04335              -0.40    -1600.00
04336               7.20    -1600.00
04337              30.00    -2400.00
04338             -22.00    -2800.00
04339             -42.00    -2800.00
04340               0.00    -2800.00
04341              14.80    -2400.00
04342              50.00    -3200.00
04343             -50.00    -3400.00
04344             -50.00    -3000.00
04345              50.00    -4000.00
04346              10.80    -4000.00
04347             -50.00    -3600.00
04348              50.00    -4400.00
04349              50.00    -4400.00
04350             -50.00    -4400.00
04351              50.00    -5000.00
04352              50.00    -4800.00
04353             -50.00    -5200.00
04354             -15.60    -5600.00
04355               8.80    -5400.00
04356              50.00    -5800.00
04357             -46.00    -6000.00
04358             -50.00    -6000.00
04359              50.00    -6400.00
04360             -28.00    -6200.00
04361             -50.00    -6800.00
04362              50.00    -6800.00
04363               7.20    -6800.00
04364             -50.00    -7200.00
04365              18.00    -7200.00
04366              37.60    -7400.00
04367             -27.60    -7600.00
04368             -26.80    -7800.00
04369              40.40    -8000.00
04370              -2.80    -8200.00
04371             -32.80    -8400.00
04372              14.40    -8400.00
04373              14.80    -8400.00
04374             -15.20    -8600.00
04375             -11.60    -8600.00
04376              21.20    -9000.00
04377              -4.40    -9200.00
04378             -23.20    -9000.00
04379              15.60    -9200.00
04380               5.60    -9400.00
04381             -16.80    -9600.00
04382               1.20    -9600.00
04383              12.00    -9600.00
04384              -7.60    -9800.00
04385             -10.80   -10000.00
04386              10.00   -10000.00
04387              -0.40   -10000.00
04388             -12.00   -10000.00
04389               6.00   -10200.00
04390               4.40   -10400.00
04391             -12.00   -10400.00
04392               0.80   -10400.00
04393               7.60   -10600.00
04394              -7.60   -10600.00
04395              -5.20   -10800.00
04396               6.80   -10600.00
04397              -1.20   -10800.00
04398              -8.80   -10800.00
04399               2.80   -11000.00
04400               2.40   -10800.00
04401              -8.80   -11000.00
04402               0.80   -11000.00
04403               4.00   -11000.00
04404              -5.60   -11000.00
04405              -2.40   -11200.00
04406               2.80   -11000.00
04407               0.00   -11200.00
04408              -5.20   -11000.00
04409              -1.20   -11000.00
04410               2.80   -11000.00
04411              -4.00   -11000.00
04412              -2.40   -11200.00
04413               2.00   -11000.00
04414              -2.40   -11000.00
04415              -2.40   -11000.00
04416               0.80   -11000.00
04417              -0.40   -11000.00
04418              -3.20   -10800.00
04419              -0.80   -10800.00
04420               2.40   -10800.00
04421              -2.40   -10800.00
04422              -2.40   -10800.00
04423               0.00   -10800.00
04424              -0.80   -10600.00
04425              -2.00   -10600.00
04426              -1.20   -10600.00
04427               0.40   -10600.00
04428              -1.20   -10400.00
04429              -1.20   -10400.00
04430              -0.40   -10400.00
04431              -1.20   -10400.00
04432              -1.20   -10200.00
04433              -1.20   -10000.00
04434               0.40   -10000.00
04435              -1.20   -10000.00
04436              -2.40   -10000.00
04437              -0.40    -9800.00
04438              -0.80    -9600.00
04439              -2.00    -9600.00
04440              -1.20    -9200.00
04441              -1.20    -9200.00
04442              -1.20    -9200.00
04443              -1.20    -9200.00
04444              -0.80    -8800.00
04445              -2.00    -8800.00
04446              -2.00    -8600.00
04447              -0.40    -8400.00
04448              -0.40    -8400.00
04449              -2.00    -8200.00
04450              -1.60    -8200.00
04451              -0.80    -8000.00
04452              -0.40    -7800.00
04453              -2.00    -7600.00
04454              -1.20    -7600.00
04455              -0.80    -7400.00
04456              -1.60    -7200.00
04457              -0.40    -7000.00
04458              -1.20    -7000.00
04459              -2.00    -6800.00
04460              -0.40    -6600.00
04461              -0.40    -6400.00
04462              -0.80    -6200.00
04463              -0.80    -6000.00
04464              -1.20    -5800.00
04465              -0.40    -5800.00
04466              -0.40    -5600.00
04467              -1.20    -5400.00
04468              -1.20    -5200.00
04469              -1.20    -5000.00
04470               0.40    -4600.00
04471              -0.80    -4600.00
04472              -1.20    -4400.00
04473              -0.40    -4200.00
04474              -0.80    -4000.00
04475              -0.40    -3800.00
04476               0.80    -3600.00
04477              -1.20    -3400.00
04478              -1.20    -3200.00
04479               0.40    -3200.00
04480              -0.40    -2800.00
04481              -1.20    -2600.00
04482              -0.40    -2400.00
04483              -0.80    -2400.00
04484               0.40    -2000.00
04485               0.00    -1800.00
04486              -0.80    -1600.00
04487              -0.40    -1400.00
04488               0.00    -1200.00
04489              -0.80    -1000.00
04490               0.40     -800.00
04491              -0.80     -600.00
04492              -0.40     -400.00
04493               0.00     -200.00
04494              -0.40        0.00
04495               0.40      200.00
04496               1.20      400.00
04497               0.80      600.00
04498              -1.20      800.00
04499               0.40      800.00
04500               0.80     1000.00
04501              -0.40     1200.00
04502              -0.80     1400.00
04503               2.80     1800.00
04504              11.60     2200.00
04505              15.20     2600.00
04506             -24.80     2800.00
04507             -26.80     2800.00
04508               4.40     2800.00
04509               2.40     2800.00
04510              45.60     3400.00
04511             -17.60     3200.00
04512             -50.00     3600.00
04513              50.00     3800.00
04514              37.60     4000.00
04515             -50.00     4000.00
04516              50.00     4600.00
04517              50.00     4400.00
04518             -50.00     4800.00
04519              13.20     5200.00
04520              50.00     4800.00
04521             -31.20     5400.00
04522             -18.80     5600.00
04523              14.00     5600.00
04524              32.40     6000.00
04525             -37.20     6000.00
04526             -25.20     6400.00
04527              50.00     6600.00
04528             -20.00     6400.00
04529             -50.00     6800.00
04530              50.00     6800.00
04531              10.40     7200.00
04532             -47.60     7400.00
04533              15.60     7400.00
04534              28.40     7800.00
04535             -21.20     7800.00
04536             -13.60     7800.00
04537              28.40     8000.00
04538              -2.40     8200.00
04539             -23.60     8400.00
04540              15.60     8600.00
04541              13.60     8600.00
04542             -16.80     8800.00
04543              -1.20     8800.00
04544              18.80     9000.00
04545              -7.20     9200.00
04546             -14.00     9200.00
04547              14.80     9400.00
04548               5.20     9600.00
04549             -14.00     9400.00
04550               4.80     9600.00
04551              12.40     9800.00
04552              -8.80    10000.00
04553              -5.60    10000.00
04554              12.00    10200.00
04555              -0.80    10000.00
04556              -8.40    10200.00
04557               8.40    10400.00
04558               5.20    10400.00
04559              -8.40    10400.00
04560               2.40    10400.00
04561               7.60    10600.00
04562              -5.20    10600.00
04563              -2.40    10800.00
04564               7.20    10800.00
04565               0.80    10800.00
04566              -4.80    11000.00
04567               3.60    11000.00
04568               2.80    11000.00
04569              -3.60    11000.00
04570               1.20    11000.00
04571               4.00    11200.00
04572              -1.20    11000.00
04573              -1.20    11000.00
04574               3.60    11000.00
04575               2.00    11000.00
04576              -2.80    11200.00
04577               0.40    11200.00
04578               5.20    11200.00
04579              -1.20    11000.00
04580              -1.60    11200.00
04581               3.60    11000.00
04582               0.40    11000.00
04583              -1.60    10800.00
04584               2.40    11000.00
04585               2.00    11000.00
04586              -2.00    11000.00
04587               1.20    11000.00
04588               2.80    11000.00
04589              -1.20    10800.00
04590              -0.40    10800.00
04591               2.40    10800.00
04592               0.80    10800.00
04593              -0.40    10600.00
04594               0.80    10600.00
04595               1.20    10600.00
04596               0.40    10400.00
04597               0.80    10400.00
04598               1.20    10200.00
04599               0.40    10200.00
04600              -0.40    10200.00
04601               0.80    10000.00
04602               2.00    10000.00
04603               0.40    10000.00
04604              -0.40     9600.00
04605               0.80     9600.00
04606               0.80     9600.00
04607               0.80     9400.00
04608               0.80     9400.00
04609               1.20     9200.00
04610               0.40     9200.00
04611               0.40     9000.00
04612               0.40     8800.00
04613               0.40     8800.00
04614              -0.40     8600.00
04615               1.20     8400.00
04616               0.80     8400.00
04617               0.40     8400.00
04618               0.40     8000.00
04619               0.80     7800.00
04620               0.40     7600.00
04621               0.80     7800.00
04622               0.40     7400.00
04623               0.80     7200.00
04624               0.40     7200.00
04625               0.40     6800.00
04626               0.40     6800.00
04627               0.00     6600.00
04628              -0.40     6400.00
04629               0.80     6200.00
04630              -0.40     6200.00
04631              -0.40     6000.00
04632               0.40     5800.00
04633               0.40     5600.00
04634               0.40     5600.00
04635               0.40     5400.00
04636              -0.40     5000.00
04637              -0.40     4800.00
04638               0.80     4600.00
04639               0.00     4400.00
04640              -0.80     4200.00
04641               0.40     4000.00
04642              -0.40     3800.00
04643              -0.80     3600.00
04644               0.80     3400.00
04645              -0.40     3200.00
04646              -1.20     3000.00
04647               0.80     2800.00
04648               0.40     2800.00
04649              -1.60     2400.00
04650               0.00     2400.00
04651               0.00     2200.00
04652              -0.80     2000.00
04653               0.40     1600.00
04654               0.00     1400.00
04655              -0.80     1200.00
04656              -0.40     1000.00
04657               0.40      800.00
04658              -0.80      600.00
04659              -0.80      400.00
04660               0.00      400.00
04661              -0.40        0.00
04662              -0.40     -200.00
04663               0.80     -200.00
04664               0.80     -600.00
04665              -1.20     -800.00
04666              -0.40     -800.00
04667               0.40     -800.00
04668               0.00    -1200.00
04669              -0.80    -1400.00
04670               2.40    -1600.00
04671              24.40    -2000.00
04672               2.40    -2600.00
04673             -47.60    -2800.00
04674             -10.40    -2800.00
04675               4.00    -2400.00
04676              50.00    -2800.00
04677              16.80    -3600.00
04678             -50.00    -2800.00
04679              50.00    -3400.00
04680              50.00    -4200.00
04681             -50.00    -3600.00
04682               2.80    -4200.00
04683              50.00    -4600.00
04684             -50.00    -4200.00
04685             -40.80    -4800.00
04686              50.00    -5000.00
04687             -30.00    -4800.00
04688             -36.00    -5600.00
04689              -0.80    -5200.00
04690              41.60    -5600.00
04691               8.40    -6000.00
04692             -50.00    -5800.00
04693              50.00    -6200.00
04694              50.00    -6400.00
04695             -50.00    -6400.00
04696              34.00    -7000.00
04697              50.00    -6800.00
04698             -50.00    -7000.00
04699             -14.00    -7200.00
04700              44.00    -7400.00
04701               0.40    -7600.00
04702             -42.40    -7600.00
04703              20.80    -8000.00
04704              24.80    -8200.00
04705             -36.00    -8000.00
04706              -4.00    -8400.00
04707              22.40    -8200.00
04708              -4.40    -8600.00
04709             -20.40    -8800.00
04710              13.20    -8800.00
04711              12.40    -9000.00
04712             -26.00    -9200.00
04713               3.60    -9200.00
04714              16.40    -9200.00
04715             -13.60    -9400.00
04716              -7.60    -9600.00
04717              11.60    -9600.00
04718               0.80    -9800.00
04719             -14.80    -9800.00
04720               3.60   -10000.00
04721               7.20   -10000.00
04722             -11.20   -10000.00
04723              -1.20   -10000.00
04724               9.20   -10400.00
04725              -7.60   -10400.00
04726              -6.80   -10400.00
04727               8.80   -10600.00
04728              -2.00   -10600.00
04729              -8.80   -10600.00
04730               2.80   -10600.00
04731               4.00   -10800.00
04732              -6.80   -10800.00
04733              -2.40   -11000.00
04734               5.20   -10800.00
04735              -5.60   -10800.00
04736              -4.00   -11000.00
04737               4.40   -11000.00
04738              -2.80   -11200.00
04739              -4.40   -11000.00
04740               0.80   -11000.00
04741               2.40   -11000.00
04742              -3.60   -11200.00
04743              -4.00   -11000.00
04744               2.80   -11000.00
04745              -0.40   -11000.00
04746              -4.80   -11200.00
04747               0.40   -11000.00
04748               0.40   -11000.00
04749              -2.80   -11000.00
04750              -1.20   -11000.00
04751               0.80   -11000.00
04752              -2.40   -11000.00
04753              -3.60   -10800.00
04754               2.00   -10800.00
04755              -0.40   -10800.00
04756              -4.00   -10800.00
04757              -0.80   -10800.00
04758               0.40   -10800.00
04759              -1.20   -10800.00
04760              -2.40   -10600.00
04761              -0.80   -10400.00
04762              -0.80   -10600.00
04763              -2.00   -10400.00
04764              -0.80   -10400.00
04765              -0.40   -10400.00
04766              -2.00   -10200.00
04767              -2.00   -10000.00
04768               0.40   -10000.00
04769              -0.40    -9800.00
04770              -2.80    -9800.00
04771              -1.20    -9800.00
04772              -0.80    -9800.00
04773              -1.20    -9600.00
04774              -1.20    -9600.00
04775              -1.20    -9200.00
04776              -0.80    -9200.00
04777              -0.40    -9200.00
04778              -1.20    -9000.00
04779              -0.80    -8800.00
04780              -1.60    -8800.00
04781              -1.20    -8600.00
04782              -0.40    -8400.00
04783              -1.20    -8200.00
04784              -1.60    -8400.00
04785              -1.20    -8200.00
04786              -0.40    -7800.00
04787              -1.20    -7800.00
04788              -2.00    -7600.00
04789              -0.80    -7400.00
04790              -0.80    -7200.00
04791              -0.80    -7200.00
04792              -0.80    -7000.00
04793              -1.20    -6800.00
04794              -0.80    -6600.00
04795              -0.80    -6400.00
04796              -0.40    -6400.00
04797              -0.80    -6000.00
04798              -1.20    -5800.00
04799              -0.80    -5800.00
04800              -0.80    -5600.00
04801              -0.80    -5400.00
04802              -0.80    -5400.00
04803              -1.20    -5200.00
04804              -0.40    -4800.00
04805              -0.40    -4600.00
04806              -1.20    -4600.00
04807               0.00    -4200.00
04808              -0.40    -4000.00
04809              -0.80    -4000.00
04810               0.40    -3600.00
04811              -1.20    -3400.00
04812              -1.20    -3400.00
04813               0.40    -3000.00
04814              -0.80    -2800.00
04815              -0.80    -2600.00
04816              -0.40    -2400.00
04817              -1.20    -2400.00
04818               0.40    -2000.00
04819               0.80    -1800.00
04820              -0.80    -1800.00
04821              -0.80    -1600.00
04822               0.40    -1200.00
04823              -0.40    -1000.00
04824              -0.80    -1000.00
04825              -0.80     -600.00
04826              -0.40     -400.00
04827              -0.40     -400.00
04828              -0.40        0.00
04829               0.40      200.00
04830              -0.40      400.00
04831               1.20      600.00
04832              -0.40      600.00
04833              -1.20      600.00
04834               0.80     1200.00
04835               0.80     1400.00
04836              -0.80     1400.00
04837               1.20     1600.00
04838               6.80     2000.00
04839              18.40     2400.00
04840              -8.80     2600.00
04841             -34.40     2800.00
04842              -1.20     2800.00
04843               1.20     2400.00
04844              26.80     3200.00
04845              20.40     3600.00
04846             -50.00     3200.00
04847              38.80     4000.00
04848              50.00     3800.00
04849             -50.00     3800.00
04850             -26.00     4600.00
04851              50.00     4400.00
04852             -50.00     4400.00
04853             -41.20     5200.00
04854              50.00     5000.00
04855              -9.20     5200.00
04856             -30.00     5600.00
04857               4.40     5400.00
04858              32.00     6000.00
04859              -4.40     6000.00
04860             -50.00     6400.00
04861              48.40     6400.00
04862              34.80     6400.00
04863             -50.00     6800.00
04864              20.00     6800.00
04865              47.20     7000.00
04866             -44.00     7200.00
04867             -10.40     7200.00
04868              37.20     7600.00
04869              -5.20     7600.00
04870             -25.20     8000.00
04871              19.60     7800.00
04872              13.60     8200.00
04873             -24.80     8400.00
04874               1.20     8400.00
04875              21.20     8600.00
04876              -7.60     8600.00
04877             -12.00     8800.00
04878              14.00     9000.00
04879               7.20     9000.00
04880             -17.20     9200.00
04881               2.40     9400.00
04882              15.60     9200.00
04883              -9.60     9600.00
04884              -5.60     9600.00
04885              14.00     9800.00
04886               0.40     9800.00
04887             -11.60    10000.00
04888               6.00    10000.00
04889               7.20    10200.00
04890              -8.80    10200.00
04891               0.80    10200.00
04892              10.00    10200.00
04893              -5.20    10400.00
04894              -4.80    10600.00
04895               8.80    10400.00
04896               0.80    10600.00
04897              -7.60    10800.00
04898               5.20    10800.00
04899               6.00    10800.00
04900              -5.60    11000.00
04901               0.40    11000.00
04902               6.00    11000.00
04903              -2.80    11000.00
04904              -2.00    11000.00
04905               4.40    11000.00
04906              -0.80    11000.00
04907              -2.00    11000.00
04908               2.40    11000.00
04909               2.40    11200.00
04910              -1.20    11200.00
04911              -0.80    11200.00
04912               3.60    11000.00
04913               1.20    11200.00
04914              -1.20    11200.00
04915               2.00    11200.00
04916               2.00    11000.00
04917              -0.80    11000.00
04918               0.80    11200.00
04919               2.40    11000.00
04920              -1.20    11000.00
04921               0.00    11000.00
04922               2.40    11000.00
04923               1.20    11000.00
04924              -0.80    10800.00
04925               0.80    10800.00
04926               2.00    10800.00
04927               0.80    10800.00
04928               0.40    10800.00
04929               0.80    10600.00
04930               1.20    10400.00
04931               0.80    10400.00
04932               0.80    10400.00
04933               0.80    10200.00
04934               0.40    10000.00
04935               1.20    10000.00
04936               0.80    10000.00
04937               1.20     9800.00
04938              -0.40     9800.00
04939               0.40     9800.00
04940               1.20     9600.00
04941               1.60     9400.00
04942              -1.20     9400.00
04943               2.40     9200.00
04944               0.80     9200.00
04945              -0.40     9000.00
04946               2.00     8800.00
04947               0.40     8800.00
04948              -0.80     8600.00
04949               2.00     8400.00
04950               0.00     8400.00
04951               0.40     8400.00
04952               0.80     8200.00
04953               0.00     8000.00
04954               0.40     7800.00
04955               1.20     7800.00
04956              -0.40     7400.00
04957               0.40     7400.00
04958               0.40     7200.00
04959               0.80     7000.00
04960              -0.40     6800.00
04961               0.00     6600.00
04962               0.40     6400.00
04963              -0.40     6400.00
04964               0.40     6200.00
04965               0.80     6000.00
04966              -1.20     6000.00
04967               0.40     5600.00
04968               1.60     5600.00
04969              -1.20     5200.00
04970              -0.80     5000.00
04971               0.80     4800.00
04972              -0.80     4600.00
04973              -0.40     4600.00
04974               0.40     4400.00
04975              -0.80     4000.00
04976              -0.40     3800.00
04977               0.40     3800.00
04978              -0.40     3600.00
04979              -0.80     3200.00
04980              -0.40     3200.00
04981               0.40     3000.00
04982               0.40     2800.00
04983              -0.40     2400.00
04984              -0.40     2400.00
04985              -0.40     2200.00
04986               0.00     2000.00
04987               0.40     1800.00
04988              -0.40     1600.00
04989              -0.80     1400.00
04990               0.40     1200.00
04991              -0.40      800.00
04992              -0.80      600.00
04993               0.40      600.00
04994              -0.40      200.00
04995              -0.40        0.00
04996              -0.40     -200.00
04997               0.80     -200.00
04998               0.80     -400.00
04999               0.00     -600.00
05000              -1.20     -800.00
