Unit:(mV)
                     CH1         CH2
Frequency              ? 299.081 kHz
00001             -42.40    -3800.00
00002              50.00    -4800.00
00003             -50.00    -4000.00
00004             -50.00    -4600.00
00005              50.00    -5000.00
00006             -26.40    -4600.00
00007             -50.00    -5400.00
00008              16.40    -5400.00
00009              21.20    -5600.00
00010               6.80    -6000.00
00011             -50.00    -5800.00
00012              32.40    -6200.00
00013              50.00    -6400.00
00014             -50.00    -6400.00
00015               8.80    -6800.00
00016              50.00    -6600.00
00017             -47.60    -7200.00
00018             -23.20    -7400.00
00019              22.00    -7200.00
00020               8.40    -7400.00
00021             -40.40    -7800.00
00022              -4.40    -7800.00
00023              28.40    -8000.00
00024             -34.40    -8000.00
00025             -20.00    -8200.00
00026              20.00    -8400.00
00027             -12.00    -8400.00
00028             -26.00    -8800.00
00029               5.60    -8800.00
00030               0.40    -9000.00
00031             -30.00    -9000.00
00032              -2.80    -9200.00
00033              -0.40    -9200.00
00034             -20.40    -9200.00
00035              -8.40    -9400.00
00036              -7.20    -9600.00
00037             -10.00    -9600.00
00038             -14.00    -9800.00
00039             -14.00    -9800.00
00040              -6.00    -9800.00
00041             -14.80   -10000.00
00042             -15.20   -10000.00
00043              -6.80   -10000.00
00044             -16.40   -10400.00
00045             -20.00   -10600.00
00046              -7.20   -10400.00
00047             -14.80   -10400.00
00048             -21.60   -10600.00
00049             -12.00   -10600.00
00050             -12.00   -10600.00
00051             -21.20   -10600.00
00052             -17.20   -10800.00
00053             -12.00   -10800.00
00054             -21.60   -10800.00
00055             -19.60   -10800.00
00056             -12.00   -11000.00
00057             -21.20   -11000.00
00058             -21.60   -10800.00
00059             -16.80   -10800.00
00060             -18.40   -11200.00
00061             -21.20   -10800.00
00062             -21.60   -10800.00
00063             -17.20   -10800.00
00064             -19.60   -11000.00
00065             -22.80   -11000.00
00066             -18.40   -11000.00
00067             -20.00   -11000.00
00068             -21.20   -11200.00
00069             -18.40   -10800.00
00070             -18.40   -11000.00
00071             -20.40   -10800.00
00072             -19.60   -10800.00
00073             -15.20   -10800.00
00074             -17.20   -10800.00
00075             -18.80   -10800.00
00076             -15.20   -10800.00
00077             -15.20   -10600.00
00078             -15.20   -10600.00
00079             -14.80   -10600.00
00080             -14.80   -10400.00
00081             -14.00   -10400.00
00082             -13.60   -10400.00
00083             -12.40   -10200.00
00084             -13.60   -10000.00
00085             -13.20   -10000.00
00086             -12.00   -10200.00
00087             -12.00   -10000.00
00088             -10.80    -9800.00
00089             -12.00    -9800.00
00090             -11.60    -9600.00
00091             -10.40    -9600.00
00092             -10.40    -9200.00
00093             -10.40    -9400.00
00094             -10.40    -9200.00
00095             -10.00    -9200.00
00096              -8.80    -9200.00
00097              -8.80    -8800.00
00098             -10.00    -8800.00
00099              -9.20    -8600.00
00100              -8.40    -8400.00
00101              -8.40    -8400.00
00102              -8.40    -8400.00
00103              -7.60    -8200.00
00104              -8.40    -8000.00
00105              -7.20    -8000.00
00106              -6.40    -7800.00
00107              -7.60    -7600.00
00108              -7.20    -7400.00
00109              -6.00    -7200.00
00110              -5.60    -7200.00
00111              -6.40    -7000.00
00112              -6.80    -6800.00
00113              -5.60    -6600.00
00114              -5.60    -6600.00
00115              -5.20    -6400.00
00116              -5.20    -6200.00
00117              -5.20    -5800.00
00118              -4.40    -5800.00
00119              -4.40    -5800.00
00120              -4.00    -5600.00
00121              -4.40    -5200.00
00122              -5.20    -5000.00
00123              -3.60    -4600.00
00124              -3.60    -4600.00
00125              -4.40    -4400.00
00126              -3.60    -4200.00
00127              -2.80    -4200.00
00128              -3.20    -4000.00
00129              -2.40    -4000.00
00130              -3.20    -3600.00
00131              -2.80    -3400.00
00132              -2.00    -3200.00
00133              -2.40    -3000.00
00134              -1.20    -2800.00
00135              -2.00    -2600.00
00136              -2.40    -2400.00
00137              -0.80    -2400.00
00138              -1.20    -1800.00
00139              -2.00    -1800.00
00140              -2.00    -1600.00
00141              -1.20    -1200.00
00142              -2.00    -1000.00
00143              -0.80     -800.00
00144              -0.80     -800.00
00145              -0.80     -400.00
00146              -0.40     -200.00
00147               0.40     -200.00
00148              -0.40      200.00
00149               0.80      400.00
00150               2.40      600.00
00151               0.40      600.00
00152              -0.80      800.00
00153               1.20     1000.00
00154               1.20     1200.00
00155               0.00     1400.00
00156               1.60     1400.00
00157               7.20     2000.00
00158              18.80     2400.00
00159              -2.40     2600.00
00160             -32.40     2800.00
00161              -4.00     2800.00
00162               2.00     2400.00
00163              26.00     3200.00
00164              31.60     3400.00
00165             -50.00     3200.00
00166              23.20     3600.00
00167              50.00     3800.00
00168             -50.00     3800.00
00169             -46.00     4400.00
00170              50.00     4400.00
00171             -46.00     4400.00
00172             -50.00     5200.00
00173              50.00     4600.00
00174              -7.20     5200.00
00175             -36.80     5400.00
00176              23.20     5400.00
00177              26.40     5600.00
00178              -7.60     6000.00
00179             -34.40     6000.00
00180              38.80     6200.00
00181              33.20     6400.00
00182             -50.00     6600.00
00183              15.20     6800.00
00184              40.40     7000.00
00185             -20.40     7200.00
00186              -6.00     7200.00
00187              25.20     7600.00
00188              13.20     7600.00
00189             -13.60     7600.00
00190               8.80     8000.00
00191              27.60     8000.00
00192             -13.60     8200.00
00193              -2.40     8400.00
00194              32.40     8400.00
00195              -0.80     8600.00
00196              -6.80     8600.00
00197              25.20     8800.00
00198              10.40     9000.00
00199              -6.80     9000.00
00200              16.40     9200.00
00201              14.80     9200.00
00202               2.00     9400.00
00203              12.00     9400.00
00204              13.60     9600.00
00205               9.60     9600.00
00206               8.80     9600.00
00207              11.60    10000.00
00208              14.80    10000.00
00209              10.00    10000.00
00210              11.20    10200.00
00211              17.20    10200.00
00212              11.60    10200.00
00213              10.00    10400.00
00214              18.80    10400.00
00215              15.20    10600.00
00216               9.20    10600.00
00217              18.00    10600.00
00218              19.60    10800.00
00219              11.60    10600.00
00220              16.80    10800.00
00221              20.00    10800.00
00222              14.00    10800.00
00223              16.80    11000.00
00224              21.20    11000.00
00225              16.80    11000.00
00226              16.80    10800.00
00227              20.40    11000.00
00228              20.00    11000.00
00229              18.00    11000.00
00230              18.40    11000.00
00231              21.20    11000.00
00232              19.60    11000.00
00233              18.00    11000.00
00234              20.40    10800.00
00235              19.60    11000.00
00236              18.00    10800.00
00237              19.60    11000.00
00238              19.20    10800.00
00239              16.40    10800.00
00240              16.80    10800.00
00241              18.40    10800.00
00242              16.40    10800.00
00243              14.80    10800.00
00244              15.20    10800.00
00245              14.80    10800.00
00246              13.60    10400.00
00247              14.00    10400.00
00248              13.60    10200.00
00249              12.80    10400.00
00250              12.40    10400.00
00251              13.20    10200.00
00252              12.00    10200.00
00253              11.60    10000.00
00254              11.60    10000.00
00255              10.80     9800.00
00256              11.60     9800.00
00257              10.40     9600.00
00258              10.00     9600.00
00259              10.80     9400.00
00260              10.00     9400.00
00261               7.60     9200.00
00262               9.60     9200.00
00263               8.80     9200.00
00264               8.40     9000.00
00265               8.80     8800.00
00266               8.40     8600.00
00267               7.20     8600.00
00268               8.40     8400.00
00269               8.40     8400.00
00270               7.20     8200.00
00271               6.80     8000.00
00272               6.80     7800.00
00273               6.80     7800.00
00274               6.40     7600.00
00275               5.60     7400.00
00276               5.60     7200.00
00277               6.00     7200.00
00278               5.20     7000.00
00279               5.20     6800.00
00280               5.20     6600.00
00281               4.40     6400.00
00282               5.20     6200.00
00283               5.20     6000.00
00284               3.60     6000.00
00285               4.00     6000.00
00286               4.40     5600.00
00287               3.60     5400.00
00288               3.60     5200.00
00289               4.00     5000.00
00290               2.80     4800.00
00291               2.80     4600.00
00292               3.60     4400.00
00293               2.40     4400.00
00294               2.00     4000.00
00295               2.80     3800.00
00296               2.40     3600.00
00297               2.00     3600.00
00298               2.00     3200.00
00299               1.20     3200.00
00300               1.20     2800.00
00301               1.60     2800.00
00302               1.60     2600.00
00303               0.40     2400.00
00304               0.80     2200.00
00305               1.20     2000.00
00306               0.80     1600.00
00307               0.40     1600.00
00308               0.80     1200.00
00309               0.80     1200.00
00310               0.40      800.00
00311               0.40      800.00
00312              -0.40      400.00
00313              -0.40      400.00
00314              -0.80        0.00
00315               0.40     -200.00
00316               0.40     -400.00
00317               0.80     -400.00
00318               0.40     -600.00
00319              -1.20     -800.00
00320              -0.80    -1000.00
00321              -0.40    -1200.00
00322              -1.20    -1400.00
00323              -1.20    -1600.00
00324               8.40    -1600.00
00325              27.60    -2600.00
00326             -31.20    -2800.00
00327             -37.60    -2800.00
00328              -1.20    -2600.00
00329              24.40    -2400.00
00330              50.00    -3400.00
00331             -50.00    -3200.00
00332             -50.00    -2800.00
00333              50.00    -4000.00
00334             -46.80    -3800.00
00335             -50.00    -3600.00
00336              50.00    -4600.00
00337              28.40    -4200.00
00338             -50.00    -4400.00
00339              50.00    -5000.00
00340              45.20    -4800.00
00341             -50.00    -5200.00
00342               2.80    -5600.00
00343              18.00    -5200.00
00344              21.20    -5800.00
00345             -50.00    -5800.00
00346             -20.40    -6000.00
00347              50.00    -6400.00
00348             -50.00    -6200.00
00349             -47.60    -6800.00
00350              50.00    -6800.00
00351             -19.60    -6800.00
00352             -43.60    -7200.00
00353              11.60    -7200.00
00354              20.80    -7400.00
00355             -26.80    -7600.00
00356             -28.40    -7800.00
00357              31.20    -8000.00
00358             -12.80    -8000.00
00359             -37.60    -8200.00
00360              14.40    -8200.00
00361               2.40    -8400.00
00362             -28.00    -8600.00
00363              -5.60    -8600.00
00364              10.00    -8800.00
00365             -25.20    -9000.00
00366             -15.20    -9000.00
00367               6.00    -9200.00
00368             -18.00    -9200.00
00369             -13.60    -9200.00
00370              -6.00    -9600.00
00371              -9.60    -9600.00
00372             -12.00    -9800.00
00373             -16.40    -9800.00
00374              -7.60   -10000.00
00375             -10.80   -10000.00
00376             -17.60   -10000.00
00377              -8.00   -10200.00
00378             -11.60   -10400.00
00379             -20.80   -10400.00
00380             -10.80   -10400.00
00381             -10.00   -10400.00
00382             -21.60   -10600.00
00383             -15.20   -10600.00
00384             -10.40   -10600.00
00385             -18.40   -10600.00
00386             -20.00   -10800.00
00387             -12.40   -10800.00
00388             -18.00   -10800.00
00389             -22.80   -10800.00
00390             -13.20   -11000.00
00391             -17.20   -10800.00
00392             -23.60   -10800.00
00393             -18.00   -10800.00
00394             -16.80   -10800.00
00395             -20.40   -11000.00
00396             -22.00   -11200.00
00397             -18.00   -11000.00
00398             -18.00   -11000.00
00399             -22.80   -11000.00
00400             -18.80   -11000.00
00401             -18.80   -11000.00
00402             -21.60   -11000.00
00403             -19.20   -11000.00
00404             -18.40   -10800.00
00405             -19.60   -11000.00
00406             -20.00   -10800.00
00407             -16.40   -10800.00
00408             -16.40   -10800.00
00409             -18.40   -10800.00
00410             -15.60   -10800.00
00411             -15.20   -10800.00
00412             -15.60   -10600.00
00413             -14.40   -10600.00
00414             -15.20   -10400.00
00415             -14.00   -10400.00
00416             -13.60   -10400.00
00417             -13.20   -10200.00
00418             -13.60   -10400.00
00419             -13.60   -10200.00
00420             -12.40   -10000.00
00421             -12.40   -10000.00
00422             -10.80   -10000.00
00423             -12.00    -9800.00
00424             -12.00    -9600.00
00425             -10.40    -9600.00
00426             -10.40    -9400.00
00427             -10.40    -9400.00
00428             -10.80    -9200.00
00429             -10.00    -9200.00
00430              -8.80    -9000.00
00431              -9.20    -9000.00
00432              -9.20    -8800.00
00433              -8.80    -8800.00
00434              -9.20    -8600.00
00435              -7.60    -8400.00
00436              -8.40    -8200.00
00437              -8.40    -8200.00
00438              -7.60    -8200.00
00439              -7.60    -8000.00
00440              -6.00    -7600.00
00441              -7.20    -7600.00
00442              -7.60    -7400.00
00443              -6.80    -7400.00
00444              -5.60    -7200.00
00445              -6.00    -6800.00
00446              -6.00    -6800.00
00447              -5.60    -6600.00
00448              -6.00    -6400.00
00449              -5.60    -6400.00
00450              -4.40    -6000.00
00451              -5.60    -6000.00
00452              -6.00    -6000.00
00453              -4.00    -5600.00
00454              -3.60    -5400.00
00455              -4.00    -5200.00
00456              -4.80    -5000.00
00457              -4.40    -4800.00
00458              -2.80    -4800.00
00459              -4.40    -4400.00
00460              -4.00    -4400.00
00461              -2.40    -4200.00
00462              -3.60    -4000.00
00463              -2.40    -3800.00
00464              -2.40    -3600.00
00465              -3.60    -3400.00
00466              -2.40    -3200.00
00467              -1.60    -3200.00
00468              -1.20    -2800.00
00469              -2.00    -2600.00
00470              -2.40    -2400.00
00471              -2.40    -2200.00
00472              -0.80    -2000.00
00473              -0.80    -1800.00
00474              -2.00    -1600.00
00475              -1.20    -1400.00
00476              -1.20    -1200.00
00477              -1.20    -1000.00
00478              -1.20     -800.00
00479              -0.80     -600.00
00480              -0.40     -200.00
00481               0.40     -200.00
00482              -0.40        0.00
00483               0.40      200.00
00484               2.00      400.00
00485               0.80      600.00
00486              -1.20      800.00
00487               0.40      800.00
00488               2.00     1200.00
00489               0.40     1400.00
00490               0.40     1400.00
00491               4.40     1800.00
00492              14.40     2000.00
00493              13.20     2600.00
00494             -28.00     2800.00
00495             -19.60     2800.00
00496               4.40     2400.00
00497               8.80     3000.00
00498              50.00     3400.00
00499             -39.60     3000.00
00500             -50.00     3600.00
00501              50.00     3800.00
00502              -7.20     3800.00
00503             -50.00     4200.00
00504              50.00     4400.00
00505              37.20     4000.00
00506             -50.00     4800.00
00507              50.00     5000.00
00508              40.40     4800.00
00509             -48.80     5400.00
00510               4.00     5400.00
00511              29.60     5600.00
00512               8.40     6000.00
00513             -34.40     6000.00
00514              10.40     6200.00
00515              50.00     6400.00
00516             -32.80     6400.00
00517             -16.80     6800.00
00518              48.00     6800.00
00519              -2.40     7000.00
00520             -18.80     7200.00
00521              16.40     7200.00
00522              21.60     7600.00
00523              -5.60     7800.00
00524              -6.80     7800.00
00525              30.00     8000.00
00526               3.20     8200.00
00527             -16.80     8400.00
00528              27.60     8400.00
00529              15.60     8600.00
00530             -13.60     8600.00
00531              16.40     8800.00
00532              21.60     8800.00
00533              -6.80     9000.00
00534               7.20     9200.00
00535              20.40     9200.00
00536               5.20     9400.00
00537               7.20     9400.00
00538              14.40     9400.00
00539              11.60     9600.00
00540               8.80     9800.00
00541               8.40    10000.00
00542              14.00    10000.00
00543              13.20    10000.00
00544               8.80    10000.00
00545              16.40    10200.00
00546              15.20    10200.00
00547               8.80    10400.00
00548              15.60    10400.00
00549              17.60    10400.00
00550              10.40    10400.00
00551              14.80    10400.00
00552              20.00    10800.00
00553              13.60    10800.00
00554              13.60    10600.00
00555              19.60    10800.00
00556              16.00    10800.00
00557              14.80    10800.00
00558              21.20    11000.00
00559              18.40    11000.00
00560              15.60    11000.00
00561              20.00    11000.00
00562              20.00    10800.00
00563              18.00    11000.00
00564              18.00    11000.00
00565              20.40    11000.00
00566              20.40    11000.00
00567              18.40    11000.00
00568              20.00    11000.00
00569              20.00    10800.00
00570              18.00    10800.00
00571              18.80    11000.00
00572              19.60    11000.00
00573              17.60    10800.00
00574              16.00    10800.00
00575              18.80    10800.00
00576              16.80    10800.00
00577              13.60    10600.00
00578              16.40    10600.00
00579              15.20    10800.00
00580              13.60    10600.00
00581              15.20    10400.00
00582              13.60    10400.00
00583              13.20    10200.00
00584              13.60    10200.00
00585              12.80    10200.00
00586              12.00    10200.00
00587              12.00    10200.00
00588              12.00    10000.00
00589              11.60    10000.00
00590              10.80     9600.00
00591              10.40     9800.00
00592               9.60     9600.00
00593              10.40     9600.00
00594              10.40     9400.00
00595              10.40     9200.00
00596               8.80     9200.00
00597               8.80     9200.00
00598               9.20     9000.00
00599               8.40     8800.00
00600               7.20     8600.00
00601               8.40     8600.00
00602               8.40     8400.00
00603               7.20     8400.00
00604               7.20     8400.00
00605               7.20     8000.00
00606               6.80     8000.00
00607               6.00     7800.00
00608               7.20     7600.00
00609               6.00     7400.00
00610               5.20     7200.00
00611               6.80     7200.00
00612               5.60     7000.00
00613               5.60     6800.00
00614               5.20     6800.00
00615               4.40     6400.00
00616               5.20     6200.00
00617               4.80     6200.00
00618               3.60     6000.00
00619               4.40     5800.00
00620               3.60     5600.00
00621               3.60     5600.00
00622               4.00     5400.00
00623               3.60     5000.00
00624               2.00     4800.00
00625               3.60     4600.00
00626               3.60     4600.00
00627               2.40     4400.00
00628               2.40     4000.00
00629               3.60     4000.00
00630               2.40     3800.00
00631               1.60     3800.00
00632               2.00     3400.00
00633               2.00     3200.00
00634               0.80     3000.00
00635               2.00     2800.00
00636               2.00     2600.00
00637               0.40     2400.00
00638               0.80     2200.00
00639               2.00     2000.00
00640               1.20     1600.00
00641               0.80     1600.00
00642               0.80     1400.00
00643               0.40     1200.00
00644               0.40     1000.00
00645               0.40      800.00
00646               0.40      600.00
00647              -0.40      200.00
00648               0.00        0.00
00649               0.00        0.00
00650              -0.40     -200.00
00651               0.40     -400.00
00652               1.20     -400.00
00653              -1.20     -800.00
00654              -0.80     -800.00
00655               0.40    -1000.00
00656              -0.80    -1200.00
00657              -2.00    -1600.00
00658               3.60    -1600.00
00659              27.60    -2200.00
00660              -9.20    -2600.00
00661             -50.00    -2800.00
00662              -7.20    -2800.00
00663               5.60    -2400.00
00664              50.00    -3000.00
00665             -12.40    -3600.00
00666             -50.00    -3000.00
00667              50.00    -3600.00
00668              50.00    -4000.00
00669             -50.00    -3600.00
00670              50.00    -4200.00
00671              50.00    -4400.00
00672             -50.00    -4200.00
00673               4.40    -4800.00
00674              50.00    -4800.00
00675             -50.00    -4800.00
00676             -26.00    -5600.00
00677              18.00    -5400.00
00678              23.60    -5600.00
00679             -18.80    -6000.00
00680             -50.00    -6000.00
00681              50.00    -6400.00
00682               7.60    -6400.00
00683             -50.00    -6600.00
00684              46.00    -6800.00
00685              22.00    -6800.00
00686             -50.00    -7200.00
00687              -6.00    -7400.00
00688              24.80    -7200.00
00689              -6.80    -7600.00
00690             -40.80    -7400.00
00691              16.40    -8000.00
00692              13.20    -8000.00
00693             -43.20    -8200.00
00694              -2.80    -8400.00
00695              15.60    -8400.00
00696             -22.00    -8400.00
00697             -18.80    -8800.00
00698              11.20    -8800.00
00699             -12.00    -9000.00
00700             -26.40    -8800.00
00701               5.20    -9200.00
00702              -8.80    -9200.00
00703             -19.60    -9200.00
00704              -6.00    -9600.00
00705              -8.80    -9600.00
00706             -10.40    -9600.00
00707             -15.60    -9800.00
00708             -10.80   -10000.00
00709              -7.60   -10000.00
00710             -16.80   -10000.00
00711             -12.00   -10200.00
00712              -7.60   -10200.00
00713             -18.80   -10200.00
00714             -16.40   -10400.00
00715              -7.60   -10400.00
00716             -18.40   -10600.00
00717             -19.60   -10600.00
00718              -9.60   -10600.00
00719             -14.00   -10600.00
00720             -21.60   -10800.00
00721             -14.80   -10800.00
00722             -13.60   -10800.00
00723             -22.80   -11000.00
00724             -16.40   -10800.00
00725             -13.60   -10800.00
00726             -22.80   -11000.00
00727             -19.60   -10800.00
00728             -16.40   -10800.00
00729             -19.20   -10800.00
00730             -21.60   -11000.00
00731             -20.00   -11000.00
00732             -18.00   -10800.00
00733             -20.80   -11000.00
00734             -20.00   -11000.00
00735             -18.40   -10800.00
00736             -21.20   -11000.00
00737             -20.80   -11000.00
00738             -18.40   -11000.00
00739             -19.60   -10800.00
00740             -20.40   -11000.00
00741             -18.00   -10800.00
00742             -15.20   -10800.00
00743             -18.40   -10800.00
00744             -17.20   -10800.00
00745             -15.60   -10600.00
00746             -16.40   -10600.00
00747             -14.80   -10600.00
00748             -15.20   -10600.00
00749             -14.00   -10600.00
00750             -13.60   -10400.00
00751             -13.60   -10400.00
00752             -13.20   -10400.00
00753             -13.60   -10400.00
00754             -13.20   -10000.00
00755             -13.20   -10000.00
00756             -11.60   -10000.00
00757             -10.80    -9800.00
00758             -12.40    -9800.00
00759             -10.80    -9600.00
00760             -10.00    -9600.00
00761             -10.80    -9400.00
00762             -10.80    -9400.00
00763             -10.40    -9200.00
00764              -9.20    -9000.00
00765              -8.40    -8800.00
00766              -9.20    -9000.00
00767             -10.00    -8800.00
00768              -8.80    -8800.00
00769              -7.60    -8600.00
00770              -8.40    -8400.00
00771              -7.60    -8200.00
00772              -7.60    -8200.00
00773              -8.40    -8000.00
00774              -7.20    -7600.00
00775              -6.00    -7600.00
00776              -7.60    -7400.00
00777              -7.20    -7400.00
00778              -5.60    -7200.00
00779              -5.60    -7200.00
00780              -6.00    -6800.00
00781              -6.80    -6800.00
00782              -5.60    -6600.00
00783              -5.60    -6400.00
00784              -5.20    -6400.00
00785              -4.40    -6000.00
00786              -5.20    -5800.00
00787              -4.40    -5800.00
00788              -4.00    -5600.00
00789              -4.40    -5400.00
00790              -4.80    -5200.00
00791              -4.00    -5000.00
00792              -2.80    -4600.00
00793              -4.00    -4600.00
00794              -4.00    -4400.00
00795              -3.60    -4200.00
00796              -3.20    -4000.00
00797              -2.40    -4000.00
00798              -2.00    -3600.00
00799              -4.00    -3400.00
00800              -2.40    -3400.00
00801              -2.00    -3200.00
00802              -2.00    -2800.00
00803              -2.00    -2800.00
00804              -2.40    -2400.00
00805              -2.40    -2200.00
00806              -1.20    -2000.00
00807              -1.20    -1800.00
00808              -2.00    -1600.00
00809              -1.20    -1600.00
00810              -0.80    -1200.00
00811              -1.20    -1000.00
00812              -0.80     -800.00
00813              -0.80     -800.00
00814              -1.20     -400.00
00815              -0.40     -200.00
00816               0.40     -200.00
00817              -0.80        0.00
00818               0.40      200.00
00819               2.00      400.00
00820              -0.80      600.00
00821              -0.80      800.00
00822               2.00     1000.00
00823               0.80     1200.00
00824              -1.20     1400.00
00825               3.60     1600.00
00826              10.40     2000.00
00827              18.40     2400.00
00828             -15.60     2600.00
00829             -29.60     2800.00
00830               3.60     2600.00
00831               2.00     2800.00
00832              43.60     3200.00
00833               2.00     3200.00
00834             -50.00     3400.00
00835              50.00     3800.00
00836              50.00     3800.00
00837             -50.00     4000.00
00838              26.40     4600.00
00839              50.00     4400.00
00840             -50.00     4600.00
00841              -4.00     5200.00
00842              50.00     4800.00
00843             -37.60     5200.00
00844             -18.80     5400.00
00845              29.20     5400.00
00846              21.20     5800.00
00847             -21.20     6000.00
00848             -19.20     6000.00
00849              50.00     6200.00
00850               3.60     6400.00
00851             -44.00     6800.00
00852              36.80     6800.00
00853              21.60     7000.00
00854             -25.20     7200.00
00855               6.00     7200.00
00856              26.40     7600.00
00857               4.40     7600.00
00858             -13.60     7800.00
00859              22.00     7800.00
00860              18.80     8000.00
00861             -19.60     8200.00
00862              13.20     8400.00
00863              28.00     8600.00
00864              -9.60     8600.00
00865               3.60     8600.00
00866              26.80     9000.00
00867               0.80     8800.00
00868              -1.20     9200.00
00869              20.80     9200.00
00870               9.20     9400.00
00871               3.60     9400.00
00872              13.60     9400.00
00873              13.20     9600.00
00874               8.80     9600.00
00875               8.40    10000.00
00876              13.20    10000.00
00877              13.60    10000.00
00878               8.40    10000.00
00879              13.60    10200.00
00880              16.40    10200.00
00881               8.80    10200.00
00882              12.40    10400.00
00883              18.80    10400.00
00884              11.60    10400.00
00885              12.00    10600.00
00886              19.60    10800.00
00887              16.00    10800.00
00888              12.40    10800.00
00889              18.40    10800.00
00890              18.00    10800.00
00891              13.60    11000.00
00892              19.20    10800.00
00893              20.00    10800.00
00894              15.60    11000.00
00895              18.40    11000.00
00896              20.40    11000.00
00897              18.40    11000.00
00898              17.20    11000.00
00899              19.20    11000.00
00900              21.20    11000.00
00901              18.80    11000.00
00902              18.80    11000.00
00903              20.40    11000.00
00904              18.00    11000.00
00905              18.40    11000.00
00906              20.40    10800.00
00907              18.00    11000.00
00908              16.00    10800.00
00909              18.40    10800.00
00910              18.00    10800.00
00911              14.00    10800.00
00912              15.20    10800.00
00913              16.40    10800.00
00914              14.00    10600.00
00915              14.00    10400.00
00916              14.00    10400.00
00917              13.20    10400.00
00918              13.20    10400.00
00919              13.20    10200.00
00920              12.40    10000.00
00921              12.00    10000.00
00922              11.60    10000.00
00923              12.00    10000.00
00924              11.60     9800.00
00925              10.40     9800.00
00926               9.20     9600.00
00927              10.80     9600.00
00928              10.40     9400.00
00929              10.00     9400.00
00930               9.20     9200.00
00931               9.20     9200.00
00932               8.40     9000.00
00933               8.80     8800.00
00934               8.40     8800.00
00935               7.60     8600.00
00936               7.60     8600.00
00937               8.80     8200.00
00938               7.20     8200.00
00939               6.80     8000.00
00940               6.00     8000.00
00941               6.40     7800.00
00942               6.80     7600.00
00943               6.80     7600.00
00944               5.60     7400.00
00945               5.20     7400.00
00946               6.00     7000.00
00947               5.60     7000.00
00948               4.40     6800.00
00949               4.40     6600.00
00950               5.20     6400.00
00951               4.00     6200.00
00952               4.00     6000.00
00953               4.00     6000.00
00954               2.80     5800.00
00955               3.60     5600.00
00956               4.00     5400.00
00957               3.20     5200.00
00958               2.40     5000.00
00959               3.60     4800.00
00960               4.00     4600.00
00961               2.40     4400.00
00962               2.00     4200.00
00963               2.40     4000.00
00964               2.40     3800.00
00965               2.00     3600.00
00966               2.40     3600.00
00967               2.00     3200.00
00968               0.80     3200.00
00969               2.00     3000.00
00970               2.00     2800.00
00971               0.80     2400.00
00972               0.80     2200.00
00973               2.00     2000.00
00974               1.20     2000.00
00975               0.80     1600.00
00976               0.80     1400.00
00977               0.40     1400.00
00978               0.40     1000.00
00979               0.80      800.00
00980               0.80      600.00
00981              -0.40      400.00
00982               0.40        0.00
00983              -0.40        0.00
00984              -0.40     -200.00
00985               0.40     -200.00
00986               1.20     -400.00
00987              -1.20     -800.00
00988              -0.80     -800.00
00989               0.40    -1000.00
00990              -0.40    -1200.00
00991              -2.00    -1400.00
00992               0.40    -1600.00
00993              17.20    -1800.00
00994              14.00    -2600.00
00995             -44.40    -2800.00
00996             -20.80    -2800.00
00997               0.40    -2600.00
00998              44.40    -2600.00
00999              37.60    -3600.00
01000             -50.00    -3000.00
01001              23.20    -3200.00
01002              50.00    -4000.00
01003             -50.00    -3600.00
01004             -50.00    -4000.00
01005              50.00    -4800.00
01006             -50.00    -4000.00
01007             -50.00    -4600.00
01008              50.00    -5000.00
01009             -14.40    -4800.00
01010             -50.00    -5400.00
01011              13.60    -5600.00
01012              18.80    -5600.00
01013              10.40    -6000.00
01014             -50.00    -6000.00
01015              23.20    -6000.00
01016              50.00    -6400.00
01017             -50.00    -6400.00
01018              -1.20    -6800.00
01019              50.00    -6800.00
01020             -46.00    -7000.00
01021             -26.40    -7400.00
01022              21.20    -7000.00
01023              10.40    -7400.00
01024             -38.00    -7600.00
01025              -8.80    -7800.00
01026              29.60    -8000.00
01027             -31.60    -8000.00
01028             -23.20    -8400.00
01029              19.20    -8400.00
01030             -10.00    -8400.00
01031             -26.40    -8800.00
01032               4.00    -8800.00
01033               2.00    -9000.00
01034             -30.00    -9000.00
01035              -4.00    -9200.00
01036               0.80    -9200.00
01037             -20.40    -9200.00
01038              -8.80    -9400.00
01039              -7.20    -9600.00
01040             -10.00    -9800.00
01041             -13.20    -9800.00
01042             -14.00    -9800.00
01043              -6.00   -10000.00
01044             -14.00   -10000.00
01045             -16.80   -10000.00
01046              -6.40   -10200.00
01047             -14.80   -10400.00
01048             -20.00   -10400.00
01049              -7.60   -10400.00
01050             -13.60   -10600.00
01051             -21.60   -10600.00
01052             -12.40   -10600.00
01053             -11.60   -10600.00
01054             -20.40   -11000.00
01055             -18.40   -10800.00
01056             -11.60   -10800.00
01057             -20.40   -10800.00
01058             -20.40   -10800.00
01059             -12.00   -10800.00
01060             -20.00   -11000.00
01061             -22.80   -11000.00
01062             -16.80   -11000.00
01063             -17.60   -11000.00
01064             -21.20   -10800.00
01065             -21.60   -11200.00
01066             -17.20   -11000.00
01067             -19.20   -11000.00
01068             -22.00   -11000.00
01069             -18.80   -11200.00
01070             -20.40   -11000.00
01071             -21.20   -11000.00
01072             -18.80   -11000.00
01073             -18.80   -10800.00
01074             -20.40   -10800.00
01075             -20.00   -10800.00
01076             -15.60   -10800.00
01077             -17.60   -10800.00
01078             -18.80   -10800.00
01079             -15.60   -10600.00
01080             -15.20   -10600.00
01081             -15.20   -10600.00
01082             -15.20   -10400.00
01083             -15.60   -10400.00
01084             -14.00   -10600.00
01085             -13.60   -10400.00
01086             -14.00   -10400.00
01087             -13.60   -10400.00
01088             -12.40   -10000.00
01089             -13.20   -10200.00
01090             -12.00    -9800.00
01091             -10.80   -10000.00
01092             -12.40    -9800.00
01093             -11.60    -9800.00
01094             -10.40    -9600.00
01095             -10.80    -9600.00
01096             -10.00    -9400.00
01097             -10.40    -9200.00
01098             -10.80    -9200.00
01099              -8.40    -9000.00
01100              -8.80    -9000.00
01101             -10.40    -8800.00
01102              -8.80    -8600.00
01103              -7.60    -8600.00
01104              -8.40    -8400.00
01105              -7.60    -8400.00
01106              -8.40    -8000.00
01107              -7.60    -8000.00
01108              -6.00    -7800.00
01109              -7.20    -7800.00
01110              -7.20    -7400.00
01111              -6.80    -7400.00
01112              -6.80    -7400.00
01113              -5.20    -7200.00
01114              -6.80    -6800.00
01115              -6.80    -6800.00
01116              -4.00    -6600.00
01117              -6.00    -6400.00
01118              -6.40    -6200.00
01119              -3.60    -6200.00
01120              -5.60    -6000.00
01121              -5.20    -5800.00
01122              -3.20    -5600.00
01123              -3.60    -5200.00
01124              -4.40    -5000.00
01125              -4.40    -5200.00
01126              -3.60    -4600.00
01127              -4.40    -4600.00
01128              -4.40    -4400.00
01129              -2.80    -4400.00
01130              -3.20    -4000.00
01131              -4.00    -4000.00
01132              -2.40    -3800.00
01133              -2.40    -3400.00
01134              -2.80    -3600.00
01135              -3.20    -3000.00
01136              -0.80    -3000.00
01137              -2.80    -2800.00
01138              -2.80    -2600.00
01139              -1.60    -2400.00
01140              -1.20    -2000.00
01141              -1.20    -2000.00
01142              -1.20    -1800.00
01143              -2.40    -1600.00
01144              -1.60    -1200.00
01145              -1.60    -1200.00
01146              -0.80     -800.00
01147              -0.80     -800.00
01148              -0.40     -600.00
01149              -0.80     -400.00
01150              -0.40     -200.00
01151              -0.80        0.00
01152               0.80      400.00
01153               1.20      600.00
01154              -0.40      600.00
01155               0.40      800.00
01156               0.80     1000.00
01157               0.00     1400.00
01158               1.20     1200.00
01159              -0.40     1400.00
01160               5.60     1800.00
01161              20.40     2400.00
01162               0.40     2600.00
01163             -32.80     2800.00
01164              -5.20     2800.00
01165               1.20     2400.00
01166              21.60     3000.00
01167              37.60     3400.00
01168             -50.00     3000.00
01169               9.20     3800.00
01170              50.00     3600.00
01171             -50.00     3800.00
01172             -50.00     4400.00
01173              50.00     4400.00
01174             -31.20     4400.00
01175             -50.00     4800.00
01176              50.00     4800.00
01177               1.60     5000.00
01178             -40.80     5600.00
01179              20.80     5400.00
01180              28.00     5600.00
01181              -4.80     6000.00
01182             -34.80     6000.00
01183              34.80     6400.00
01184              38.80     6400.00
01185             -50.00     6400.00
01186              10.00     6800.00
01187              43.60     6800.00
01188             -18.40     7200.00
01189              -8.80     7200.00
01190              24.80     7400.00
01191              16.00     7600.00
01192             -14.00     7600.00
01193               5.60     7800.00
01194              29.60     8000.00
01195             -10.80     8200.00
01196              -5.20     8400.00
01197              32.80     8400.00
01198               2.40     8600.00
01199              -9.20     8600.00
01200              24.40     8800.00
01201              12.80     8800.00
01202              -7.60     9000.00
01203              15.20     9200.00
01204              16.00     9400.00
01205               2.00     9600.00
01206              11.20     9600.00
01207              13.20     9600.00
01208              10.00     9800.00
01209               9.20     9800.00
01210              10.40    10000.00
01211              14.00    10000.00
01212              10.80    10000.00
01213              10.40    10000.00
01214              16.80    10200.00
01215              12.40    10400.00
01216               8.80    10400.00
01217              18.40    10400.00
01218              15.60    10400.00
01219               8.80    10800.00
01220              16.80    10600.00
01221              19.60    10600.00
01222              11.60    10800.00
01223              15.60    10600.00
01224              20.40    10800.00
01225              14.00    10800.00
01226              16.80    10800.00
01227              21.20    11000.00
01228              17.20    11000.00
01229              16.80    11000.00
01230              21.20    10800.00
01231              20.00    10800.00
01232              16.80    11000.00
01233              18.00    11000.00
01234              22.00    10800.00
01235              19.60    11000.00
01236              18.00    11000.00
01237              20.80    11000.00
01238              18.80    10800.00
01239              18.00    11000.00
01240              20.40    10800.00
01241              18.80    10800.00
01242              16.80    10800.00
01243              18.00    10800.00
01244              18.40    10800.00
01245              15.60    10800.00
01246              15.20    10800.00
01247              16.00    10800.00
01248              14.80    10600.00
01249              14.40    10600.00
01250              14.80    10600.00
01251              13.20    10400.00
01252              13.20    10400.00
01253              14.00    10200.00
01254              13.20    10200.00
01255              11.60    10200.00
01256              12.00    10000.00
01257              12.00    10000.00
01258              10.80     9800.00
01259              12.00     9800.00
01260              10.80     9600.00
01261               9.20     9600.00
01262              10.40     9400.00
01263               9.60     9400.00
01264               8.40     9200.00
01265               9.20     9200.00
01266               9.20     9000.00
01267               8.40     9000.00
01268               8.80     8800.00
01269               7.60     8600.00
01270               7.20     8600.00
01271               8.40     8600.00
01272               7.60     8400.00
01273               6.40     8200.00
01274               6.80     8200.00
01275               6.80     8000.00
01276               5.60     7800.00
01277               6.00     7600.00
01278               5.60     7200.00
01279               5.20     7200.00
01280               5.60     7000.00
01281               5.60     7000.00
01282               5.20     6800.00
01283               4.00     6600.00
01284               5.20     6400.00
01285               5.20     6200.00
01286               3.60     6200.00
01287               4.40     6000.00
01288               4.00     6000.00
01289               2.80     5600.00
01290               4.00     5400.00
01291               3.60     5200.00
01292               3.60     5000.00
01293               2.40     4800.00
01294               3.60     4600.00
01295               3.60     4600.00
01296               2.40     4400.00
01297               2.80     4200.00
01298               2.80     4000.00
01299               1.60     3800.00
01300               2.40     3600.00
01301               2.00     3400.00
01302               1.20     3200.00
01303               2.00     3000.00
01304               2.00     2800.00
01305               1.20     2600.00
01306               1.60     2400.00
01307               0.80     2200.00
01308               1.20     2000.00
01309               1.20     1600.00
01310               0.80     1600.00
01311              -0.40     1200.00
01312               0.40     1200.00
01313               0.80      800.00
01314               0.00      600.00
01315              -0.40      400.00
01316               0.40      400.00
01317              -0.40        0.00
01318               0.40        0.00
01319               0.40     -200.00
01320               0.80     -400.00
01321               0.80     -600.00
01322              -1.20     -800.00
01323              -0.80    -1000.00
01324              -0.40    -1000.00
01325              -1.20    -1200.00
01326              -0.80    -1600.00
01327               7.20    -1800.00
01328              28.40    -2400.00
01329             -27.60    -2600.00
01330             -40.80    -3000.00
01331              -2.40    -2600.00
01332              19.60    -2400.00
01333              50.00    -3400.00
01334             -50.00    -3400.00
01335             -50.00    -3000.00
01336              50.00    -4000.00
01337             -23.20    -4000.00
01338             -50.00    -3600.00
01339              50.00    -4400.00
01340              50.00    -4400.00
01341             -50.00    -4400.00
01342              50.00    -4800.00
01343              50.00    -4800.00
01344             -50.00    -5200.00
01345              -2.00    -5400.00
01346              17.60    -5600.00
01347              22.80    -5800.00
01348             -49.60    -5800.00
01349             -30.00    -6000.00
01350              50.00    -6400.00
01351             -45.20    -6200.00
01352             -50.00    -6600.00
01353              50.00    -6800.00
01354             -12.40    -6800.00
01355             -47.20    -7200.00
01356               9.20    -7200.00
01357              21.20    -7400.00
01358             -24.40    -7600.00
01359             -31.20    -7600.00
01360              30.80    -7800.00
01361              -7.60    -8000.00
01362             -39.20    -8000.00
01363              12.00    -8200.00
01364               5.20    -8200.00
01365             -27.60    -8400.00
01366              -8.00    -8800.00
01367              11.60    -8800.00
01368             -23.20    -9000.00
01369             -18.00    -9000.00
01370               7.20    -9200.00
01371             -15.60    -9200.00
01372             -15.20    -9200.00
01373              -5.60    -9600.00
01374              -8.80    -9600.00
01375             -12.00    -9600.00
01376             -16.00    -9800.00
01377              -6.00   -10000.00
01378             -12.00   -10000.00
01379             -19.60   -10000.00
01380              -4.80   -10200.00
01381             -16.40   -10200.00
01382             -17.20   -10400.00
01383             -13.20   -10400.00
01384              -2.80   -10600.00
01385             -20.40   -10600.00
01386             -20.00   -10600.00
01387              -8.40   -10600.00
01388             -18.80   -10600.00
01389             -21.20   -10800.00
01390             -14.00   -10800.00
01391             -15.20   -10800.00
01392             -20.40   -11000.00
01393             -14.00   -10800.00
01394             -15.60   -10800.00
01395             -21.20   -11000.00
01396             -21.60   -10800.00
01397             -18.00   -11000.00
01398             -21.20   -11200.00
01399             -23.20   -11000.00
01400             -15.60   -11000.00
01401             -15.20   -11000.00
01402             -23.60   -11000.00
01403             -19.60   -11000.00
01404             -18.80   -11000.00
01405             -25.20   -10800.00
01406             -18.40   -11000.00
01407             -18.80   -11000.00
01408             -18.40   -10800.00
01409             -20.40   -11000.00
01410             -17.20   -10800.00
01411             -14.00   -10800.00
01412             -20.00   -10800.00
01413             -18.80   -10800.00
01414             -15.20   -10600.00
01415             -16.40   -10600.00
01416             -15.20   -10600.00
01417             -13.20   -10600.00
01418             -14.80   -10600.00
01419             -14.00   -10400.00
01420             -13.60   -10400.00
01421             -14.00   -10200.00
01422             -13.60   -10200.00
01423             -12.00   -10000.00
01424             -13.20   -10000.00
01425             -11.20   -10000.00
01426             -10.40    -9800.00
01427             -12.40    -9800.00
01428             -10.80    -9600.00
01429             -10.40    -9600.00
01430             -10.00    -9400.00
01431             -10.40    -9600.00
01432             -10.80    -9200.00
01433              -9.20    -9000.00
01434              -8.80    -9000.00
01435              -9.60    -8800.00
01436              -9.60    -8800.00
01437              -8.40    -8600.00
01438              -7.60    -8400.00
01439              -8.00    -8400.00
01440              -8.00    -8200.00
01441              -7.60    -8200.00
01442              -7.60    -8000.00
01443              -5.60    -8000.00
01444              -6.80    -7600.00
01445              -7.20    -7600.00
01446              -6.00    -7400.00
01447              -6.00    -7200.00
01448              -6.00    -7000.00
01449              -6.80    -6800.00
01450              -6.00    -6600.00
01451              -5.20    -6400.00
01452              -5.20    -6400.00
01453              -4.40    -6400.00
01454              -5.20    -6000.00
01455              -4.80    -5800.00
01456              -4.00    -5800.00
01457              -4.40    -5600.00
01458              -4.40    -5200.00
01459              -4.40    -5200.00
01460              -4.40    -5000.00
01461              -2.80    -4600.00
01462              -4.00    -4400.00
01463              -4.00    -4400.00
01464              -3.20    -4200.00
01465              -4.40    -4000.00
01466              -2.40    -3800.00
01467              -3.60    -3600.00
01468              -4.00    -3400.00
01469              -1.60    -3200.00
01470              -2.40    -3000.00
01471              -2.40    -2800.00
01472              -1.20    -2600.00
01473              -4.00    -2400.00
01474              -2.00    -2200.00
01475              -0.40    -2000.00
01476              -2.80    -1800.00
01477              -1.20    -1600.00
01478              -1.20    -1600.00
01479              -2.40    -1200.00
01480              -0.80    -1000.00
01481              -0.40     -800.00
01482              -2.40     -400.00
01483              -0.80     -400.00
01484               0.80     -200.00
01485              -1.20        0.00
01486              -0.40        0.00
01487               2.00      400.00
01488               0.40      400.00
01489              -0.80      800.00
01490               1.20      800.00
01491               2.00     1000.00
01492               0.40     1200.00
01493               0.40     1600.00
01494               4.40     1800.00
01495              13.60     2000.00
01496              14.80     2400.00
01497             -26.00     2600.00
01498             -22.00     2800.00
01499               4.40     2600.00
01500               7.20     2800.00
01501              50.00     3400.00
01502             -31.60     3200.00
01503             -50.00     3600.00
01504              50.00     3800.00
01505              11.20     3800.00
01506             -50.00     4200.00
01507              50.00     4400.00
01508              50.00     4400.00
01509             -50.00     4800.00
01510              44.00     5200.00
01511              47.60     4800.00
01512             -48.40     5600.00
01513               0.80     5400.00
01514              29.60     5400.00
01515              11.20     6000.00
01516             -31.60     6000.00
01517               4.40     6200.00
01518              50.00     6400.00
01519             -27.60     6600.00
01520             -22.40     6800.00
01521              48.40     6800.00
01522               1.20     7200.00
01523             -21.60     7200.00
01524              15.60     7200.00
01525              23.20     7600.00
01526              -5.20     7600.00
01527              -8.40     7800.00
01528              29.60     7800.00
01529               5.20     8200.00
01530             -17.20     8200.00
01531              25.60     8400.00
01532              17.20     8400.00
01533             -13.60     8600.00
01534              14.80     8800.00
01535              22.80     8800.00
01536              -6.40     9000.00
01537               5.20     9200.00
01538              20.40     9200.00
01539               5.20     9200.00
01540               5.20     9600.00
01541              14.80     9400.00
01542              11.60     9600.00
01543               8.00     9600.00
01544               8.80     9800.00
01545              13.60    10000.00
01546              12.00    10000.00
01547               8.80    10200.00
01548              15.60    10000.00
01549              15.20    10200.00
01550               8.40    10400.00
01551              15.20    10400.00
01552              18.40    10400.00
01553              10.00    10400.00
01554              13.60    10400.00
01555              20.80    10600.00
01556              14.80    10800.00
01557              12.40    10800.00
01558              20.00    10800.00
01559              17.20    10800.00
01560              14.00    10800.00
01561              21.20    11000.00
01562              19.60    11000.00
01563              15.60    11000.00
01564              19.60    10800.00
01565              21.20    11000.00
01566              18.00    11000.00
01567              17.20    11000.00
01568              20.40    11000.00
01569              21.20    11000.00
01570              18.40    11000.00
01571              20.40    11000.00
01572              20.40    11000.00
01573              18.00    11000.00
01574              19.60    11000.00
01575              19.60    11000.00
01576              17.20    11000.00
01577              16.40    11000.00
01578              18.40    10800.00
01579              16.80    10800.00
01580              14.80    10800.00
01581              15.60    10600.00
01582              15.60    10800.00
01583              14.00    10600.00
01584              15.20    10600.00
01585              13.60    10400.00
01586              13.20    10400.00
01587              13.60    10200.00
01588              13.60    10200.00
01589              11.60    10200.00
01590              11.60    10200.00
01591              11.60    10000.00
01592              11.60    10000.00
01593              11.60    10000.00
01594              10.40     9600.00
01595               9.20     9600.00
01596              10.00     9400.00
01597              10.00     9400.00
01598              10.00     9400.00
01599               8.40     9200.00
01600               9.20     9200.00
01601               8.80     9000.00
01602               8.40     8800.00
01603               7.20     8800.00
01604               7.20     8600.00
01605               7.20     8400.00
01606               7.60     8200.00
01607               6.80     8000.00
01608               6.80     8200.00
01609               6.80     8000.00
01610               6.40     7800.00
01611               6.80     7600.00
01612               6.00     7600.00
01613               5.60     7400.00
01614               5.60     7200.00
01615               5.60     7000.00
01616               5.60     6800.00
01617               4.40     6600.00
01618               4.80     6600.00
01619               5.20     6400.00
01620               4.40     6000.00
01621               4.40     6000.00
01622               4.00     6000.00
01623               3.60     5600.00
01624               3.60     5400.00
01625               4.00     5200.00
01626               3.60     5200.00
01627               2.40     4800.00
01628               3.60     4800.00
01629               3.60     4600.00
01630               2.80     4400.00
01631               2.80     4400.00
01632               2.40     4000.00
01633               2.40     3800.00
01634               2.40     3600.00
01635               2.00     3600.00
01636               1.60     3200.00
01637               1.20     3200.00
01638               2.00     2800.00
01639               2.00     2600.00
01640               0.80     2400.00
01641               1.20     2200.00
01642               1.20     2000.00
01643               1.60     1800.00
01644               0.80     1600.00
01645               0.40     1400.00
01646               0.40     1200.00
01647               0.80     1000.00
01648               0.40      800.00
01649              -0.40      400.00
01650               0.00      400.00
01651               0.00      200.00
01652               0.40        0.00
01653               0.00     -400.00
01654               0.40     -200.00
01655               1.20     -600.00
01656              -1.20     -800.00
01657              -1.20    -1000.00
01658               0.40    -1000.00
01659              -1.20    -1400.00
01660              -2.00    -1400.00
01661               2.40    -1600.00
01662              26.00    -2000.00
01663              -5.60    -2600.00
01664             -50.00    -2800.00
01665              -8.80    -2800.00
01666               4.00    -2400.00
01667              50.00    -3000.00
01668              -2.00    -3600.00
01669             -50.00    -2800.00
01670              50.00    -3600.00
01671              50.00    -4000.00
01672             -50.00    -3400.00
01673              38.80    -4200.00
01674              50.00    -4600.00
01675             -50.00    -4200.00
01676             -13.20    -4800.00
01677              50.00    -5000.00
01678             -50.00    -4800.00
01679             -31.60    -5400.00
01680              17.60    -5400.00
01681              23.20    -5600.00
01682             -12.40    -5800.00
01683             -50.00    -5800.00
01684              50.00    -6400.00
01685              19.60    -6200.00
01686             -50.00    -6600.00
01687              38.40    -7000.00
01688              29.60    -6600.00
01689             -50.00    -7200.00
01690              -9.20    -7200.00
01691              24.80    -7400.00
01692              -3.60    -7600.00
01693             -42.00    -7400.00
01694              12.40    -8000.00
01695              16.80    -8000.00
01696             -42.40    -8000.00
01697              -5.60    -8400.00
01698              17.20    -8200.00
01699             -20.40    -8400.00
01700             -20.00    -8600.00
01701              10.40    -8800.00
01702              -8.80    -9000.00
01703             -27.60    -8800.00
01704               4.00    -9200.00
01705              -6.40    -9200.00
01706             -19.60    -9400.00
01707              -6.80    -9400.00
01708              -7.60    -9600.00
01709              -9.20    -9800.00
01710             -16.00    -9800.00
01711             -12.00    -9800.00
01712              -6.00   -10000.00
01713             -17.20   -10000.00
01714             -13.20   -10000.00
01715              -6.80   -10400.00
01716             -18.40   -10400.00
01717             -16.40   -10400.00
01718              -6.40   -10400.00
01719             -18.00   -10400.00
01720             -20.00   -10600.00
01721             -10.00   -10600.00
01722             -13.60   -10600.00
01723             -21.60   -10600.00
01724             -15.20   -10800.00
01725             -13.20   -10800.00
01726             -23.60   -10800.00
01727             -17.20   -10800.00
01728             -13.20   -11000.00
01729             -22.80   -11000.00
01730             -20.00   -11000.00
01731             -16.40   -10800.00
01732             -18.80   -10800.00
01733             -21.60   -11000.00
01734             -20.80   -11000.00
01735             -17.20   -11200.00
01736             -20.80   -11000.00
01737             -21.60   -11000.00
01738             -18.40   -11200.00
01739             -21.60   -11000.00
01740             -20.40   -11000.00
01741             -18.40   -11000.00
01742             -18.80   -10800.00
01743             -20.40   -11000.00
01744             -18.40   -10800.00
01745             -15.20   -10800.00
01746             -18.40   -10800.00
01747             -18.00   -10800.00
01748             -15.20   -10800.00
01749             -16.40   -10600.00
01750             -14.80   -10600.00
01751             -14.80   -10400.00
01752             -14.80   -10600.00
01753             -14.00   -10400.00
01754             -13.60   -10400.00
01755             -13.20   -10400.00
01756             -14.00   -10200.00
01757             -13.20   -10200.00
01758             -12.40   -10000.00
01759             -11.60    -9800.00
01760             -10.80   -10000.00
01761             -12.00    -9800.00
01762             -10.80    -9800.00
01763             -10.00    -9600.00
01764             -10.40    -9400.00
01765             -10.00    -9200.00
01766             -10.00    -9200.00
01767             -10.00    -9200.00
01768              -8.80    -9000.00
01769              -8.80    -9000.00
01770             -10.00    -8800.00
01771              -8.80    -8800.00
01772              -7.20    -8600.00
01773              -8.80    -8400.00
01774              -8.40    -8400.00
01775              -6.80    -8200.00
01776              -8.00    -8000.00
01777              -7.20    -8000.00
01778              -6.00    -7600.00
01779              -7.20    -7600.00
01780              -7.20    -7400.00
01781              -5.60    -7200.00
01782              -5.60    -7200.00
01783              -6.80    -6800.00
01784              -6.00    -6800.00
01785              -5.20    -6600.00
01786              -5.60    -6400.00
01787              -5.60    -6200.00
01788              -4.40    -6000.00
01789              -5.60    -6000.00
01790              -5.20    -5600.00
01791              -3.60    -5600.00
01792              -4.80    -5600.00
01793              -4.40    -5200.00
01794              -4.40    -5000.00
01795              -3.60    -4800.00
01796              -4.00    -4600.00
01797              -4.40    -4400.00
01798              -3.60    -4200.00
01799              -3.60    -4000.00
01800              -3.20    -4000.00
01801              -1.60    -3800.00
01802              -4.40    -3600.00
01803              -2.80    -3200.00
01804              -2.40    -3200.00
01805              -2.00    -2800.00
01806              -2.00    -2600.00
01807              -2.80    -2600.00
01808              -2.40    -2400.00
01809              -1.20    -2000.00
01810              -2.00    -1800.00
01811              -2.00    -1600.00
01812              -1.60    -1600.00
01813              -1.20    -1400.00
01814              -1.20    -1000.00
01815              -0.80    -1000.00
01816              -0.80     -800.00
01817              -1.20     -400.00
01818               0.00     -200.00
01819               0.40        0.00
01820              -0.80        0.00
01821               0.80      200.00
01822               2.00      400.00
01823              -1.20      600.00
01824               0.00      600.00
01825               1.60     1000.00
01826               0.80     1200.00
01827              -0.40     1400.00
01828               2.80     1600.00
01829               8.80     2000.00
01830              19.60     2400.00
01831             -12.80     2600.00
01832             -31.20     2800.00
01833               2.80     2800.00
01834               2.40     2600.00
01835              40.00     3200.00
01836               8.80     3400.00
01837             -50.00     3200.00
01838              50.00     4000.00
01839              50.00     3800.00
01840             -50.00     3800.00
01841              12.00     4600.00
01842              50.00     4400.00
01843             -50.00     4600.00
01844             -14.80     5200.00
01845              50.00     4600.00
01846             -31.60     5400.00
01847             -22.00     5600.00
01848              28.40     5200.00
01849              22.00     5800.00
01850             -18.00     6000.00
01851             -23.60     6200.00
01852              50.00     6400.00
01853              10.40     6400.00
01854             -47.20     6800.00
01855              32.40     6800.00
01856              26.40     6800.00
01857             -24.80     7200.00
01858               2.80     7200.00
01859              26.40     7600.00
01860               6.80     7600.00
01861             -14.80     7600.00
01862              18.80     7800.00
01863              21.20     8000.00
01864             -19.20     8200.00
01865               9.20     8400.00
01866              29.60     8400.00
01867              -7.60     8600.00
01868               0.80     8600.00
01869              26.40     8800.00
01870               2.80     8800.00
01871              -3.20     9000.00
01872              20.00     9200.00
01873              11.20     9200.00
01874               2.40     9400.00
01875              12.80     9600.00
01876              13.60     9600.00
01877               8.80     9800.00
01878               8.00     9800.00
01879              12.80    10000.00
01880              14.80    10000.00
01881               8.40    10200.00
01882              13.20    10200.00
01883              17.60    10400.00
01884               9.20    10400.00
01885              11.60    10400.00
01886              20.00    10400.00
01887              12.40    10600.00
01888              10.40    10600.00
01889              20.00    10800.00
01890              17.20    10800.00
01891              11.60    10800.00
01892              18.00    10800.00
01893              19.60    10800.00
01894              13.60    10800.00
01895              18.40    11000.00
01896              21.20    11000.00
01897              16.40    11000.00
01898              18.00    11000.00
01899              21.20    11000.00
01900              19.60    11000.00
01901              17.60    11200.00
01902              19.60    11000.00
01903              21.20    10800.00
01904              18.80    11000.00
01905              18.80    11000.00
01906              20.40    10800.00
01907              19.20    11000.00
01908              18.80    10800.00
01909              20.40    11000.00
01910              18.80    11000.00
01911              16.40    10800.00
01912              17.60    10800.00
01913              18.00    10800.00
01914              14.80    10800.00
01915              14.80    10800.00
01916              16.40    10600.00
01917              14.80    10400.00
01918              14.80    10600.00
01919              13.60    10400.00
01920              12.80    10400.00
01921              12.40    10400.00
01922              13.20    10200.00
01923              12.40    10200.00
01924              12.00    10200.00
01925              11.60    10000.00
01926              11.60    10000.00
01927              10.40     9800.00
01928              10.40     9600.00
01929               9.20     9800.00
01930              10.00     9400.00
01931              10.40     9400.00
01932              10.40     9400.00
01933               8.40     9400.00
01934               8.80     9200.00
01935               8.80     9000.00
01936               8.80     8800.00
01937               8.40     8800.00
01938               7.60     8600.00
01939               7.60     8600.00
01940               8.00     8400.00
01941               7.20     8400.00
01942               6.40     8000.00
01943               6.80     8000.00
01944               6.80     7800.00
01945               6.00     7800.00
01946               6.80     7600.00
01947               5.60     7600.00
01948               5.20     7200.00
01949               5.60     7000.00
01950               6.00     6800.00
01951               5.20     6800.00
01952               4.40     6600.00
01953               5.20     6400.00
01954               4.40     6200.00
01955               4.40     6200.00
01956               4.00     6000.00
01957               4.00     5600.00
01958               4.00     5600.00
01959               3.60     5400.00
01960               3.60     5200.00
01961               2.80     5000.00
01962               2.80     4800.00
01963               4.00     4600.00
01964               2.80     4400.00
01965               2.80     4200.00
01966               2.80     4000.00
01967               2.00     3800.00
01968               2.80     3600.00
01969               2.40     3600.00
01970               0.80     3200.00
01971               2.00     3000.00
01972               2.40     2800.00
01973               0.80     2800.00
01974               1.20     2400.00
01975               2.00     2200.00
01976               0.80     2200.00
01977               0.80     2000.00
01978               2.00     1600.00
01979               0.80     1600.00
01980               0.00     1200.00
01981               0.80     1200.00
01982               0.80      800.00
01983              -0.40      800.00
01984              -0.40      400.00
01985               0.40      400.00
01986              -0.80        0.00
01987              -0.80     -200.00
01988               0.80     -400.00
01989               1.20     -400.00
01990              -1.20     -800.00
01991              -1.20     -800.00
01992               0.00    -1000.00
01993              -1.20    -1200.00
01994              -2.40    -1600.00
01995               0.00    -1600.00
01996              15.20    -1800.00
01997              18.00    -2600.00
01998             -42.40    -2800.00
01999             -23.60    -2800.00
02000              -0.40    -2400.00
02001              40.40    -2600.00
02002              42.40    -3600.00
02003             -50.00    -3200.00
02004               6.00    -3200.00
02005              50.00    -4200.00
02006             -50.00    -3800.00
02007             -50.00    -4000.00
02008              50.00    -4600.00
02009             -50.00    -4200.00
02010             -50.00    -4400.00
02011              50.00    -5000.00
02012              -2.40    -4600.00
02013             -50.00    -5200.00
02014              13.20    -5400.00
02015              19.20    -5400.00
02016              13.20    -6000.00
02017             -50.00    -5800.00
02018              13.60    -6000.00
02019              50.00    -6400.00
02020             -50.00    -6400.00
02021             -10.80    -6800.00
02022              50.00    -6800.00
02023             -40.80    -6800.00
02024             -31.20    -7200.00
02025              20.40    -7200.00
02026              14.00    -7600.00
02027             -38.00    -7400.00
02028             -13.60    -7600.00
02029              32.40    -8000.00
02030             -29.20    -8000.00
02031             -26.80    -8400.00
02032              20.40    -8200.00
02033              -7.20    -8400.00
02034             -27.60    -8600.00
02035               3.60    -8800.00
02036               4.40    -9000.00
02037             -30.00    -9000.00
02038              -6.00    -9000.00
02039               2.80    -9200.00
02040             -20.00    -9200.00
02041              -9.20    -9400.00
02042              -6.00    -9600.00
02043              -8.80    -9600.00
02044             -13.60    -9800.00
02045             -14.80    -9800.00
02046              -6.00   -10000.00
02047             -13.60   -10000.00
02048             -16.40   -10000.00
02049              -7.20   -10200.00
02050             -14.40   -10200.00
02051             -20.40   -10400.00
02052              -8.40   -10400.00
02053             -12.40   -10400.00
02054             -21.20   -10600.00
02055             -13.20   -10600.00
02056             -10.80   -10600.00
02057             -20.00   -10800.00
02058             -18.80   -10800.00
02059             -12.00   -10800.00
02060             -20.00   -10800.00
02061             -21.60   -10800.00
02062             -12.40   -10800.00
02063             -20.00   -10800.00
02064             -22.00   -11000.00
02065             -17.20   -11000.00
02066             -18.00   -11000.00
02067             -21.20   -11000.00
02068             -21.60   -11000.00
02069             -18.00   -11000.00
02070             -18.80   -11000.00
02071             -22.00   -11000.00
02072             -18.40   -11000.00
02073             -20.40   -10800.00
02074             -21.60   -10800.00
02075             -18.40   -11000.00
02076             -18.40   -10800.00
02077             -20.40   -10800.00
02078             -19.60   -10800.00
02079             -15.60   -10800.00
02080             -16.80   -10800.00
02081             -18.80   -10800.00
02082             -15.60   -10800.00
02083             -15.60   -10600.00
02084             -15.60   -10600.00
02085             -14.80   -10600.00
02086             -14.80   -10600.00
02087             -14.40   -10400.00
02088             -13.60   -10400.00
02089             -12.40   -10400.00
02090             -14.00   -10400.00
02091             -13.20   -10000.00
02092             -12.00   -10000.00
02093             -12.00   -10000.00
02094             -11.60   -10000.00
02095             -12.00    -9800.00
02096             -12.00    -9800.00
02097             -10.40    -9600.00
02098             -10.40    -9600.00
02099             -10.00    -9200.00
02100             -10.00    -9200.00
02101             -10.40    -9200.00
02102              -8.80    -9200.00
02103              -9.20    -9000.00
02104              -9.20    -8800.00
02105              -9.20    -8800.00
02106              -7.60    -8600.00
02107              -7.60    -8400.00
02108              -8.40    -8200.00
02109              -7.60    -8200.00
02110              -8.40    -8200.00
02111              -7.60    -8000.00
02112              -6.00    -7600.00
02113              -7.60    -7600.00
02114              -7.20    -7600.00
02115              -6.80    -7400.00
02116              -5.60    -7200.00
02117              -6.80    -6800.00
02118              -7.20    -6800.00
02119              -5.60    -6600.00
02120              -4.80    -6600.00
02121              -5.60    -6400.00
02122              -5.20    -6200.00
02123              -5.20    -6000.00
02124              -5.60    -5800.00
02125              -4.40    -5600.00
02126              -4.40    -5600.00
02127              -4.40    -5200.00
02128              -5.20    -5000.00
02129              -3.60    -4800.00
02130              -3.60    -4600.00
02131              -4.40    -4400.00
02132              -4.00    -4400.00
02133              -3.20    -4200.00
02134              -3.60    -4000.00
02135              -2.40    -3800.00
02136              -3.60    -3600.00
02137              -3.20    -3400.00
02138              -2.40    -3200.00
02139              -2.40    -3000.00
02140              -2.40    -2800.00
02141              -2.40    -2800.00
02142              -2.80    -2200.00
02143              -1.20    -2200.00
02144              -1.20    -2000.00
02145              -2.00    -1800.00
02146              -2.00    -1600.00
02147              -1.20    -1400.00
02148              -1.20    -1200.00
02149              -0.80    -1000.00
02150              -1.20     -600.00
02151              -1.20     -600.00
02152              -0.40     -400.00
02153               0.40        0.00
02154              -0.40        0.00
02155               0.40      400.00
02156               2.00      400.00
02157               0.40      600.00
02158              -1.20      800.00
02159               1.20     1200.00
02160               0.80     1000.00
02161               0.40     1400.00
02162               1.20     1600.00
02163               6.00     1800.00
02164              17.20     2400.00
02165               4.00     2600.00
02166             -31.20     2800.00
02167              -8.80     2800.00
02168               2.80     2400.00
02169              18.80     3200.00
02170              40.80     3400.00
02171             -50.00     3200.00
02172              -4.00     3800.00
02173              50.00     3800.00
02174             -50.00     3800.00
02175             -50.00     4400.00
02176              50.00     4400.00
02177             -18.40     4200.00
02178             -50.00     4800.00
02179              50.00     4800.00
02180               8.80     5200.00
02181             -42.80     5600.00
02182              18.00     5400.00
02183              27.60     5600.00
02184              -2.40     6000.00
02185             -36.40     6000.00
02186              30.40     6400.00
02187              42.80     6400.00
02188             -48.40     6400.00
02189               4.40     6800.00
02190              45.60     7000.00
02191             -16.40     7000.00
02192             -10.80     7200.00
02193              23.20     7400.00
02194              16.80     7600.00
02195             -12.80     7800.00
02196               3.60     7800.00
02197              30.00     7800.00
02198              -9.20     8200.00
02199              -7.60     8400.00
02200              32.80     8400.00
02201               4.40     8600.00
02202             -10.40     8800.00
02203              23.20     8800.00
02204              14.00     8800.00
02205              -7.60     9200.00
02206              13.60     9200.00
02207              17.20     9400.00
02208               2.00     9400.00
02209              10.40     9400.00
02210              14.40     9600.00
02211              10.40     9600.00
02212               8.40     9800.00
02213              10.40    10000.00
02214              15.60    10000.00
02215              10.80     9800.00
02216              10.00    10200.00
02217              17.20    10200.00
02218              12.40    10400.00
02219               9.60    10400.00
02220              18.00    10400.00
02221              16.40    10400.00
02222               9.20    10600.00
02223              16.80    10600.00
02224              20.40    10600.00
02225              12.80    10800.00
02226              15.20    10800.00
02227              20.40    10800.00
02228              15.20    10800.00
02229              15.60    10800.00
02230              21.60    11000.00
02231              17.60    10800.00
02232              16.40    10800.00
02233              21.20    11000.00
02234              20.00    10800.00
02235              17.20    11000.00
02236              18.40    11000.00
02237              21.20    11000.00
02238              20.00    11000.00
02239              18.00    11000.00
02240              20.40    10800.00
02241              20.00    10800.00
02242              18.00    11000.00
02243              19.60    10800.00
02244              20.00    11000.00
02245              16.80    10800.00
02246              16.80    10800.00
02247              18.40    10800.00
02248              16.40    10800.00
02249              14.00    10600.00
02250              16.40    10600.00
02251              14.80    10400.00
02252              13.60    10600.00
02253              14.00    10400.00
02254              13.20    10400.00
02255              13.20    10400.00
02256              13.20    10400.00
02257              13.20    10200.00
02258              12.00    10000.00
02259              11.60    10000.00
02260              11.60    10000.00
02261              10.80    10000.00
02262              11.60     9800.00
02263              10.40     9600.00
02264              10.40     9600.00
02265              10.00     9600.00
02266              10.00     9400.00
02267               8.80     9400.00
02268               8.80     9200.00
02269               9.20     9200.00
02270               9.20     8800.00
02271               8.40     8800.00
02272               7.60     8600.00
02273               7.20     8600.00
02274               8.40     8400.00
02275               7.20     8400.00
02276               7.20     8200.00
02277               6.80     8000.00
02278               6.00     7800.00
02279               6.40     7800.00
02280               6.80     7600.00
02281               5.60     7600.00
02282               5.20     7200.00
02283               6.80     7200.00
02284               6.00     6800.00
02285               5.20     6800.00
02286               4.40     6800.00
02287               5.20     6400.00
02288               5.20     6400.00
02289               4.40     6200.00
02290               4.40     6000.00
02291               4.40     6000.00
02292               4.00     5600.00
02293               4.00     5400.00
02294               4.00     5400.00
02295               2.80     5000.00
02296               3.20     4800.00
02297               3.60     4600.00
02298               3.60     4400.00
02299               2.80     4200.00
02300               2.80     4000.00
02301               2.80     4000.00
02302               2.00     3600.00
02303               2.40     3600.00
02304               2.00     3200.00
02305               2.00     3200.00
02306               2.00     3000.00
02307               2.00     2800.00
02308               1.60     2600.00
02309               1.20     2400.00
02310               1.20     2200.00
02311               0.80     2000.00
02312               0.80     1800.00
02313               0.80     1600.00
02314               0.40     1400.00
02315               0.00     1200.00
02316               0.80      800.00
02317               0.40      800.00
02318              -0.40      400.00
02319              -0.40      400.00
02320              -0.40      200.00
02321              -0.40     -200.00
02322               0.40     -200.00
02323               0.80     -400.00
02324               0.40     -800.00
02325              -1.60     -800.00
02326              -0.80     -800.00
02327              -0.40    -1200.00
02328              -2.00    -1200.00
02329              -1.20    -1600.00
02330               6.80    -1600.00
02331              28.00    -2400.00
02332             -23.60    -2800.00
02333             -42.80    -2800.00
02334              -3.60    -2800.00
02335              16.80    -2400.00
02336              50.00    -3200.00
02337             -50.00    -3400.00
02338             -50.00    -2800.00
02339              50.00    -4000.00
02340              -2.40    -4000.00
02341             -50.00    -3600.00
02342              50.00    -4400.00
02343              50.00    -4400.00
02344             -50.00    -4200.00
02345              50.00    -5000.00
02346              50.00    -4800.00
02347             -50.00    -5000.00
02348              -5.60    -5600.00
02349              16.80    -5400.00
02350              24.00    -5600.00
02351             -42.80    -5800.00
02352             -37.20    -6000.00
02353              50.00    -6400.00
02354             -36.00    -6400.00
02355             -50.00    -6600.00
02356              50.00    -6800.00
02357              -6.00    -6800.00
02358             -48.80    -7200.00
02359               7.20    -7200.00
02360              22.80    -7400.00
02361             -20.40    -7600.00
02362             -34.40    -7800.00
02363              28.80    -8000.00
02364              -4.00    -8000.00
02365             -40.80    -8200.00
02366              10.00    -8400.00
02367               7.20    -8400.00
02368             -26.80    -8400.00
02369             -10.00    -8600.00
02370              11.60    -8800.00
02371             -20.40    -9000.00
02372             -19.60    -9200.00
02373               6.80    -9200.00
02374             -14.00    -9200.00
02375             -16.40    -9400.00
02376              -6.00    -9600.00
02377              -8.80    -9600.00
02378             -11.60    -9800.00
02379             -16.80    -9800.00
02380              -8.40    -9800.00
02381              -9.20   -10000.00
02382             -18.40   -10000.00
02383              -8.80   -10000.00
02384             -10.00   -10200.00
02385             -21.20   -10400.00
02386             -12.00   -10400.00
02387              -8.80   -10600.00
02388             -21.60   -10400.00
02389             -16.80   -10600.00
02390              -9.60   -10600.00
02391             -17.20   -10800.00
02392             -20.40   -10800.00
02393             -13.20   -10800.00
02394             -16.80   -10800.00
02395             -23.20   -10800.00
02396             -14.00   -11000.00
02397             -16.40   -10800.00
02398             -23.60   -11000.00
02399             -18.40   -10800.00
02400             -16.40   -11000.00
02401             -20.00   -10800.00
02402             -22.00   -10800.00
02403             -18.40   -11000.00
02404             -18.00   -11000.00
02405             -22.00   -11000.00
02406             -20.00   -11000.00
02407             -20.40   -11000.00
02408             -21.60   -10800.00
02409             -18.80   -11000.00
02410             -18.80   -10800.00
02411             -19.60   -11000.00
02412             -20.00   -10800.00
02413             -17.20   -10800.00
02414             -16.40   -10800.00
02415             -18.40   -10800.00
02416             -16.40   -10800.00
02417             -15.20   -10600.00
02418             -15.60   -10600.00
02419             -14.40   -10800.00
02420             -15.20   -10400.00
02421             -14.40   -10600.00
02422             -13.60   -10400.00
02423             -14.00   -10400.00
02424             -12.40   -10200.00
02425             -13.20   -10400.00
02426             -13.20   -10200.00
02427             -10.80   -10000.00
02428             -11.60   -10000.00
02429             -12.00    -9800.00
02430             -10.40    -9800.00
02431             -11.20    -9800.00
02432             -10.80    -9600.00
02433              -8.80    -9400.00
02434             -10.40    -9200.00
02435             -10.80    -9200.00
02436              -8.40    -9200.00
02437              -9.20    -9000.00
02438              -9.60    -8800.00
02439              -9.20    -8800.00
02440              -9.20    -8600.00
02441              -8.00    -8400.00
02442              -7.20    -8400.00
02443              -8.40    -8400.00
02444              -8.40    -8200.00
02445              -7.20    -8000.00
02446              -6.80    -7600.00
02447              -7.20    -7600.00
02448              -7.60    -7600.00
02449              -7.20    -7400.00
02450              -6.00    -7200.00
02451              -6.00    -7200.00
02452              -6.80    -6800.00
02453              -6.80    -6800.00
02454              -4.80    -6600.00
02455              -5.60    -6400.00
02456              -5.20    -6400.00
02457              -4.80    -5800.00
02458              -5.60    -5800.00
02459              -4.40    -5800.00
02460              -4.00    -5400.00
02461              -4.40    -5400.00
02462              -5.20    -5000.00
02463              -4.00    -5000.00
02464              -3.60    -4600.00
02465              -4.40    -4600.00
02466              -4.00    -4400.00
02467              -2.80    -4200.00
02468              -4.00    -4000.00
02469              -2.40    -3600.00
02470              -2.40    -3600.00
02471              -4.00    -3400.00
02472              -2.40    -3200.00
02473              -2.40    -3000.00
02474              -2.00    -2800.00
02475              -2.40    -2800.00
02476              -2.80    -2400.00
02477              -1.20    -2200.00
02478              -1.60    -2000.00
02479              -2.00    -2000.00
02480              -1.20    -1600.00
02481              -1.20    -1600.00
02482              -2.00    -1200.00
02483              -0.40    -1000.00
02484              -0.40     -800.00
02485              -1.20     -800.00
02486              -0.80     -400.00
02487               0.40     -200.00
02488               0.00        0.00
02489              -0.40      200.00
02490               1.20      400.00
02491               1.60      600.00
02492              -1.20      600.00
02493               0.80      800.00
02494               2.00     1200.00
02495               0.40     1400.00
02496               0.40     1600.00
02497               4.40     1600.00
02498              13.20     2200.00
02499              16.40     2400.00
02500             -24.80     2800.00
02501             -24.40     2800.00
02502               5.20     2600.00
02503               5.60     2800.00
02504              50.00     3600.00
02505             -24.80     3200.00
02506             -50.00     3600.00
02507              50.00     4000.00
02508              24.80     3800.00
02509             -50.00     4000.00
02510              50.00     4400.00
02511              50.00     4200.00
02512             -50.00     4800.00
02513              36.00     5200.00
02514              50.00     4800.00
02515             -48.80     5400.00
02516              -2.40     5600.00
02517              29.20     5400.00
02518              12.40     6000.00
02519             -30.00     6000.00
02520              -1.20     6200.00
02521              50.00     6400.00
02522             -21.60     6400.00
02523             -27.60     6800.00
02524              45.60     6800.00
02525               5.20     7200.00
02526             -22.40     7200.00
02527              13.20     7200.00
02528              24.40     7600.00
02529              -3.60     7800.00
02530             -10.00     7800.00
02531              28.80     8000.00
02532               8.00     8000.00
02533             -18.40     8200.00
02534              23.60     8400.00
02535              19.60     8600.00
02536             -13.60     8600.00
02537              12.40     8800.00
02538              24.40     8800.00
02539              -4.80     9000.00
02540               3.60     9200.00
02541              22.80     9200.00
02542               4.80     9400.00
02543               5.20     9600.00
02544              15.60     9600.00
02545              10.80     9600.00
02546               8.40     9600.00
02547              10.40     9800.00
02548              13.20    10000.00
02549              13.60    10200.00
02550               9.20    10000.00
02551              14.40    10200.00
02552              15.60    10400.00
02553               8.80    10200.00
02554              15.20    10400.00
02555              18.40    10400.00
02556              10.80    10600.00
02557              13.60    10400.00
02558              20.40    10600.00
02559              14.80    10800.00
02560              13.60    10600.00
02561              20.00    10800.00
02562              17.60    10800.00
02563              15.20    10800.00
02564              20.40    10800.00
02565              19.60    10800.00
02566              15.20    11000.00
02567              20.00    11000.00
02568              21.60    10800.00
02569              18.40    11000.00
02570              16.80    11000.00
02571              20.00    11000.00
02572              20.40    10800.00
02573              18.40    11000.00
02574              20.00    11000.00
02575              20.80    10800.00
02576              18.40    10800.00
02577              18.80    10800.00
02578              19.60    10800.00
02579              17.20    11000.00
02580              16.40    10800.00
02581              18.00    10800.00
02582              17.20    10800.00
02583              14.80    10800.00
02584              15.20    10600.00
02585              15.60    10800.00
02586              14.40    10600.00
02587              14.00    10400.00
02588              13.60    10400.00
02589              13.60    10400.00
02590              13.20    10400.00
02591              12.40    10200.00
02592              12.40    10200.00
02593              12.00    10200.00
02594              10.80    10000.00
02595              11.60    10000.00
02596              12.00     9800.00
02597              10.00     9600.00
02598               9.20     9600.00
02599              10.80     9600.00
02600               9.60     9400.00
02601               9.20     9400.00
02602               9.60     9200.00
02603               9.20     9000.00
02604               8.40     9000.00
02605               8.80     8800.00
02606               8.40     8800.00
02607               7.60     8600.00
02608               7.60     8400.00
02609               8.40     8400.00
02610               7.20     8200.00
02611               6.80     8200.00
02612               7.20     7800.00
02613               6.80     7800.00
02614               6.80     7800.00
02615               6.80     7400.00
02616               5.60     7400.00
02617               5.20     7200.00
02618               6.80     7000.00
02619               6.00     6800.00
02620               4.00     6800.00
02621               5.20     6600.00
02622               5.20     6400.00
02623               5.20     6200.00
02624               4.00     6200.00
02625               4.00     5800.00
02626               4.80     5600.00
02627               4.00     5400.00
02628               2.80     5200.00
02629               4.40     5200.00
02630               3.60     4800.00
02631               2.00     4800.00
02632               4.00     4600.00
02633               3.60     4400.00
02634               1.60     4200.00
02635               2.80     4000.00
02636               2.40     3600.00
02637               2.00     3600.00
02638               2.00     3400.00
02639               1.20     3200.00
02640               1.20     3000.00
02641               2.00     2800.00
02642               1.60     2600.00
02643               1.60     2400.00
02644               0.80     2200.00
02645               0.80     2000.00
02646               1.20     1800.00
02647               0.80     1600.00
02648              -0.40     1400.00
02649               0.80     1200.00
02650               0.40     1000.00
02651              -0.80      800.00
02652               0.40      600.00
02653               0.00      400.00
02654              -1.20        0.00
02655               0.00        0.00
02656               0.80        0.00
02657              -0.80     -400.00
02658               0.80     -400.00
02659              -0.80     -600.00
02660              -0.80    -1000.00
02661               0.40    -1200.00
02662              -1.20    -1200.00
02663              -1.20    -1600.00
02664               1.20    -1600.00
02665              24.40    -2000.00
02666              -1.20    -2600.00
02667             -49.20    -2800.00
02668             -10.80    -2800.00
02669               2.80    -2400.00
02670              50.00    -3000.00
02671               7.20    -3600.00
02672             -50.00    -2800.00
02673              50.00    -3400.00
02674              50.00    -4200.00
02675             -50.00    -3600.00
02676              21.20    -4000.00
02677              50.00    -4600.00
02678             -50.00    -4200.00
02679             -29.20    -4600.00
02680              50.00    -5000.00
02681             -50.00    -4600.00
02682             -37.60    -5400.00
02683              18.00    -5400.00
02684              23.60    -5600.00
02685              -7.60    -6000.00
02686             -50.00    -6000.00
02687              50.00    -6400.00
02688              28.80    -6200.00
02689             -50.00    -6600.00
02690              33.20    -7000.00
02691              36.00    -6600.00
02692             -50.00    -7200.00
02693             -12.40    -7200.00
02694              24.80    -7200.00
02695              -0.40    -7600.00
02696             -42.40    -7400.00
02697               8.80    -7800.00
02698              20.00    -8000.00
02699             -42.00    -8000.00
02700             -10.00    -8400.00
02701              18.40    -8400.00
02702             -18.40    -8400.00
02703             -22.40    -8600.00
02704              10.00    -8800.00
02705              -6.00    -8800.00
02706             -28.40    -9000.00
02707               2.80    -9200.00
02708              -5.20    -9200.00
02709             -20.40    -9200.00
02710              -6.80    -9600.00
02711              -7.60    -9600.00
02712             -10.00    -9800.00
02713             -15.20    -9800.00
02714             -12.40    -9800.00
02715              -6.80   -10000.00
02716             -16.80   -10000.00
02717             -14.00   -10000.00
02718              -6.80   -10400.00
02719             -18.00   -10400.00
02720             -17.60   -10400.00
02721              -6.00   -10400.00
02722             -17.20   -10400.00
02723             -21.20   -10600.00
02724             -10.00   -10600.00
02725             -13.20   -10600.00
02726             -22.80   -10800.00
02727             -15.20   -10800.00
02728             -12.00   -10800.00
02729             -24.40   -10800.00
02730             -18.40   -10800.00
02731             -12.00   -10800.00
02732             -22.80   -11000.00
02733             -21.20   -11000.00
02734             -15.60   -10800.00
02735             -18.40   -11000.00
02736             -21.60   -11000.00
02737             -20.40   -11000.00
02738             -16.80   -10800.00
02739             -20.40   -10800.00
02740             -21.20   -11000.00
02741             -18.00   -11000.00
02742             -21.60   -10800.00
02743             -20.40   -11200.00
02744             -18.40   -10800.00
02745             -18.80   -10800.00
02746             -20.40   -10800.00
02747             -18.40   -10800.00
02748             -15.20   -10800.00
02749             -18.00   -10800.00
02750             -18.80   -10800.00
02751             -15.20   -10800.00
02752             -14.00   -10600.00
02753             -14.80   -10600.00
02754             -15.60   -10600.00
02755             -13.60   -10400.00
02756             -14.00   -10400.00
02757             -14.80   -10400.00
02758             -12.40   -10400.00
02759             -12.80   -10000.00
02760             -13.20   -10000.00
02761             -12.40   -10000.00
02762             -11.20   -10000.00
02763             -12.00   -10000.00
02764             -12.40    -9800.00
02765             -10.80    -9800.00
02766             -10.00    -9600.00
02767             -10.00    -9400.00
02768             -10.40    -9400.00
02769             -12.00    -9200.00
02770              -9.20    -9200.00
02771              -8.80    -9000.00
02772             -10.00    -8800.00
02773              -8.80    -8800.00
02774              -7.60    -8800.00
02775              -8.80    -8400.00
02776              -8.40    -8400.00
02777              -7.60    -8400.00
02778              -8.00    -8200.00
02779              -8.80    -8000.00
02780              -6.00    -8000.00
02781              -6.00    -7800.00
02782              -7.60    -7600.00
02783              -6.40    -7400.00
02784              -6.00    -7200.00
02785              -6.00    -7000.00
02786              -6.40    -7000.00
02787              -6.40    -6800.00
02788              -5.20    -6600.00
02789              -5.60    -6400.00
02790              -5.60    -6200.00
02791              -4.40    -6000.00
02792              -6.00    -5800.00
02793              -4.40    -5800.00
02794              -3.60    -5600.00
02795              -4.40    -5600.00
02796              -4.40    -5200.00
02797              -4.00    -5000.00
02798              -4.00    -4800.00
02799              -2.80    -4600.00
02800              -4.00    -4400.00
02801              -4.40    -4200.00
02802              -2.40    -4000.00
02803              -2.00    -4000.00
02804              -2.80    -3600.00
02805              -4.00    -3600.00
02806              -2.00    -3400.00
02807              -2.80    -3200.00
02808              -2.00    -2800.00
02809              -1.20    -2800.00
02810              -2.40    -2600.00
02811              -2.80    -2400.00
02812              -1.20    -2000.00
02813              -1.20    -2000.00
02814              -2.00    -1800.00
02815              -1.20    -1600.00
02816              -0.40    -1200.00
02817              -0.80    -1000.00
02818              -1.20     -800.00
02819              -1.20     -800.00
02820              -1.20     -400.00
02821               0.00     -200.00
02822              -0.40        0.00
02823              -1.20        0.00
02824               0.80      400.00
02825               2.00      600.00
02826              -0.40      800.00
02827              -0.40      800.00
02828               1.20     1000.00
02829               0.80     1200.00
02830               0.00     1200.00
02831               2.40     1600.00
02832               8.40     2000.00
02833              20.00     2400.00
02834             -10.40     2400.00
02835             -32.40     2800.00
02836               1.20     2600.00
02837               2.00     2600.00
02838              37.20     3200.00
02839              14.00     3400.00
02840             -50.00     3200.00
02841              50.00     3800.00
02842              50.00     3800.00
02843             -50.00     3800.00
02844              -1.20     4400.00
02845              50.00     4400.00
02846             -50.00     4600.00
02847             -24.80     5200.00
02848              50.00     4800.00
02849             -28.00     5400.00
02850             -26.00     5400.00
02851              27.60     5400.00
02852              23.20     5600.00
02853             -15.60     6000.00
02854             -26.00     6200.00
02855              49.20     6200.00
02856              15.20     6400.00
02857             -48.80     6600.00
02858              29.60     6800.00
02859              29.60     7000.00
02860             -24.40     7200.00
02861               1.20     7200.00
02862              26.40     7600.00
02863               8.40     7600.00
02864             -14.80     7800.00
02865              16.80     7800.00
02866              23.20     8000.00
02867             -18.40     8200.00
02868               6.00     8400.00
02869              30.80     8400.00
02870              -6.00     8600.00
02871              -1.20     8600.00
02872              26.80     8800.00
02873               4.40     9000.00
02874              -3.60     8800.00
02875              19.20     9400.00
02876              11.60     9400.00
02877               2.80     9400.00
02878              12.40     9600.00
02879              12.00     9400.00
02880              10.40     9600.00
02881               8.40     9800.00
02882              11.60    10000.00
02883              15.20    10000.00
02884               9.20    10200.00
02885              12.00    10000.00
02886              17.60    10400.00
02887              10.40    10400.00
02888              10.80    10400.00
02889              19.60    10400.00
02890              13.20    10600.00
02891              10.40    10800.00
02892              19.20    10600.00
02893              18.00    10800.00
02894              11.60    10800.00
02895              17.20    10800.00
02896              19.60    10800.00
02897              14.40    10800.00
02898              18.40    10800.00
02899              21.20    11000.00
02900              16.40    11000.00
02901              16.80    11000.00
02902              20.40    11000.00
02903              19.20    10800.00
02904              17.20    11000.00
02905              19.60    11000.00
02906              21.60    11000.00
02907              18.80    10800.00
02908              18.40    11000.00
02909              20.40    11000.00
02910              18.40    11000.00
02911              18.00    11000.00
02912              20.40    11000.00
02913              18.40    10800.00
02914              15.60    10800.00
02915              18.00    10800.00
02916              18.00    10800.00
02917              14.80    10800.00
02918              15.20    10800.00
02919              15.20    10600.00
02920              14.00    10600.00
02921              15.20    10400.00
02922              14.00    10400.00
02923              13.20    10400.00
02924              13.60    10400.00
02925              13.20    10200.00
02926              12.00    10200.00
02927              12.00    10000.00
02928              12.00    10000.00
02929              11.60    10000.00
02930              10.80    10000.00
02931              11.20     9600.00
02932              10.00     9600.00
02933              10.40     9600.00
02934              10.80     9400.00
02935              10.40     9200.00
02936               8.80     9400.00
02937               9.20     9200.00
02938               9.60     9000.00
02939               8.40     9000.00
02940               8.40     8800.00
02941               8.00     8600.00
02942               7.20     8600.00
02943               8.40     8400.00
02944               8.00     8400.00
02945               6.80     8000.00
02946               6.40     8000.00
02947               6.80     8000.00
02948               6.80     7800.00
02949               6.80     7400.00
02950               5.60     7400.00
02951               6.00     7200.00
02952               6.40     7000.00
02953               5.60     7000.00
02954               5.20     6800.00
02955               4.80     6600.00
02956               5.20     6400.00
02957               5.20     6200.00
02958               4.00     6200.00
02959               4.00     6000.00
02960               4.00     5800.00
02961               3.60     5400.00
02962               4.00     5400.00
02963               3.60     5200.00
02964               2.80     4800.00
02965               3.60     4800.00
02966               3.60     4600.00
02967               2.80     4600.00
02968               2.40     4200.00
02969               2.40     4000.00
02970               2.40     3800.00
02971               2.00     3600.00
02972               2.00     3600.00
02973               1.20     3200.00
02974               1.20     3200.00
02975               2.00     3000.00
02976               1.20     2800.00
02977               0.80     2600.00
02978               1.60     2200.00
02979               0.80     2000.00
02980               0.40     2000.00
02981               1.20     1800.00
02982               0.40     1400.00
02983               0.40     1400.00
02984               0.40      800.00
02985               0.80      800.00
02986               0.40      600.00
02987              -0.40      400.00
02988              -0.80      200.00
02989               0.40        0.00
02990               0.00     -200.00
02991              -0.80     -200.00
02992               1.60     -400.00
02993               0.40     -800.00
02994              -1.60     -800.00
02995              -0.80    -1000.00
02996               0.40    -1200.00
02997              -2.00    -1400.00
02998              -0.40    -1600.00
02999              13.60    -1800.00
03000              20.00    -2600.00
03001             -39.20    -2800.00
03002             -26.40    -2800.00
03003              -1.20    -2600.00
03004              37.60    -2600.00
03005              46.80    -3400.00
03006             -50.00    -3200.00
03007              -6.80    -3200.00
03008              50.00    -4000.00
03009             -50.00    -3800.00
03010             -50.00    -4000.00
03011              50.00    -4800.00
03012             -38.00    -4200.00
03013             -50.00    -4400.00
03014              50.00    -5000.00
03015               8.00    -4800.00
03016             -50.00    -5400.00
03017              12.00    -5400.00
03018              20.00    -5400.00
03019              15.60    -6000.00
03020             -50.00    -5800.00
03021               7.60    -6200.00
03022              50.00    -6400.00
03023             -50.00    -6200.00
03024             -18.40    -6800.00
03025              50.00    -6800.00
03026             -38.80    -6800.00
03027             -33.20    -7400.00
03028              18.80    -7200.00
03029              14.80    -7400.00
03030             -35.60    -7600.00
03031             -17.20    -7800.00
03032              32.80    -8000.00
03033             -25.20    -8000.00
03034             -29.20    -8400.00
03035              18.40    -8400.00
03036              -6.00    -8400.00
03037             -28.00    -8600.00
03038               0.80    -8800.00
03039               5.60    -9000.00
03040             -28.40    -9000.00
03041              -8.40    -9200.00
03042               4.00    -9200.00
03043             -19.60    -9200.00
03044             -10.80    -9400.00
03045              -6.40    -9600.00
03046              -9.20    -9600.00
03047             -13.20    -9800.00
03048             -15.60    -9800.00
03049              -6.80   -10000.00
03050             -12.80   -10000.00
03051             -17.20   -10000.00
03052              -6.40   -10000.00
03053             -13.20   -10200.00
03054             -20.80   -10400.00
03055              -8.80   -10400.00
03056             -12.00   -10600.00
03057             -22.40   -10400.00
03058             -13.60   -10600.00
03059              -9.60   -10600.00
03060             -19.60   -10800.00
03061             -19.60   -10800.00
03062             -11.60   -10800.00
03063             -19.60   -10800.00
03064             -22.00   -10800.00
03065             -12.00   -10800.00
03066             -18.40   -10800.00
03067             -23.20   -10800.00
03068             -16.80   -11000.00
03069             -17.20   -11000.00
03070             -20.80   -11000.00
03071             -21.60   -11200.00
03072             -16.80   -11000.00
03073             -18.80   -10800.00
03074             -22.00   -11000.00
03075             -18.40   -11000.00
03076             -20.00   -10800.00
03077             -21.60   -10800.00
03078             -18.40   -11000.00
03079             -18.40   -10800.00
03080             -20.40   -11000.00
03081             -19.60   -10800.00
03082             -15.60   -10800.00
03083             -16.80   -10800.00
03084             -17.60   -10800.00
03085             -15.20   -10800.00
03086             -15.20   -10600.00
03087             -15.20   -10600.00
03088             -14.80   -10600.00
03089             -16.40   -10400.00
03090             -15.60   -10600.00
03091             -13.20   -10400.00
03092             -13.20   -10400.00
03093             -14.00   -10200.00
03094             -10.80   -10400.00
03095             -11.20   -10000.00
03096             -13.20    -9800.00
03097             -10.80   -10000.00
03098             -12.40    -9800.00
03099             -14.00    -9800.00
03100             -10.80    -9600.00
03101             -10.40    -9600.00
03102             -10.00    -9200.00
03103              -9.20    -9200.00
03104              -9.20    -9200.00
03105              -8.80    -9200.00
03106              -8.00    -9000.00
03107             -10.80    -9000.00
03108             -11.60    -8800.00
03109              -7.60    -8600.00
03110              -7.60    -8400.00
03111              -8.80    -8200.00
03112              -5.20    -8200.00
03113              -6.00    -8200.00
03114              -9.20    -8000.00
03115              -6.80    -7600.00
03116              -7.20    -7600.00
03117              -9.60    -7400.00
03118              -6.80    -7200.00
03119              -4.40    -7200.00
03120              -5.60    -7000.00
03121              -5.60    -6800.00
03122              -4.40    -6600.00
03123              -6.00    -6600.00
03124              -7.20    -6400.00
03125              -6.00    -6200.00
03126              -4.40    -6000.00
03127              -4.40    -5600.00
03128              -2.80    -5600.00
03129              -2.40    -5600.00
03130              -4.40    -5200.00
03131              -6.00    -5000.00
03132              -4.00    -4800.00
03133              -4.40    -4600.00
03134              -4.40    -4400.00
03135              -2.40    -4400.00
03136              -2.00    -4200.00
03137              -2.40    -4000.00
03138              -1.60    -3600.00
03139              -3.60    -3600.00
03140              -4.00    -3400.00
03141              -3.20    -3200.00
03142              -2.40    -3000.00
03143              -1.20    -2800.00
03144              -2.00    -2800.00
03145              -2.40    -2400.00
03146              -0.80    -2200.00
03147              -2.00    -2000.00
03148              -2.40    -2000.00
03149              -2.00    -1600.00
03150              -1.20    -1200.00
03151              -0.80    -1000.00
03152              -0.80    -1000.00
03153              -0.40     -800.00
03154              -1.20     -600.00
03155              -0.80     -400.00
03156              -0.40        0.00
03157              -0.80        0.00
03158              -0.80        0.00
03159               2.00      400.00
03160               0.80      600.00
03161              -2.00      800.00
03162               0.80     1000.00
03163               2.00     1200.00
03164              -1.20     1200.00
03165               0.80     1600.00
03166               6.80     1800.00
03167              16.40     2200.00
03168               5.60     2400.00
03169             -30.80     2800.00
03170             -12.00     2800.00
03171               2.40     2400.00
03172              16.80     3200.00
03173              43.60     3400.00
03174             -50.00     3200.00
03175             -15.60     3600.00
03176              50.00     3800.00
03177             -50.00     3600.00
03178             -50.00     4400.00
03179              50.00     4400.00
03180              -5.60     4200.00
03181             -50.00     4800.00
03182              50.00     4800.00
03183              15.60     5200.00
03184             -45.20     5600.00
03185              16.00     5400.00
03186              27.60     5600.00
03187               0.40     6000.00
03188             -36.40     6000.00
03189              25.60     6200.00
03190              47.20     6400.00
03191             -46.00     6400.00
03192               0.40     6800.00
03193              47.60     6800.00
03194             -14.00     7000.00
03195             -13.60     7200.00
03196              22.80     7400.00
03197              18.00     7600.00
03198             -11.20     7600.00
03199               0.80     7800.00
03200              30.40     7800.00
03201              -7.20     8200.00
03202              -8.80     8200.00
03203              32.00     8400.00
03204               6.00     8600.00
03205             -10.40     8600.00
03206              22.00     8800.00
03207              16.00     8800.00
03208              -7.20     8800.00
03209              12.00     9200.00
03210              17.20     9400.00
03211               2.40     9400.00
03212               9.60     9600.00
03213              14.00     9600.00
03214              11.20     9600.00
03215               8.80     9800.00
03216              10.40    10000.00
03217              15.20    10000.00
03218              11.60    10000.00
03219               8.80    10200.00
03220              16.80    10200.00
03221              13.60    10200.00
03222               7.60    10400.00
03223              17.20    10400.00
03224              17.20    10400.00
03225               8.80    10400.00
03226              15.60    10600.00
03227              20.00    10800.00
03228              12.40    10600.00
03229              14.80    10600.00
03230              21.20    10800.00
03231              15.60    10800.00
03232              15.20    10800.00
03233              21.60    11000.00
03234              18.00    10800.00
03235              15.60    10800.00
03236              20.00    11000.00
03237              20.00    11000.00
03238              17.20    10800.00
03239              18.00    11000.00
03240              21.20    11000.00
03241              20.00    11000.00
03242              18.40    11000.00
03243              20.40    11000.00
03244              20.00    10800.00
03245              18.00    10800.00
03246              20.00    10800.00
03247              18.80    10800.00
03248              16.80    10800.00
03249              16.80    10800.00
03250              18.40    10800.00
03251              16.40    10800.00
03252              14.80    10800.00
03253              16.00    10800.00
03254              15.20    10600.00
03255              14.40    10400.00
03256              14.80    10400.00
03257              13.60    10400.00
03258              13.20    10200.00
03259              13.20    10400.00
03260              13.20    10200.00
03261              12.40    10200.00
03262              11.60    10000.00
03263              12.00    10000.00
03264              10.80    10000.00
03265              11.20     9800.00
03266              10.40     9600.00
03267              10.00     9600.00
03268              10.80     9400.00
03269              10.80     9400.00
03270               8.40     9200.00
03271               9.60     9200.00
03272               9.20     9200.00
03273               8.40     9000.00
03274               8.80     8800.00
03275               8.40     8600.00
03276               7.20     8600.00
03277               8.40     8400.00
03278               8.40     8400.00
03279               7.20     8200.00
03280               6.80     8000.00
03281               6.80     8000.00
03282               6.80     7800.00
03283               6.80     7600.00
03284               5.60     7200.00
03285               5.60     7400.00
03286               5.60     7000.00
03287               5.60     7000.00
03288               5.20     6800.00
03289               4.00     6600.00
03290               5.20     6400.00
03291               5.20     6200.00
03292               4.40     6200.00
03293               4.00     6000.00
03294               4.00     5800.00
03295               3.60     5600.00
03296               4.00     5400.00
03297               4.00     5200.00
03298               2.80     5000.00
03299               2.80     4800.00
03300               3.60     4600.00
03301               3.60     4400.00
03302               2.40     4400.00
03303               2.40     4000.00
03304               2.40     3800.00
03305               2.40     3600.00
03306               2.00     3400.00
03307               2.00     3200.00
03308               1.20     3200.00
03309               1.20     2800.00
03310               2.40     2800.00
03311               2.00     2600.00
03312               0.80     2400.00
03313               1.20     2000.00
03314               1.20     2000.00
03315               0.80     1800.00
03316               0.80     1600.00
03317               0.40     1400.00
03318               0.40     1200.00
03319               0.80      800.00
03320               0.40      800.00
03321               0.00      600.00
03322              -0.40      400.00
03323               0.00        0.00
03324              -0.40        0.00
03325               0.80     -400.00
03326               1.20     -400.00
03327               0.40     -800.00
03328              -1.20     -800.00
03329              -0.40    -1000.00
03330              -0.40    -1200.00
03331              -1.20    -1400.00
03332              -1.20    -1600.00
03333               5.60    -1800.00
03334              29.60    -2400.00
03335             -20.40    -2800.00
03336             -44.80    -3000.00
03337              -3.60    -2800.00
03338              13.60    -2400.00
03339              50.00    -3200.00
03340             -50.00    -3600.00
03341             -50.00    -2800.00
03342              50.00    -4000.00
03343              17.20    -4000.00
03344             -50.00    -3600.00
03345              50.00    -4400.00
03346              50.00    -4400.00
03347             -50.00    -4200.00
03348              50.00    -4800.00
03349              50.00    -4800.00
03350             -50.00    -5000.00
03351              -9.60    -5400.00
03352              18.00    -5200.00
03353              24.00    -5800.00
03354             -38.80    -6000.00
03355             -44.00    -5800.00
03356              50.00    -6400.00
03357             -26.40    -6200.00
03358             -50.00    -6800.00
03359              50.00    -6800.00
03360               0.40    -6800.00
03361             -50.00    -7200.00
03362               4.00    -7200.00
03363              23.60    -7400.00
03364             -18.00    -7600.00
03365             -36.40    -7600.00
03366              26.40    -8000.00
03367              -0.40    -8000.00
03368             -42.40    -8200.00
03369               7.20    -8400.00
03370               9.20    -8200.00
03371             -26.40    -8400.00
03372             -12.00    -8600.00
03373              11.60    -8800.00
03374             -18.80    -8800.00
03375             -21.20    -9000.00
03376               6.40    -9400.00
03377             -13.20    -9200.00
03378             -16.80    -9400.00
03379              -5.60    -9600.00
03380              -8.40    -9600.00
03381             -12.40    -9600.00
03382             -15.60    -9800.00
03383              -9.20    -9800.00
03384              -9.60   -10000.00
03385             -16.80   -10000.00
03386             -10.40   -10000.00
03387              -9.20   -10000.00
03388             -19.60   -10400.00
03389             -13.20   -10400.00
03390              -8.80   -10400.00
03391             -19.60   -10400.00
03392             -17.20   -10600.00
03393             -10.40   -10600.00
03394             -15.60   -10800.00
03395             -21.20   -10800.00
03396             -13.60   -10800.00
03397             -14.80   -10800.00
03398             -23.60   -10800.00
03399             -14.80   -11000.00
03400             -14.80   -10800.00
03401             -23.20   -11200.00
03402             -18.80   -11000.00
03403             -16.40   -11000.00
03404             -20.00   -10800.00
03405             -22.80   -11000.00
03406             -18.80   -11000.00
03407             -16.80   -11000.00
03408             -22.00   -10800.00
03409             -19.60   -10800.00
03410             -18.80   -11000.00
03411             -22.00   -10800.00
03412             -18.80   -11200.00
03413             -18.40   -11000.00
03414             -20.40   -11000.00
03415             -20.40   -11000.00
03416             -16.80   -10800.00
03417             -16.80   -10800.00
03418             -18.80   -10800.00
03419             -16.40   -10800.00
03420             -15.20   -10800.00
03421             -16.40   -10600.00
03422             -14.80   -10600.00
03423             -14.80   -10400.00
03424             -14.80   -10400.00
03425             -14.00   -10400.00
03426             -13.60   -10400.00
03427             -13.20   -10400.00
03428             -14.40   -10200.00
03429             -12.00   -10000.00
03430             -12.00   -10000.00
03431             -12.00   -10000.00
03432             -11.60    -9800.00
03433             -12.00    -9800.00
03434             -10.80    -9600.00
03435             -10.40    -9400.00
03436             -10.40    -9600.00
03437             -10.40    -9400.00
03438             -10.40    -9200.00
03439              -9.60    -9200.00
03440              -8.80    -9000.00
03441              -9.20    -8800.00
03442             -10.00    -8800.00
03443              -8.40    -8600.00
03444              -7.60    -8400.00
03445              -8.80    -8400.00
03446              -7.60    -8200.00
03447              -7.60    -8000.00
03448              -7.60    -8000.00
03449              -6.40    -7800.00
03450              -6.80    -7800.00
03451              -7.60    -7600.00
03452              -6.80    -7400.00
03453              -6.00    -7200.00
03454              -5.60    -7000.00
03455              -6.80    -6800.00
03456              -5.60    -6600.00
03457              -4.40    -6400.00
03458              -5.60    -6400.00
03459              -5.20    -6400.00
03460              -4.40    -6000.00
03461              -5.20    -5800.00
03462              -4.40    -5600.00
03463              -3.60    -5600.00
03464              -3.60    -5400.00
03465              -5.20    -5000.00
03466              -3.60    -5000.00
03467              -3.20    -4600.00
03468              -4.00    -4600.00
03469              -3.20    -4400.00
03470              -3.60    -4200.00
03471              -3.60    -4000.00
03472              -2.40    -3800.00
03473              -2.40    -3600.00
03474              -3.60    -3600.00
03475              -2.00    -3200.00
03476              -2.40    -3000.00
03477              -1.20    -2800.00
03478              -2.00    -2800.00
03479              -2.40    -2400.00
03480              -2.00    -2400.00
03481              -1.20    -2000.00
03482              -1.20    -1800.00
03483              -2.00    -1800.00
03484              -2.00    -1600.00
03485              -0.80    -1200.00
03486              -1.20    -1200.00
03487              -1.20     -800.00
03488              -1.20     -600.00
03489              -0.40     -400.00
03490              -0.80     -200.00
03491              -0.40        0.00
03492               0.40      200.00
03493               0.80      400.00
03494               0.80      600.00
03495              -0.80      800.00
03496               0.40      800.00
03497               1.20     1200.00
03498               0.40     1200.00
03499              -0.40     1400.00
03500               3.60     1800.00
03501              11.60     2000.00
03502              17.20     2400.00
03503             -22.80     2600.00
03504             -26.00     3000.00
03505               5.20     2400.00
03506               4.40     2800.00
03507              50.00     3400.00
03508             -19.60     3200.00
03509             -50.00     3600.00
03510              50.00     3800.00
03511              37.20     3800.00
03512             -50.00     4000.00
03513              50.00     4400.00
03514              50.00     4400.00
03515             -50.00     4600.00
03516              28.00     5200.00
03517              50.00     4800.00
03518             -46.80     5200.00
03519              -5.60     5400.00
03520              29.20     5400.00
03521              15.60     6000.00
03522             -28.40     6000.00
03523              -4.40     6200.00
03524              50.00     6400.00
03525             -16.80     6400.00
03526             -31.60     6800.00
03527              45.60     6800.00
03528               7.60     7000.00
03529             -23.60     7000.00
03530              12.40     7200.00
03531              24.40     7600.00
03532              -1.60     7800.00
03533             -10.40     7800.00
03534              27.60     7800.00
03535              10.40     8200.00
03536             -18.80     8200.00
03537              21.60     8400.00
03538              21.20     8400.00
03539             -12.40     8600.00
03540              10.80     8600.00
03541              24.80     8800.00
03542              -4.00     9000.00
03543               3.20     9200.00
03544              20.80     9200.00
03545               6.80     9400.00
03546               5.20     9600.00
03547              13.60     9400.00
03548              12.00     9600.00
03549               8.40     9800.00
03550               8.80    10000.00
03551              13.60    10000.00
03552              13.20    10000.00
03553               8.40    10000.00
03554              14.80    10200.00
03555              16.40    10200.00
03556               8.00    10200.00
03557              14.00    10400.00
03558              18.80    10400.00
03559              10.40    10400.00
03560              12.80    10400.00
03561              20.00    10600.00
03562              14.00    10600.00
03563              13.20    10800.00
03564              19.60    10800.00
03565              16.80    10800.00
03566              14.80    10800.00
03567              20.00    10800.00
03568              19.60    11000.00
03569              16.00    11000.00
03570              18.40    10800.00
03571              21.20    11000.00
03572              18.00    11000.00
03573              16.80    11000.00
03574              20.80    11000.00
03575              21.20    11000.00
03576              18.00    11000.00
03577              20.00    11000.00
03578              21.20    10800.00
03579              17.20    11000.00
03580              18.80    10800.00
03581              20.00    11000.00
03582              17.20    10800.00
03583              16.40    10800.00
03584              18.00    10800.00
03585              18.00    10800.00
03586              14.80    10800.00
03587              15.20    10800.00
03588              16.00    10600.00
03589              14.80    10400.00
03590              14.00    10400.00
03591              14.00    10400.00
03592              13.20    10400.00
03593              13.20    10200.00
03594              13.60    10200.00
03595              12.00    10200.00
03596              11.60    10000.00
03597              11.60    10000.00
03598              12.00    10000.00
03599              11.20     9800.00
03600              11.20     9800.00
03601              10.40     9600.00
03602              10.00     9600.00
03603              10.00     9400.00
03604              10.40     9200.00
03605               8.80     9200.00
03606               9.20     9200.00
03607               9.20     9200.00
03608               8.40     8800.00
03609               8.00     8800.00
03610               8.40     8600.00
03611               7.60     8400.00
03612               8.00     8400.00
03613               7.20     8200.00
03614               6.80     8000.00
03615               6.80     8000.00
03616               6.40     7800.00
03617               6.80     7600.00
03618               6.40     7400.00
03619               5.60     7400.00
03620               5.60     7200.00
03621               5.60     7000.00
03622               5.60     6800.00
03623               4.40     6800.00
03624               4.80     6400.00
03625               5.20     6200.00
03626               4.40     6200.00
03627               4.00     6000.00
03628               4.00     6000.00
03629               3.60     5600.00
03630               4.00     5600.00
03631               3.60     5400.00
03632               3.60     5200.00
03633               2.80     4800.00
03634               2.80     4800.00
03635               4.00     4400.00
03636               2.80     4400.00
03637               2.00     4400.00
03638               2.40     4000.00
03639               2.40     3600.00
03640               2.00     3600.00
03641               2.40     3600.00
03642               2.00     3200.00
03643               2.00     3200.00
03644               2.00     2800.00
03645               2.00     2600.00
03646               1.20     2400.00
03647               0.80     2000.00
03648               0.80     2000.00
03649               1.20     1800.00
03650               0.80     1800.00
03651               0.40     1400.00
03652               0.80     1200.00
03653               0.40      800.00
03654               0.80      800.00
03655               0.40      400.00
03656               0.40      400.00
03657               0.00      400.00
03658               0.40        0.00
03659               0.40     -200.00
03660               0.80     -400.00
03661               0.80     -600.00
03662              -0.80     -800.00
03663              -0.80     -800.00
03664               0.40    -1000.00
03665              -0.80    -1200.00
03666              -1.20    -1600.00
03667               1.20    -1600.00
03668              23.20    -2000.00
03669               2.00    -2600.00
03670             -49.20    -2800.00
03671             -12.40    -2800.00
03672               2.00    -2400.00
03673              50.00    -2800.00
03674              15.20    -3600.00
03675             -50.00    -2800.00
03676              50.00    -3400.00
03677              50.00    -4200.00
03678             -50.00    -3600.00
03679               2.00    -4200.00
03680              50.00    -4600.00
03681             -50.00    -4200.00
03682             -44.00    -4800.00
03683              50.00    -5000.00
03684             -46.80    -4800.00
03685             -42.80    -5400.00
03686              16.40    -5200.00
03687              23.20    -5600.00
03688              -4.00    -6000.00
03689             -50.00    -5800.00
03690              50.00    -6400.00
03691              37.20    -6400.00
03692             -50.00    -6400.00
03693              26.40    -7000.00
03694              40.40    -6800.00
03695             -50.00    -7200.00
03696             -16.40    -7200.00
03697              24.40    -7200.00
03698               2.00    -7600.00
03699             -42.00    -7600.00
03700               5.20    -7800.00
03701              22.80    -8000.00
03702             -39.60    -8000.00
03703             -12.00    -8200.00
03704              18.80    -8200.00
03705             -16.80    -8400.00
03706             -23.60    -8800.00
03707               9.20    -8800.00
03708              -5.20    -9000.00
03709             -29.60    -9000.00
03710               1.60    -9200.00
03711              -3.60    -9200.00
03712             -20.00    -9200.00
03713              -6.80    -9600.00
03714              -7.60    -9600.00
03715             -10.00    -9800.00
03716             -15.20    -9600.00
03717             -13.20   -10000.00
03718              -6.40   -10000.00
03719             -16.00   -10000.00
03720             -14.00   -10000.00
03721              -6.00   -10400.00
03722             -16.80   -10200.00
03723             -18.00   -10400.00
03724              -7.20   -10600.00
03725             -15.60   -10400.00
03726             -20.40   -10600.00
03727             -10.80   -10600.00
03728             -12.00   -10600.00
03729             -20.40   -10800.00
03730             -16.80   -10800.00
03731             -13.20   -10800.00
03732             -22.00   -10800.00
03733             -18.00   -10800.00
03734             -13.20   -10800.00
03735             -21.60   -10800.00
03736             -19.60   -11000.00
03737             -16.80   -10800.00
03738             -18.80   -10800.00
03739             -21.20   -11200.00
03740             -20.40   -11000.00
03741             -17.20   -11200.00
03742             -20.40   -11000.00
03743             -21.60   -11000.00
03744             -18.80   -11000.00
03745             -21.60   -11000.00
03746             -20.40   -11000.00
03747             -18.80   -11000.00
03748             -18.80   -11000.00
03749             -20.40   -10800.00
03750             -18.80   -11000.00
03751             -15.60   -10800.00
03752             -18.00   -10800.00
03753             -18.00   -10800.00
03754             -15.60   -10600.00
03755             -16.40   -10600.00
03756             -15.20   -10600.00
03757             -15.20   -10600.00
03758             -15.20   -10400.00
03759             -14.00   -10400.00
03760             -13.60   -10400.00
03761             -13.20   -10200.00
03762             -14.00   -10200.00
03763             -13.20   -10000.00
03764             -12.00   -10000.00
03765             -12.00   -10000.00
03766             -10.80   -10000.00
03767             -12.00   -10000.00
03768             -11.20    -9600.00
03769             -10.40    -9600.00
03770             -10.40    -9600.00
03771             -10.00    -9400.00
03772             -10.40    -9400.00
03773             -10.00    -9200.00
03774              -8.80    -9000.00
03775              -8.80    -8800.00
03776             -10.00    -8800.00
03777              -9.20    -8800.00
03778              -7.60    -8600.00
03779              -7.60    -8400.00
03780              -8.80    -8400.00
03781              -7.60    -8000.00
03782              -7.60    -8000.00
03783              -7.20    -7600.00
03784              -6.40    -7800.00
03785              -6.80    -7600.00
03786              -6.80    -7200.00
03787              -6.00    -7200.00
03788              -5.60    -7200.00
03789              -6.00    -6800.00
03790              -6.40    -6800.00
03791              -5.60    -6600.00
03792              -5.20    -6600.00
03793              -5.20    -6400.00
03794              -5.20    -6000.00
03795              -4.80    -6000.00
03796              -4.00    -5800.00
03797              -4.00    -5600.00
03798              -3.60    -5400.00
03799              -4.40    -5200.00
03800              -5.60    -5000.00
03801              -2.80    -4800.00
03802              -3.60    -4600.00
03803              -4.40    -4400.00
03804              -2.80    -4400.00
03805              -2.80    -4200.00
03806              -3.60    -4000.00
03807              -2.00    -3800.00
03808              -4.00    -3600.00
03809              -3.20    -3400.00
03810              -2.40    -3200.00
03811              -2.00    -2800.00
03812              -2.00    -2600.00
03813              -2.00    -2400.00
03814              -2.40    -2400.00
03815              -1.20    -2200.00
03816              -1.20    -2000.00
03817              -2.40    -1800.00
03818              -1.60    -1600.00
03819              -0.80    -1200.00
03820              -1.20    -1000.00
03821              -0.80    -1000.00
03822              -0.80     -600.00
03823              -1.20     -400.00
03824              -0.40     -400.00
03825               0.40     -200.00
03826              -0.40        0.00
03827               0.40      400.00
03828               2.00      400.00
03829              -0.40      600.00
03830              -0.80      800.00
03831               1.20     1000.00
03832               1.20     1400.00
03833               0.40     1400.00
03834               2.40     1600.00
03835               8.40     1800.00
03836              19.60     2400.00
03837              -8.40     2600.00
03838             -32.80     2800.00
03839               0.40     2600.00
03840               2.00     2600.00
03841              33.60     3200.00
03842              20.00     3200.00
03843             -50.00     3200.00
03844              50.00     3800.00
03845              50.00     3600.00
03846             -50.00     3600.00
03847             -14.00     4400.00
03848              50.00     4400.00
03849             -50.00     4600.00
03850             -33.20     5200.00
03851              50.00     4800.00
03852             -22.00     5200.00
03853             -29.20     5400.00
03854              26.80     5400.00
03855              24.40     5800.00
03856             -13.20     6000.00
03857             -28.80     6200.00
03858              47.20     6400.00
03859              21.60     6400.00
03860             -50.00     6800.00
03861              25.20     6800.00
03862              33.20     7000.00
03863             -23.60     7000.00
03864              -0.80     7200.00
03865              26.40     7600.00
03866              10.40     7600.00
03867             -14.00     7800.00
03868              14.80     7800.00
03869              24.80     8000.00
03870             -17.20     8200.00
03871               4.00     8400.00
03872              31.20     8400.00
03873              -4.80     8600.00
03874              -2.80     8600.00
03875              26.40     8800.00
03876               6.00     8800.00
03877              -5.20     9000.00
03878              18.40     9200.00
03879              12.40     9400.00
03880               2.00     9400.00
03881              12.00     9600.00
03882              13.60     9600.00
03883               9.20     9600.00
03884               8.00     9800.00
03885              12.00    10000.00
03886              14.80    10000.00
03887               8.40    10000.00
03888              12.00    10200.00
03889              17.60    10200.00
03890              10.40    10400.00
03891              10.40    10400.00
03892              19.60    10400.00
03893              13.60    10400.00
03894              10.40    10600.00
03895              18.40    10600.00
03896              18.40    10600.00
03897              11.60    10800.00
03898              17.20    10800.00
03899              20.00    10800.00
03900              13.60    10800.00
03901              18.00    10800.00
03902              21.20    11000.00
03903              16.40    11000.00
03904              18.00    10800.00
03905              20.40    11000.00
03906              19.20    11000.00
03907              17.60    11000.00
03908              18.80    11000.00
03909              21.20    11000.00
03910              19.60    11000.00
03911              18.00    11000.00
03912              21.60    11000.00
03913              19.60    11000.00
03914              18.40    10800.00
03915              20.40    10800.00
03916              18.40    10800.00
03917              15.60    11000.00
03918              18.40    10800.00
03919              17.20    10800.00
03920              15.20    10800.00
03921              16.40    10600.00
03922              14.40    10800.00
03923              15.20    10400.00
03924              15.60    10400.00
03925              13.20    10400.00
03926              13.60    10400.00
03927              14.00    10400.00
03928              12.40    10200.00
03929              13.20    10200.00
03930              12.40    10000.00
03931              11.60    10000.00
03932              12.00    10000.00
03933              11.60    10000.00
03934              10.40     9600.00
03935               9.20     9600.00
03936              10.40     9600.00
03937              10.40     9400.00
03938              10.40     9400.00
03939               8.80     9200.00
03940               9.20     9200.00
03941               8.40     9000.00
03942               8.80     8800.00
03943               8.40     8800.00
03944               7.60     8600.00
03945               7.20     8400.00
03946               8.40     8400.00
03947               7.20     8200.00
03948               6.80     8200.00
03949               6.80     8000.00
03950               6.80     7800.00
03951               6.00     7800.00
03952               6.80     7600.00
03953               5.60     7400.00
03954               5.60     7200.00
03955               5.60     7000.00
03956               5.20     6800.00
03957               5.20     6800.00
03958               4.40     6600.00
03959               4.40     6400.00
03960               5.20     6200.00
03961               4.00     6200.00
03962               4.00     6000.00
03963               4.00     5600.00
03964               4.00     5600.00
03965               4.00     5400.00
03966               3.60     5200.00
03967               2.80     5200.00
03968               2.80     4800.00
03969               3.60     4600.00
03970               3.60     4400.00
03971               2.80     4200.00
03972               2.40     4000.00
03973               2.80     4000.00
03974               2.40     3600.00
03975               2.00     3400.00
03976               2.40     3400.00
03977               2.00     3000.00
03978               1.60     2800.00
03979               2.40     2800.00
03980               1.20     2400.00
03981               0.80     2200.00
03982               1.20     2000.00
03983               1.20     2000.00
03984               0.80     1800.00
03985               0.80     1600.00
03986               0.80     1400.00
03987               0.40     1000.00
03988               0.80      800.00
03989               0.40      600.00
03990               0.00      400.00
03991               0.00      400.00
03992               0.00        0.00
03993               0.40     -200.00
03994               0.40     -200.00
03995               1.20     -400.00
03996               0.00     -600.00
03997              -1.20    -1000.00
03998              -0.40     -800.00
03999              -0.40    -1000.00
04000              -1.60    -1400.00
04001              -0.40    -1600.00
04002              12.00    -1800.00
04003              23.20    -2600.00
04004             -36.80    -2600.00
04005             -30.00    -3000.00
04006              -1.20    -2600.00
04007              33.20    -2600.00
04008              49.60    -3600.00
04009             -50.00    -3200.00
04010             -21.60    -2800.00
04011              50.00    -4000.00
04012             -50.00    -3600.00
04013             -50.00    -3600.00
04014              50.00    -4800.00
04015             -18.00    -4200.00
04016             -50.00    -4400.00
04017              50.00    -4800.00
04018              19.60    -4800.00
04019             -50.00    -5200.00
04020               9.20    -5600.00
04021              18.40    -5600.00
04022              17.20    -6000.00
04023             -50.00    -5800.00
04024              -2.00    -6200.00
04025              50.00    -6400.00
04026             -50.00    -6200.00
04027             -28.00    -6800.00
04028              50.00    -6800.00
04029             -32.40    -6800.00
04030             -36.80    -7200.00
04031              16.80    -7200.00
04032              17.20    -7400.00
04033             -32.80    -7600.00
04034             -20.40    -7600.00
04035              32.80    -8000.00
04036             -21.60    -7800.00
04037             -32.40    -8200.00
04038              18.00    -8400.00
04039              -2.80    -8400.00
04040             -28.00    -8800.00
04041              -0.80    -8800.00
04042               7.20    -8800.00
04043             -28.00    -9000.00
04044             -10.40    -9000.00
04045               4.80    -9200.00
04046             -18.40    -9200.00
04047             -10.80    -9600.00
04048              -6.00    -9600.00
04049              -8.80    -9600.00
04050             -12.40    -9800.00
04051             -16.40    -9800.00
04052              -6.80   -10000.00
04053             -12.00    -9800.00
04054             -17.20   -10000.00
04055              -7.20   -10000.00
04056             -12.00   -10200.00
04057             -21.60   -10400.00
04058              -9.20   -10400.00
04059             -10.80   -10400.00
04060             -21.60   -10600.00
04061             -14.00   -10400.00
04062              -9.20   -10800.00
04063             -18.80   -10600.00
04064             -20.00   -10800.00
04065             -12.00   -10800.00
04066             -18.80   -10800.00
04067             -22.40   -10800.00
04068             -12.40   -10800.00
04069             -18.80   -11000.00
04070             -23.20   -11000.00
04071             -17.20   -11000.00
04072             -17.20   -11200.00
04073             -20.80   -11000.00
04074             -22.00   -11200.00
04075             -18.00   -11000.00
04076             -18.80   -11200.00
04077             -22.80   -11200.00
04078             -18.80   -11000.00
04079             -20.00   -11000.00
04080             -21.60   -11000.00
04081             -18.80   -11000.00
04082             -18.40   -10800.00
04083             -20.40   -11000.00
04084             -20.00   -10800.00
04085             -16.40   -10800.00
04086             -16.80   -10800.00
04087             -18.80   -10800.00
04088             -16.40   -10800.00
04089             -15.60   -10800.00
04090             -15.60   -10600.00
04091             -14.80   -10600.00
04092             -14.80   -10400.00
04093             -14.00   -10400.00
04094             -13.60   -10400.00
04095             -13.20   -10400.00
04096             -13.20   -10400.00
04097             -14.00   -10000.00
04098             -12.00   -10200.00
04099             -12.00   -10000.00
04100             -11.60    -9800.00
04101             -12.00    -9800.00
04102             -12.00    -9800.00
04103             -10.40    -9600.00
04104             -10.40    -9600.00
04105             -10.00    -9400.00
04106             -10.00    -9200.00
04107             -10.00    -9200.00
04108              -9.20    -9200.00
04109              -8.80    -8800.00
04110              -9.20    -9000.00
04111             -10.00    -8800.00
04112              -7.60    -8800.00
04113              -7.60    -8400.00
04114              -8.40    -8200.00
04115              -7.60    -8200.00
04116              -7.20    -8000.00
04117              -7.60    -8000.00
04118              -6.00    -7600.00
04119              -7.20    -7400.00
04120              -7.60    -7400.00
04121              -6.00    -7200.00
04122              -5.60    -7200.00
04123              -6.00    -6800.00
04124              -6.00    -6800.00
04125              -5.20    -6600.00
04126              -4.40    -6400.00
04127              -5.60    -6400.00
04128              -4.40    -6000.00
04129              -5.20    -6000.00
04130              -5.60    -5800.00
04131              -4.00    -5600.00
04132              -4.40    -5400.00
04133              -4.40    -5200.00
04134              -5.20    -5200.00
04135              -4.00    -4800.00
04136              -2.80    -4800.00
04137              -4.40    -4400.00
04138              -3.60    -4400.00
04139              -2.80    -4200.00
04140              -4.00    -4000.00
04141              -2.40    -4000.00
04142              -2.40    -3400.00
04143              -3.60    -3400.00
04144              -2.40    -3200.00
04145              -2.40    -3200.00
04146              -2.40    -2600.00
04147              -2.40    -2600.00
04148              -2.40    -2400.00
04149              -2.00    -2200.00
04150              -1.20    -2000.00
04151              -1.60    -1800.00
04152              -2.00    -1600.00
04153              -1.60    -1200.00
04154              -0.80    -1200.00
04155              -0.80    -1000.00
04156              -1.20     -800.00
04157              -1.20     -600.00
04158              -0.80     -400.00
04159              -0.40        0.00
04160              -0.40        0.00
04161               0.40      400.00
04162               2.00      400.00
04163               0.40      600.00
04164              -0.80      800.00
04165               0.80     1000.00
04166               1.60      800.00
04167               0.40     1400.00
04168               0.80     1400.00
04169               5.60     1800.00
04170              16.80     2200.00
04171               8.80     2600.00
04172             -30.00     2800.00
04173             -13.60     2800.00
04174               3.60     2400.00
04175              14.00     2800.00
04176              46.80     3400.00
04177             -50.00     3000.00
04178             -28.00     3800.00
04179              50.00     3800.00
04180             -41.20     3600.00
04181             -50.00     4400.00
04182              50.00     4400.00
04183               6.80     4200.00
04184             -50.00     4800.00
04185              50.00     4800.00
04186              23.20     5000.00
04187             -47.60     5400.00
04188              13.20     5400.00
04189              28.40     5600.00
04190               2.40     6000.00
04191             -35.20     6000.00
04192              21.20     6400.00
04193              49.20     6400.00
04194             -42.40     6400.00
04195              -4.80     6800.00
04196              48.40     6800.00
04197             -10.80     7000.00
04198             -15.20     7200.00
04199              21.20     7400.00
04200              18.80     7800.00
04201             -10.40     7600.00
04202              -1.20     7800.00
04203              30.80     8000.00
04204              -4.40     8200.00
04205             -12.40     8400.00
04206              30.80     8600.00
04207               9.20     8600.00
04208             -12.00     8600.00
04209              20.00     8800.00
04210              18.00     8800.00
04211              -8.40     9200.00
04212              10.40     9200.00
04213              18.80     9200.00
04214               2.40     9400.00
04215               8.40     9400.00
04216              14.80     9400.00
04217              10.40     9600.00
04218               8.40     9600.00
04219              10.00    10000.00
04220              14.80    10000.00
04221              10.80    10000.00
04222               9.20    10000.00
04223              16.80    10200.00
04224              13.60    10200.00
04225               7.60    10200.00
04226              17.20    10400.00
04227              16.80    10400.00
04228               8.80    10600.00
04229              16.00    10400.00
04230              20.00    10800.00
04231              12.40    10600.00
04232              14.80    10800.00
04233              21.20    10800.00
04234              15.60    10800.00
04235              16.00    10800.00
04236              21.20    10800.00
04237              18.00    11000.00
04238              16.40    11000.00
04239              20.40    11000.00
04240              19.60    11000.00
04241              18.00    11000.00
04242              18.40    11000.00
04243              20.40    11000.00
04244              20.00    11000.00
04245              19.60    10800.00
04246              20.80    11000.00
04247              18.80    11000.00
04248              18.80    10800.00
04249              20.40    10800.00
04250              18.40    10800.00
04251              17.20    11000.00
04252              18.00    10800.00
04253              16.80    10800.00
04254              16.00    10800.00
04255              16.40    10800.00
04256              15.20    10600.00
04257              14.40    10600.00
04258              14.80    10400.00
04259              14.80    10400.00
04260              13.60    10400.00
04261              13.60    10400.00
04262              13.20    10200.00
04263              12.40    10200.00
04264              11.60    10200.00
04265              11.60    10000.00
04266              11.60    10000.00
04267              12.00    10000.00
04268              10.80     9800.00
04269              10.40     9600.00
04270               9.60     9600.00
04271              10.00     9400.00
04272               9.60     9400.00
04273               9.20     9400.00
04274               9.20     9200.00
04275               8.80     9000.00
04276               8.40     9200.00
04277               8.40     8800.00
04278               7.60     8800.00
04279               8.40     8600.00
04280               8.40     8400.00
04281               7.20     8400.00
04282               7.20     8200.00
04283               6.80     8000.00
04284               6.00     8000.00
04285               6.40     7600.00
04286               6.80     7600.00
04287               5.60     7600.00
04288               5.20     7600.00
04289               5.60     7200.00
04290               6.00     7000.00
04291               5.20     6800.00
04292               4.00     6600.00
04293               5.20     6400.00
04294               5.60     6400.00
04295               4.40     6200.00
04296               4.40     6000.00
04297               4.00     5800.00
04298               4.00     5600.00
04299               4.00     5400.00
04300               4.00     5400.00
04301               2.80     5200.00
04302               3.20     5000.00
04303               4.00     4600.00
04304               3.60     4600.00
04305               2.40     4400.00
04306               2.80     4200.00
04307               2.40     3800.00
04308               2.40     3800.00
04309               2.80     3600.00
04310               2.00     3400.00
04311               1.20     3200.00
04312               2.00     3000.00
04313               2.40     2800.00
04314               1.20     2600.00
04315               0.80     2400.00
04316               0.80     2200.00
04317               1.20     2000.00
04318               1.20     2000.00
04319               0.80     1400.00
04320               0.40     1400.00
04321               0.40     1200.00
04322               0.80      800.00
04323               0.80      800.00
04324              -0.40      600.00
04325               0.40      400.00
04326               0.00        0.00
04327              -0.40        0.00
04328               0.40     -400.00
04329               0.80     -400.00
04330               0.80     -600.00
04331              -2.00     -800.00
04332              -1.60    -1000.00
04333               0.80    -1200.00
04334              -2.40    -1200.00
04335              -2.00    -1600.00
04336               5.60    -1800.00
04337              28.00    -2400.00
04338             -17.20    -2800.00
04339             -46.00    -2800.00
04340              -5.60    -2800.00
04341              11.20    -2400.00
04342              50.00    -3200.00
04343             -40.80    -3400.00
04344             -50.00    -2800.00
04345              50.00    -3800.00
04346              34.80    -4000.00
04347             -50.00    -3600.00
04348              50.00    -4200.00
04349              50.00    -4400.00
04350             -50.00    -4400.00
04351              39.60    -5000.00
04352              50.00    -4800.00
04353             -50.00    -5000.00
04354             -14.00    -5400.00
04355              18.40    -5400.00
04356              24.80    -5800.00
04357             -32.80    -5800.00
04358             -50.00    -6000.00
04359              50.00    -6400.00
04360             -16.40    -6400.00
04361             -50.00    -6600.00
04362              50.00    -7000.00
04363               7.20    -6800.00
04364             -50.00    -7200.00
04365               1.20    -7200.00
04366              24.40    -7400.00
04367             -14.40    -7600.00
04368             -38.00    -7600.00
04369              24.40    -8000.00
04370               5.20    -8000.00
04371             -43.60    -8200.00
04372               4.40    -8400.00
04373              12.00    -8400.00
04374             -25.20    -8600.00
04375             -14.00    -8800.00
04376              12.00    -8800.00
04377             -17.20    -9000.00
04378             -22.80    -9000.00
04379               7.20    -9200.00
04380             -11.60    -9200.00
04381             -18.00    -9400.00
04382              -5.60    -9600.00
04383              -7.60    -9600.00
04384             -10.80    -9800.00
04385             -15.60    -9800.00
04386              -9.20    -9800.00
04387              -8.80   -10000.00
04388             -17.60   -10000.00
04389             -10.00   -10000.00
04390              -8.80   -10200.00
04391             -20.00   -10200.00
04392             -13.60   -10400.00
04393              -7.60   -10400.00
04394             -20.00   -10400.00
04395             -18.40   -10600.00
04396              -9.20   -10600.00
04397             -16.00   -10600.00
04398             -22.00   -10800.00
04399             -13.60   -10800.00
04400             -14.80   -10800.00
04401             -24.80   -10800.00
04402             -15.20   -10800.00
04403             -14.80   -10800.00
04404             -24.40   -10800.00
04405             -18.80   -10800.00
04406             -15.20   -11000.00
04407             -19.60   -10800.00
04408             -22.80   -10800.00
04409             -19.20   -11000.00
04410             -17.20   -11200.00
04411             -22.80   -11000.00
04412             -20.40   -11000.00
04413             -18.40   -10800.00
04414             -22.00   -11000.00
04415             -20.00   -11000.00
04416             -18.00   -10800.00
04417             -19.20   -11000.00
04418             -20.40   -10800.00
04419             -17.60   -11000.00
04420             -15.20   -10800.00
04421             -18.80   -10800.00
04422             -17.20   -10600.00
04423             -15.20   -10600.00
04424             -16.40   -10800.00
04425             -14.80   -10600.00
04426             -15.20   -10600.00
04427             -15.20   -10400.00
04428             -14.00   -10400.00
04429             -13.60   -10200.00
04430             -13.20   -10400.00
04431             -12.40   -10400.00
04432             -12.40   -10000.00
04433             -12.40   -10000.00
04434             -10.40   -10000.00
04435             -12.00    -9800.00
04436             -12.00    -9800.00
04437             -10.00    -9600.00
04438             -10.80    -9600.00
04439             -10.40    -9400.00
04440              -9.60    -9400.00
04441             -10.80    -9200.00
04442              -9.60    -9000.00
04443              -8.40    -9000.00
04444              -9.20    -8800.00
04445              -9.20    -8800.00
04446              -8.00    -8600.00
04447              -7.60    -8400.00
04448              -8.40    -8400.00
04449              -7.20    -8200.00
04450              -8.00    -8000.00
04451              -8.00    -8000.00
04452              -6.00    -7800.00
04453              -6.80    -7600.00
04454              -7.60    -7400.00
04455              -6.80    -7400.00
04456              -6.00    -7200.00
04457              -6.00    -7200.00
04458              -7.20    -6800.00
04459              -6.00    -6600.00
04460              -5.20    -6600.00
04461              -5.60    -6400.00
04462              -4.80    -6200.00
04463              -4.40    -6200.00
04464              -5.60    -5800.00
04465              -4.40    -5800.00
04466              -3.60    -5600.00
04467              -4.40    -5200.00
04468              -5.20    -5200.00
04469              -4.40    -4800.00
04470              -3.60    -4800.00
04471              -4.00    -4600.00
04472              -3.60    -4400.00
04473              -3.60    -4200.00
04474              -3.60    -4200.00
04475              -2.40    -4000.00
04476              -2.40    -3600.00
04477              -4.00    -3400.00
04478              -2.40    -3400.00
04479              -2.40    -3000.00
04480              -2.00    -3000.00
04481              -2.40    -2800.00
04482              -2.40    -2400.00
04483              -2.40    -2400.00
04484              -1.20    -2000.00
04485              -1.20    -1800.00
04486              -2.00    -1600.00
04487              -1.20    -1600.00
04488              -1.20    -1200.00
04489              -1.20    -1200.00
04490              -0.80     -800.00
04491              -1.20     -800.00
04492              -1.20     -400.00
04493              -0.40     -200.00
04494              -0.40        0.00
04495              -0.40      400.00
04496               1.20      400.00
04497               1.20      400.00
04498              -0.80      600.00
04499               0.80      800.00
04500               1.20     1200.00
04501               0.40     1200.00
04502               0.00     1400.00
04503               4.00     1800.00
04504              11.60     2000.00
04505              18.40     2400.00
04506             -20.40     2800.00
04507             -28.00     2800.00
04508               5.20     2600.00
04509               3.60     2800.00
04510              48.80     3400.00
04511             -12.00     3200.00
04512             -50.00     3600.00
04513              50.00     3800.00
04514              50.00     3800.00
04515             -50.00     3800.00
04516              50.00     4400.00
04517              50.00     4200.00
04518             -50.00     4600.00
04519              19.20     5200.00
04520              50.00     4800.00
04521             -44.80     5400.00
04522              -8.80     5400.00
04523              29.20     5400.00
04524              16.80     5600.00
04525             -26.40     6000.00
04526              -9.20     6200.00
04527              50.00     6400.00
04528             -10.80     6400.00
04529             -36.00     6800.00
04530              43.20     6800.00
04531              12.00     7000.00
04532             -25.20     7200.00
04533              10.40     7200.00
04534              24.80     7600.00
04535               0.40     7600.00
04536             -12.00     7600.00
04537              26.00     8000.00
04538              12.40     8000.00
04539             -20.00     8200.00
04540              18.80     8400.00
04541              23.20     8400.00
04542             -12.00     8600.00
04543               9.20     8600.00
04544              25.20     8800.00
04545              -2.80     9000.00
04546               2.00     9200.00
04547              20.00     9200.00
04548               6.80     9200.00
04549               4.80     9400.00
04550              13.60     9400.00
04551              12.40     9600.00
04552               9.20     9800.00
04553               8.40     9800.00
04554              13.20    10000.00
04555              13.60    10000.00
04556               8.40    10000.00
04557              14.80    10200.00
04558              16.80    10200.00
04559               8.40    10200.00
04560              14.00    10400.00
04561              18.80    10400.00
04562              10.40    10400.00
04563              12.40    10600.00
04564              20.00    10600.00
04565              16.40    10600.00
04566              12.40    10800.00
04567              19.60    10800.00
04568              18.00    10800.00
04569              14.00    11000.00
04570              20.00    10800.00
04571              19.60    10800.00
04572              15.60    11000.00
04573              19.20    11000.00
04574              21.20    10800.00
04575              18.40    11000.00
04576              17.60    11000.00
04577              20.00    10800.00
04578              20.40    11000.00
04579              18.40    11000.00
04580              20.00    11000.00
04581              20.40    11000.00
04582              18.00    10800.00
04583              18.80    11000.00
04584              20.00    11000.00
04585              17.60    10800.00
04586              15.60    11000.00
04587              18.00    10800.00
04588              18.00    10800.00
04589              14.40    10800.00
04590              15.20    10800.00
04591              15.60    10600.00
04592              13.60    10400.00
04593              14.40    10600.00
04594              13.60    10400.00
04595              12.80    10400.00
04596              13.60    10400.00
04597              13.20    10200.00
04598              12.40    10200.00
04599              10.80    10000.00
04600              10.80    10000.00
04601              12.40     9800.00
04602              11.60     9800.00
04603              10.40     9600.00
04604               9.20     9400.00
04605              10.00     9600.00
04606               9.20     9400.00
04607              10.40     9400.00
04608               9.20     9200.00
04609               9.20     9200.00
04610               9.20     9000.00
04611               8.40     8800.00
04612               7.60     8600.00
04613               7.20     8600.00
04614               7.20     8400.00
04615               8.40     8400.00
04616               7.20     8400.00
04617               6.80     8000.00
04618               7.60     7800.00
04619               6.40     7800.00
04620               5.20     7600.00
04621               6.80     7600.00
04622               6.00     7200.00
04623               4.80     7200.00
04624               6.80     7000.00
04625               6.00     6800.00
04626               4.00     6800.00
04627               4.40     6600.00
04628               5.60     6400.00
04629               4.00     6200.00
04630               4.40     6000.00
04631               5.20     6000.00
04632               4.00     5600.00
04633               4.00     5400.00
04634               4.40     5200.00
04635               3.60     5200.00
04636               2.40     5000.00
04637               3.60     4600.00
04638               3.60     4600.00
04639               2.80     4400.00
04640               2.00     4200.00
04641               2.80     4000.00
04642               2.40     3800.00
04643               2.40     3600.00
04644               2.40     3400.00
04645               2.00     3200.00
04646               1.20     3000.00
04647               2.00     2800.00
04648               2.00     2600.00
04649               1.20     2400.00
04650               1.20     2200.00
04651               1.20     2000.00
04652               2.00     2000.00
04653               0.80     1600.00
04654               0.40     1400.00
04655               0.40     1200.00
04656               0.40     1000.00
04657               0.00      800.00
04658              -0.40      600.00
04659               0.40      400.00
04660               0.40        0.00
04661              -0.40        0.00
04662              -0.40     -400.00
04663               0.80     -200.00
04664               1.20     -600.00
04665              -2.00     -800.00
04666              -1.20    -1000.00
04667               0.80    -1200.00
04668              -1.20    -1200.00
04669              -2.80    -1400.00
04670               2.00    -1600.00
04671              21.20    -2000.00
04672               4.40    -2800.00
04673             -47.60    -2800.00
04674             -14.40    -3000.00
04675               0.40    -2400.00
04676              50.00    -2800.00
04677              24.00    -3600.00
04678             -50.00    -3000.00
04679              50.00    -3400.00
04680              50.00    -4200.00
04681             -50.00    -3600.00
04682             -18.40    -4000.00
04683              50.00    -4800.00
04684             -50.00    -4200.00
04685             -50.00    -4800.00
04686              50.00    -5000.00
04687             -38.00    -4800.00
04688             -49.20    -5400.00
04689              17.20    -5600.00
04690              22.80    -5600.00
04691               0.80    -6000.00
04692             -50.00    -6000.00
04693              43.60    -6400.00
04694              46.00    -6400.00
04695             -50.00    -6400.00
04696              18.80    -7000.00
04697              46.40    -6800.00
04698             -50.00    -7000.00
04699             -18.80    -7000.00
04700              24.00    -7200.00
04701               5.20    -7600.00
04702             -40.80    -7600.00
04703               0.40    -7800.00
04704              25.60    -8000.00
04705             -38.00    -8000.00
04706             -15.20    -8400.00
04707              20.00    -8400.00
04708             -15.20    -8400.00
04709             -24.80    -8800.00
04710               8.00    -8800.00
04711              -2.40    -8800.00
04712             -29.60    -9000.00
04713               0.40    -9000.00
04714              -1.20    -9200.00
04715             -20.40    -9200.00
04716              -7.60    -9400.00
04717              -7.60    -9600.00
04718             -10.40    -9800.00
04719             -15.20    -9800.00
04720             -13.60    -9800.00
04721              -5.60   -10000.00
04722             -15.60   -10000.00
04723             -14.80   -10000.00
04724              -6.80   -10400.00
04725             -16.80   -10200.00
04726             -18.40   -10400.00
04727              -6.80   -10400.00
04728             -15.60   -10400.00
04729             -21.20   -10400.00
04730             -10.80   -10600.00
04731             -12.40   -10600.00
04732             -21.20   -10800.00
04733             -16.80   -10800.00
04734             -12.40   -10800.00
04735             -22.80   -10800.00
04736             -18.80   -11000.00
04737             -13.20   -10800.00
04738             -21.60   -10800.00
04739             -20.80   -11000.00
04740             -16.40   -10800.00
04741             -18.40   -11000.00
04742             -21.60   -11200.00
04743             -20.40   -11000.00
04744             -17.20   -11000.00
04745             -20.40   -11000.00
04746             -21.60   -11200.00
04747             -19.20   -10800.00
04748             -21.60   -11000.00
04749             -20.40   -11000.00
04750             -18.40   -11000.00
04751             -18.80   -11000.00
04752             -20.00   -10800.00
04753             -18.40   -10800.00
04754             -15.60   -10800.00
04755             -17.60   -10800.00
04756             -18.00   -10800.00
04757             -15.20   -10800.00
04758             -16.40   -10800.00
04759             -14.80   -10600.00
04760             -14.00   -10600.00
04761             -15.20   -10400.00
04762             -14.40   -10400.00
04763             -13.20   -10400.00
04764             -12.80   -10200.00
04765             -14.00   -10400.00
04766             -12.00   -10200.00
04767             -12.00   -10000.00
04768             -12.00   -10000.00
04769             -10.80    -9800.00
04770             -12.00    -9800.00
04771             -12.00    -9800.00
04772             -10.40    -9600.00
04773             -10.00    -9600.00
04774             -10.40    -9200.00
04775             -10.40    -9200.00
04776             -10.00    -9200.00
04777              -8.80    -9000.00
04778              -9.20    -8800.00
04779              -9.20    -8800.00
04780              -9.20    -8600.00
04781              -7.60    -8400.00
04782              -7.60    -8400.00
04783              -8.40    -8200.00
04784              -8.00    -8200.00
04785              -7.60    -8000.00
04786              -7.60    -8000.00
04787              -6.40    -7600.00
04788              -7.60    -7600.00
04789              -7.20    -7400.00
04790              -6.00    -7200.00
04791              -6.00    -7000.00
04792              -6.00    -6800.00
04793              -5.60    -6800.00
04794              -5.60    -6600.00
04795              -5.60    -6400.00
04796              -5.20    -6200.00
04797              -4.40    -6000.00
04798              -5.60    -5800.00
04799              -5.60    -5800.00
04800              -3.60    -5600.00
04801              -4.40    -5400.00
04802              -5.60    -5200.00
04803              -3.60    -5000.00
04804              -2.80    -4600.00
04805              -5.20    -4600.00
04806              -4.00    -4400.00
04807              -2.80    -4200.00
04808              -4.40    -4000.00
04809              -3.60    -4000.00
04810              -1.20    -3600.00
04811              -4.00    -3600.00
04812              -3.60    -3400.00
04813              -1.20    -3200.00
04814              -2.40    -2800.00
04815              -2.40    -2600.00
04816              -1.20    -2600.00
04817              -2.80    -2200.00
04818              -2.00    -2000.00
04819              -0.80    -2000.00
04820              -2.40    -1800.00
04821              -1.20    -1600.00
04822               0.80    -1400.00
04823              -1.60    -1000.00
04824              -1.20     -800.00
04825              -0.40     -800.00
04826              -1.20     -400.00
04827              -1.20     -200.00
04828               0.80     -200.00
04829              -0.80        0.00
04830              -0.40      200.00
04831               2.40      400.00
04832               0.40      600.00
04833              -1.20      800.00
04834               2.00     1000.00
04835               1.60     1200.00
04836              -0.40     1400.00
04837               2.00     1400.00
04838               8.40     2000.00
04839              19.60     2400.00
04840              -5.20     2600.00
04841             -32.80     2800.00
04842              -2.80     2600.00
04843               1.60     2400.00
04844              31.60     3200.00
04845              25.20     3400.00
04846             -50.00     3200.00
04847              39.20     3800.00
04848              50.00     3800.00
04849             -50.00     3800.00
04850             -28.00     4400.00
04851              50.00     4200.00
04852             -50.00     4400.00
04853             -42.80     5200.00
04854              50.00     4800.00
04855             -16.80     5200.00
04856             -34.00     5600.00
04857              24.80     5200.00
04858              26.00     5600.00
04859             -10.00     6000.00
04860             -31.60     6000.00
04861              42.80     6200.00
04862              28.00     6400.00
04863             -50.00     6400.00
04864              19.60     6800.00
04865              38.00     6800.00
04866             -21.60     7200.00
04867              -4.40     7200.00
04868              26.00     7200.00
04869              12.00     7600.00
04870             -15.60     7600.00
04871              11.60     7800.00
04872              27.60     8200.00
04873             -15.60     8200.00
04874               0.80     8400.00
04875              32.40     8600.00
04876              -2.00     8800.00
04877              -5.60     8600.00
04878              26.00     8800.00
04879               9.20     8800.00
04880              -6.00     9200.00
04881              16.40     9200.00
04882              14.80     9200.00
04883               2.00     9400.00
04884              10.40     9600.00
04885              14.40     9600.00
04886              10.40     9600.00
04887               8.00     9800.00
04888              11.60    10000.00
04889              15.20    10000.00
04890               9.20    10000.00
04891              12.00    10200.00
04892              17.20    10200.00
04893              11.60    10200.00
04894               9.20    10400.00
04895              20.00    10400.00
04896              15.20    10400.00
04897               8.80    10600.00
04898              19.60    10600.00
04899              20.00    10800.00
04900              10.80    10800.00
04901              16.80    10800.00
04902              20.40    10800.00
04903              14.40    10800.00
04904              18.00    11000.00
04905              20.40    11000.00
04906              16.80    11000.00
04907              17.20    11000.00
04908              19.60    10800.00
04909              19.60    11000.00
04910              18.80    11000.00
04911              18.80    11000.00
04912              21.20    10800.00
04913              20.40    11000.00
04914              18.00    10800.00
04915              20.00    11000.00
04916              20.00    11000.00
04917              18.00    10800.00
04918              19.20    11000.00
04919              18.40    10800.00
04920              16.80    11000.00
04921              17.60    10800.00
04922              16.80    10800.00
04923              16.40    10800.00
04924              15.20    10800.00
04925              14.00    10600.00
04926              15.60    10600.00
04927              15.60    10400.00
04928              13.20    10400.00
04929              14.00    10400.00
04930              13.60    10200.00
04931              12.40    10200.00
04932              12.40    10200.00
04933              12.00    10200.00
04934              10.40    10200.00
04935              12.80    10000.00
04936              11.60     9800.00
04937              10.00     9800.00
04938              10.40     9600.00
04939              10.40     9600.00
04940               9.60     9400.00
04941              10.40     9400.00
04942               9.20     9200.00
04943               9.60     9200.00
04944               8.80     9000.00
04945               9.20     8800.00
04946               7.60     8800.00
04947               7.20     8600.00
04948               7.60     8400.00
04949               8.80     8400.00
04950               6.80     8400.00
04951               6.40     8000.00
04952               7.60     8200.00
04953               6.80     7800.00
04954               6.00     7800.00
04955               7.20     7600.00
04956               6.00     7400.00
04957               5.60     7200.00
04958               6.00     7200.00
04959               6.00     7000.00
04960               5.20     6800.00
04961               4.40     6800.00
04962               5.20     6400.00
04963               5.20     6200.00
04964               4.40     6000.00
04965               4.00     6000.00
04966               3.60     5600.00
04967               4.00     5600.00
04968               4.40     5400.00
04969               4.00     5200.00
04970               3.20     5200.00
04971               3.60     4800.00
04972               2.80     4600.00
04973               2.80     4400.00
04974               2.40     4400.00
04975               2.00     4000.00
04976               2.00     3800.00
04977               2.40     3600.00
04978               2.00     3600.00
04979               1.60     3200.00
04980               2.00     3000.00
04981               2.00     2800.00
04982               2.00     2800.00
04983               1.20     2400.00
04984               0.80     2200.00
04985               0.80     2200.00
04986               1.20     1800.00
04987               0.80     1600.00
04988               0.40     1600.00
04989               0.40     1200.00
04990               0.40     1200.00
04991               0.40      800.00
04992               0.40      600.00
04993               0.00      600.00
04994               0.00      400.00
04995              -0.40        0.00
04996              -0.80     -200.00
04997               0.40     -200.00
04998               0.80     -400.00
04999              -0.40     -800.00
05000              -1.20     -800.00
