Unit:(mV)
                     CH1         CH2
Frequency              ? 299.738 kHz
00001             -34.80    -4600.00
00002              41.60    -4800.00
00003              -4.40    -5000.00
00004             -50.00    -4800.00
00005              50.00    -5800.00
00006              -1.20    -5800.00
00007             -50.00    -6000.00
00008              50.00    -6800.00
00009             -14.80    -6800.00
00010             -36.00    -7400.00
00011               1.60    -8000.00
00012               6.80    -7800.00
00013              25.60    -8600.00
00014             -50.00    -8400.00
00015              24.40    -9200.00
00016              31.20    -9200.00
00017             -50.00    -9600.00
00018              -0.80   -10000.00
00019              24.40   -10200.00
00020              -8.80   -10800.00
00021             -38.40   -10800.00
00022              29.60   -11400.00
00023               2.80   -11600.00
00024             -41.20   -12000.00
00025               7.20   -12400.00
00026               8.80   -12400.00
00027             -17.20   -12800.00
00028             -21.60   -13000.00
00029              16.80   -13400.00
00030              -6.80   -13600.00
00031             -25.20   -13800.00
00032               0.00   -14000.00
00033               2.80   -14400.00
00034             -21.60   -14600.00
00035             -12.40   -14800.00
00036               9.60   -15200.00
00037             -16.80   -15200.00
00038             -17.60   -15400.00
00039              -3.60   -16000.00
00040              -7.20   -16000.00
00041             -19.60   -16400.00
00042             -10.00   -16400.00
00043              -2.40   -16800.00
00044             -17.20   -16800.00
00045             -16.40   -17200.00
00046              -5.60   -17200.00
00047             -15.20   -17400.00
00048             -21.60   -17600.00
00049              -8.80   -17600.00
00050             -12.40   -17800.00
00051             -19.20   -18000.00
00052             -16.80   -18200.00
00053             -13.20   -18400.00
00054             -21.60   -18400.00
00055             -22.00   -18600.00
00056             -13.60   -18600.00
00057             -22.00   -18800.00
00058             -23.60   -19000.00
00059             -18.80   -19000.00
00060             -23.20   -19200.00
00061             -28.00   -19200.00
00062             -26.80   -19200.00
00063             -24.40   -19200.00
00064             -29.60   -19400.00
00065             -31.60   -19400.00
00066             -27.60   -19400.00
00067             -33.20   -19600.00
00068             -36.40   -19600.00
00069             -33.20   -19600.00
00070             -33.20   -19600.00
00071             -36.40   -19600.00
00072             -36.80   -19600.00
00073             -34.40   -19600.00
00074             -38.00   -19600.00
00075             -39.60   -19600.00
00076             -34.40   -19600.00
00077             -32.80   -19600.00
00078             -34.00   -19600.00
00079             -31.20   -19600.00
00080             -27.60   -19400.00
00081             -28.80   -19400.00
00082             -28.40   -19400.00
00083             -23.60   -19400.00
00084             -24.80   -19200.00
00085             -24.80   -19200.00
00086             -22.00   -19200.00
00087             -21.20   -19000.00
00088             -21.60   -18800.00
00089             -21.20   -18800.00
00090             -18.40   -18600.00
00091             -18.80   -18400.00
00092             -19.20   -18400.00
00093             -17.20   -18200.00
00094             -17.20   -18000.00
00095             -16.80   -17800.00
00096             -15.20   -17600.00
00097             -15.20   -17400.00
00098             -15.20   -17600.00
00099             -14.80   -17200.00
00100             -13.60   -17200.00
00101             -12.40   -16800.00
00102             -13.20   -16600.00
00103             -12.00   -16400.00
00104             -11.60   -16200.00
00105             -11.60   -16000.00
00106             -10.80   -15800.00
00107             -10.80   -15600.00
00108             -10.00   -15400.00
00109             -10.00   -15200.00
00110              -8.80   -14800.00
00111              -8.80   -14800.00
00112              -8.80   -14400.00
00113              -8.40   -14200.00
00114              -8.00   -13800.00
00115              -7.60   -13600.00
00116              -7.20   -13200.00
00117              -7.20   -13000.00
00118              -7.20   -12800.00
00119              -6.80   -12400.00
00120              -6.00   -12200.00
00121              -6.40   -12000.00
00122              -6.00   -11600.00
00123              -4.40   -11400.00
00124              -5.20   -10800.00
00125              -6.40   -10800.00
00126              -4.40   -10400.00
00127              -4.00   -10000.00
00128              -4.40    -9800.00
00129              -4.40    -9400.00
00130              -4.40    -9200.00
00131              -4.00    -8800.00
00132              -4.40    -8400.00
00133              -3.60    -8000.00
00134              -3.60    -8000.00
00135              -4.00    -7400.00
00136              -2.40    -7200.00
00137              -2.40    -6800.00
00138              -4.00    -6400.00
00139              -3.20    -6000.00
00140              -1.20    -5600.00
00141              -2.40    -5400.00
00142              -4.00    -5000.00
00143              -1.60    -4800.00
00144              -2.00    -4400.00
00145              -2.80    -4000.00
00146              -1.60    -3600.00
00147              -2.00    -3200.00
00148              -2.40    -3000.00
00149              -1.20    -2600.00
00150              -1.20    -2200.00
00151              -1.20    -1800.00
00152              -1.20    -1400.00
00153              -1.20    -1000.00
00154              -0.80     -800.00
00155              -0.40     -400.00
00156              -0.40        0.00
00157               0.00      400.00
00158               2.40      800.00
00159               2.00      800.00
00160              -2.80     1400.00
00161               0.80     1600.00
00162               3.20     2000.00
00163              -0.40     2200.00
00164               0.40     2400.00
00165              10.80     3000.00
00166              26.00     4000.00
00167             -14.00     4200.00
00168             -44.00     4600.00
00169              16.40     4800.00
00170              31.60     5200.00
00171             -40.80     5200.00
00172             -20.00     5600.00
00173              50.00     6200.00
00174             -28.00     6000.00
00175             -50.00     7000.00
00176              50.00     7000.00
00177              -8.40     7200.00
00178             -47.20     8000.00
00179              24.80     7800.00
00180              34.00     8600.00
00181             -16.80     8800.00
00182             -30.80     9000.00
00183              50.00     9400.00
00184               5.20     9600.00
00185             -46.00    10000.00
00186              30.00    10200.00
00187              30.80    10800.00
00188             -26.80    11000.00
00189              -2.80    11200.00
00190              42.40    11600.00
00191             -10.40    12000.00
00192             -18.00    12400.00
00193              26.80    12400.00
00194              13.60    12800.00
00195             -13.60    13200.00
00196               7.20    13400.00
00197              28.40    13600.00
00198              -6.00    14000.00
00199              -4.40    14000.00
00200              23.20    14400.00
00201               8.40    14600.00
00202              -6.80    14800.00
00203              16.80    15200.00
00204              20.00    15200.00
00205              -4.80    15600.00
00206               8.40    15800.00
00207              20.00    16000.00
00208               4.40    16000.00
00209               4.40    16600.00
00210              18.40    16600.00
00211              14.00    17000.00
00212               5.20    17000.00
00213              14.00    17200.00
00214              18.40    17400.00
00215               8.00    17600.00
00216              11.60    17600.00
00217              21.60    17600.00
00218              13.60    18000.00
00219              12.40    18200.00
00220              20.40    18400.00
00221              19.60    18400.00
00222              13.60    18400.00
00223              20.00    18800.00
00224              24.40    18800.00
00225              18.00    19000.00
00226              21.60    19000.00
00227              26.80    19200.00
00228              23.20    19200.00
00229              23.60    19200.00
00230              28.40    19200.00
00231              29.60    19400.00
00232              28.00    19600.00
00233              30.80    19400.00
00234              34.80    19600.00
00235              32.40    19600.00
00236              32.80    19600.00
00237              36.40    19600.00
00238              35.60    19600.00
00239              34.40    19600.00
00240              37.20    19400.00
00241              37.60    19600.00
00242              34.40    19600.00
00243              34.00    19600.00
00244              34.40    19600.00
00245              31.20    19600.00
00246              29.20    19600.00
00247              29.60    19400.00
00248              27.60    19400.00
00249              24.80    19200.00
00250              24.80    19000.00
00251              23.60    19000.00
00252              21.20    19000.00
00253              22.00    19000.00
00254              22.80    18800.00
00255              19.60    18800.00
00256              18.40    18800.00
00257              20.00    18400.00
00258              18.00    18400.00
00259              16.40    18200.00
00260              18.00    18200.00
00261              16.80    18000.00
00262              15.20    17800.00
00263              15.20    17600.00
00264              15.60    17400.00
00265              12.80    17400.00
00266              12.40    17200.00
00267              13.20    17000.00
00268              13.20    16800.00
00269              12.40    16600.00
00270              11.20    16400.00
00271              10.40    16200.00
00272              10.80    15800.00
00273              10.00    15800.00
00274               8.80    15600.00
00275              10.40    15200.00
00276              10.40    15000.00
00277               7.20    14800.00
00278               7.60    14400.00
00279               8.40    14200.00
00280               6.00    14000.00
00281               7.20    13800.00
00282               7.60    13600.00
00283               6.00    13400.00
00284               6.00    13000.00
00285               6.80    12800.00
00286               5.60    12400.00
00287               5.20    12200.00
00288               5.60    11800.00
00289               5.20    11600.00
00290               5.20    11200.00
00291               5.20    11000.00
00292               4.40    10800.00
00293               4.00    10400.00
00294               4.00    10000.00
00295               3.60     9600.00
00296               3.60     9400.00
00297               3.60     9200.00
00298               3.60     8800.00
00299               2.80     8400.00
00300               3.20     8200.00
00301               2.80     8000.00
00302               2.40     7200.00
00303               2.80     7000.00
00304               2.80     6800.00
00305               1.20     6400.00
00306               2.00     6000.00
00307               2.00     5600.00
00308               1.60     5200.00
00309               1.60     5000.00
00310               2.00     4600.00
00311               1.20     4400.00
00312               1.20     3800.00
00313               0.80     3600.00
00314               2.00     3200.00
00315               0.40     2800.00
00316               0.40     2400.00
00317               0.40     2000.00
00318               0.80     1600.00
00319              -0.40     1200.00
00320               0.00     1000.00
00321              -0.40      400.00
00322              -0.40      200.00
00323               0.40     -200.00
00324               0.40     -400.00
00325               2.80     -800.00
00326               1.60    -1000.00
00327              -2.80    -1400.00
00328              -0.80    -1800.00
00329               1.60    -2000.00
00330              -2.00    -2400.00
00331               3.60    -2800.00
00332              29.60    -3400.00
00333               0.80    -4000.00
00334             -50.00    -4400.00
00335               2.00    -4600.00
00336              43.60    -5000.00
00337             -42.80    -4800.00
00338             -17.20    -5000.00
00339              50.00    -6000.00
00340             -50.00    -5600.00
00341             -12.00    -6600.00
00342              50.00    -6800.00
00343             -48.40    -7000.00
00344              -7.60    -8000.00
00345              -6.40    -7600.00
00346              25.60    -8200.00
00347              -8.80    -8600.00
00348             -49.20    -8600.00
00349              50.00    -9400.00
00350             -14.40    -9200.00
00351             -42.80   -10000.00
00352              17.20   -10000.00
00353              16.80   -10400.00
00354             -30.00   -10800.00
00355             -17.20   -10800.00
00356              40.00   -11400.00
00357             -28.40   -11800.00
00358             -24.80   -12000.00
00359              14.00   -12400.00
00360              -0.40   -12800.00
00361             -25.20   -12800.00
00362              -6.00   -13200.00
00363              17.20   -13400.00
00364             -21.60   -13600.00
00365             -16.40   -14000.00
00366               5.20   -14400.00
00367              -5.20   -14400.00
00368             -25.20   -14600.00
00369               0.80   -15000.00
00370               2.80   -15200.00
00371             -21.60   -15400.00
00372             -10.40   -15800.00
00373              -2.40   -16000.00
00374             -12.40   -16200.00
00375             -18.80   -16200.00
00376              -4.00   -16400.00
00377              -7.20   -16800.00
00378             -20.00   -17000.00
00379             -10.80   -16800.00
00380              -6.80   -17200.00
00381             -20.40   -17600.00
00382             -16.40   -17400.00
00383              -7.60   -17800.00
00384             -16.40   -17800.00
00385             -18.80   -18000.00
00386             -14.00   -18200.00
00387             -14.80   -18400.00
00388             -24.40   -18600.00
00389             -18.40   -18600.00
00390             -16.40   -18800.00
00391             -24.80   -18800.00
00392             -21.20   -19000.00
00393             -19.60   -19200.00
00394             -25.20   -19200.00
00395             -27.60   -19200.00
00396             -25.20   -19400.00
00397             -26.40   -19400.00
00398             -31.20   -19400.00
00399             -30.00   -19600.00
00400             -29.60   -19400.00
00401             -34.40   -19600.00
00402             -34.80   -19600.00
00403             -34.00   -19600.00
00404             -35.60   -19600.00
00405             -37.60   -19600.00
00406             -34.80   -19600.00
00407             -35.60   -19600.00
00408             -39.20   -19600.00
00409             -36.40   -19600.00
00410             -34.00   -19600.00
00411             -34.40   -19600.00
00412             -32.40   -19600.00
00413             -30.00   -19400.00
00414             -28.40   -19400.00
00415             -28.00   -19400.00
00416             -26.40   -19400.00
00417             -24.80   -19200.00
00418             -25.20   -19200.00
00419             -22.80   -19200.00
00420             -22.00   -18800.00
00421             -21.60   -19000.00
00422             -21.20   -18800.00
00423             -20.00   -18600.00
00424             -19.20   -18600.00
00425             -18.80   -18400.00
00426             -18.40   -18400.00
00427             -18.00   -18200.00
00428             -16.80   -18000.00
00429             -15.60   -17800.00
00430             -15.20   -17600.00
00431             -14.80   -17400.00
00432             -14.00   -17200.00
00433             -14.00   -17200.00
00434             -13.20   -16800.00
00435             -13.20   -16800.00
00436             -12.40   -16600.00
00437             -12.00   -16400.00
00438             -11.60   -16200.00
00439             -11.20   -15800.00
00440             -10.80   -15800.00
00441             -10.40   -15400.00
00442              -9.20   -15200.00
00443              -9.20   -15000.00
00444              -8.80   -14800.00
00445              -8.80   -14600.00
00446              -8.40   -14400.00
00447              -7.60   -14000.00
00448              -8.40   -13800.00
00449              -7.20   -13600.00
00450              -7.20   -13400.00
00451              -7.20   -13000.00
00452              -6.80   -12800.00
00453              -6.00   -12400.00
00454              -6.80   -12200.00
00455              -6.00   -11800.00
00456              -4.40   -11400.00
00457              -6.00   -11200.00
00458              -5.60   -10800.00
00459              -4.40   -10600.00
00460              -5.60   -10200.00
00461              -4.80   -10000.00
00462              -3.60    -9800.00
00463              -4.40    -9200.00
00464              -5.20    -9000.00
00465              -3.60    -8800.00
00466              -4.00    -8400.00
00467              -4.40    -8200.00
00468              -4.00    -7600.00
00469              -3.60    -7400.00
00470              -3.60    -7000.00
00471              -2.80    -6800.00
00472              -2.40    -6200.00
00473              -3.20    -6000.00
00474              -2.00    -5600.00
00475              -2.80    -5200.00
00476              -2.40    -5000.00
00477              -2.40    -4400.00
00478              -2.00    -4200.00
00479              -2.00    -3800.00
00480              -1.20    -3400.00
00481              -2.40    -3200.00
00482              -1.20    -2800.00
00483              -1.20    -2400.00
00484              -1.60    -2000.00
00485              -1.20    -1800.00
00486              -1.20    -1200.00
00487              -1.20    -1000.00
00488              -0.80     -400.00
00489              -0.40     -200.00
00490              -0.40      200.00
00491               0.40      400.00
00492               4.00      800.00
00493              -0.40     1200.00
00494              -2.00     1400.00
00495               2.40     1800.00
00496               2.80     2200.00
00497              -1.20     2400.00
00498               4.00     2600.00
00499              17.60     3400.00
00500              21.60     4000.00
00501             -37.20     4000.00
00502             -28.00     4600.00
00503              34.00     4800.00
00504               8.40     5200.00
00505             -50.00     5400.00
00506              28.80     6000.00
00507              50.00     6000.00
00508             -50.00     6400.00
00509               8.80     7000.00
00510              50.00     7000.00
00511             -50.00     7600.00
00512             -18.40     7800.00
00513              36.40     8200.00
00514              20.40     8600.00
00515             -36.40     8800.00
00516               2.40     9200.00
00517              50.00     9400.00
00518             -33.20     9800.00
00519             -20.40    10000.00
00520              45.60    10400.00
00521               4.00    11000.00
00522             -30.00    11000.00
00523              22.00    11400.00
00524              31.60    11600.00
00525             -26.00    12000.00
00526               1.60    12400.00
00527              27.60    12600.00
00528               0.40    12800.00
00529             -10.80    13200.00
00530              21.20    13400.00
00531              18.40    13600.00
00532             -14.00    14000.00
00533               8.80    14000.00
00534              21.20    14400.00
00535              -2.00    14600.00
00536              -1.20    15000.00
00537              24.00    15200.00
00538              10.00    15200.00
00539              -3.60    15600.00
00540              16.80    15800.00
00541              14.80    16000.00
00542               1.60    16200.00
00543              10.00    16600.00
00544              20.00    16800.00
00545               8.40    16800.00
00546               6.80    17000.00
00547              18.00    17400.00
00548              14.40    17400.00
00549               6.80    17600.00
00550              17.20    17600.00
00551              20.40    18000.00
00552              10.40    18000.00
00553              16.00    18200.00
00554              22.00    18400.00
00555              16.40    18400.00
00556              14.80    18600.00
00557              23.60    18800.00
00558              21.60    18800.00
00559              18.00    18800.00
00560              25.20    19000.00
00561              26.00    19200.00
00562              22.40    19200.00
00563              26.00    19200.00
00564              30.00    19400.00
00565              28.40    19600.00
00566              28.40    19400.00
00567              33.20    19600.00
00568              34.00    19600.00
00569              31.60    19600.00
00570              34.40    19400.00
00571              36.40    19600.00
00572              34.40    19600.00
00573              35.60    19600.00
00574              37.60    19600.00
00575              37.20    19600.00
00576              34.00    19600.00
00577              34.40    19600.00
00578              32.80    19600.00
00579              29.60    19600.00
00580              29.20    19400.00
00581              28.40    19400.00
00582              26.40    19200.00
00583              24.80    19200.00
00584              24.80    19200.00
00585              23.20    19200.00
00586              21.60    19000.00
00587              22.00    18800.00
00588              20.40    18800.00
00589              20.00    18800.00
00590              19.60    18400.00
00591              18.00    18400.00
00592              18.00    18200.00
00593              17.20    18200.00
00594              16.80    18000.00
00595              15.20    17800.00
00596              15.20    17800.00
00597              15.20    17600.00
00598              13.60    17400.00
00599              13.20    17400.00
00600              14.00    17200.00
00601              12.00    16800.00
00602              11.60    16800.00
00603              12.40    16600.00
00604              11.60    16400.00
00605              10.40    16200.00
00606              10.40    16000.00
00607              10.40    15800.00
00608               8.80    15400.00
00609               9.20    15200.00
00610               8.80    15000.00
00611               8.00    14800.00
00612               8.40    14400.00
00613               7.20    14200.00
00614               7.20    14000.00
00615               7.20    13800.00
00616               6.80    13400.00
00617               6.80    13200.00
00618               6.40    12800.00
00619               5.60    12600.00
00620               6.00    12400.00
00621               5.20    12200.00
00622               5.20    11600.00
00623               5.60    11400.00
00624               4.80    11200.00
00625               4.40    10800.00
00626               4.00    10400.00
00627               4.00    10200.00
00628               4.00    10000.00
00629               3.60     9400.00
00630               4.00     9200.00
00631               3.60     8800.00
00632               3.60     8600.00
00633               3.60     8400.00
00634               2.80     8000.00
00635               2.80     7600.00
00636               2.40     7200.00
00637               2.40     7000.00
00638               2.40     6400.00
00639               2.00     6200.00
00640               2.00     6000.00
00641               2.00     5400.00
00642               2.40     5200.00
00643               1.20     4800.00
00644               2.00     4400.00
00645               1.60     4000.00
00646               0.80     3800.00
00647               1.60     3200.00
00648               1.20     3000.00
00649               0.40     2800.00
00650               0.80     2200.00
00651               0.80     2000.00
00652              -0.80     1600.00
00653               0.80     1400.00
00654               1.20      800.00
00655              -1.20      400.00
00656               0.40        0.00
00657               1.20     -200.00
00658              -0.40     -400.00
00659               2.80     -800.00
00660               0.40    -1200.00
00661              -2.40    -1600.00
00662               0.40    -1800.00
00663               0.80    -2200.00
00664              -1.20    -2600.00
00665               9.20    -2800.00
00666              35.60    -3800.00
00667             -31.20    -4200.00
00668             -50.00    -4600.00
00669              29.20    -4800.00
00670              18.80    -5200.00
00671             -50.00    -4800.00
00672              46.00    -5600.00
00673              45.60    -6000.00
00674             -50.00    -5800.00
00675              50.00    -6800.00
00676              16.80    -6800.00
00677             -49.20    -7200.00
00678               4.40    -8000.00
00679              -1.60    -7600.00
00680              32.80    -8600.00
00681             -48.80    -8400.00
00682              -4.40    -9000.00
00683              50.00    -9400.00
00684             -49.20    -9400.00
00685             -15.20   -10000.00
00686              24.40   -10000.00
00687               2.80   -10600.00
00688             -42.40   -10800.00
00689              14.40   -11200.00
00690              22.00   -11600.00
00691             -42.80   -11600.00
00692              -2.40   -12200.00
00693              12.40   -12400.00
00694             -10.80   -12800.00
00695             -25.20   -13000.00
00696              10.80   -13200.00
00697               4.00   -13600.00
00698             -26.80   -13800.00
00699              -5.20   -13800.00
00700               5.20   -14400.00
00701             -15.20   -14600.00
00702             -20.00   -14800.00
00703               9.20   -15200.00
00704              -9.20   -15200.00
00705             -20.40   -15600.00
00706              -4.40   -15800.00
00707              -4.40   -16000.00
00708             -18.00   -16200.00
00709             -13.20   -16400.00
00710              -0.80   -16800.00
00711             -14.40   -16800.00
00712             -18.40   -17000.00
00713              -6.00   -17200.00
00714             -12.00   -17400.00
00715             -22.80   -17400.00
00716             -10.00   -17600.00
00717             -10.00   -17800.00
00718             -19.60   -18000.00
00719             -18.00   -18000.00
00720             -12.40   -18400.00
00721             -18.80   -18400.00
00722             -23.20   -18400.00
00723             -14.00   -18800.00
00724             -20.00   -18800.00
00725             -24.80   -18800.00
00726             -19.60   -19200.00
00727             -22.00   -19000.00
00728             -26.80   -19200.00
00729             -27.60   -19200.00
00730             -24.80   -19400.00
00731             -27.60   -19400.00
00732             -32.00   -19400.00
00733             -29.20   -19400.00
00734             -31.60   -19600.00
00735             -36.00   -19600.00
00736             -34.40   -19600.00
00737             -33.60   -19600.00
00738             -36.80   -19600.00
00739             -36.80   -19600.00
00740             -34.40   -19600.00
00741             -37.60   -19600.00
00742             -39.20   -19600.00
00743             -34.80   -19600.00
00744             -34.00   -19600.00
00745             -33.20   -19600.00
00746             -31.60   -19600.00
00747             -29.60   -19600.00
00748             -28.00   -19400.00
00749             -27.60   -19400.00
00750             -25.60   -19200.00
00751             -24.40   -19200.00
00752             -24.40   -19200.00
00753             -22.00   -19000.00
00754             -21.60   -19000.00
00755             -21.20   -18800.00
00756             -20.40   -18600.00
00757             -19.20   -18600.00
00758             -18.40   -18400.00
00759             -18.80   -18400.00
00760             -18.00   -18400.00
00761             -17.20   -18000.00
00762             -16.80   -18000.00
00763             -15.60   -17800.00
00764             -15.20   -17600.00
00765             -14.80   -17400.00
00766             -14.00   -17200.00
00767             -13.60   -17000.00
00768             -12.00   -16800.00
00769             -13.20   -16600.00
00770             -12.00   -16600.00
00771             -11.60   -16200.00
00772             -11.60   -16200.00
00773             -10.80   -16000.00
00774             -10.80   -15600.00
00775              -9.60   -15400.00
00776              -9.20   -15200.00
00777              -9.20   -15000.00
00778              -8.80   -14600.00
00779              -8.80   -14400.00
00780              -8.40   -14400.00
00781              -7.60   -13800.00
00782              -7.60   -13600.00
00783              -7.60   -13400.00
00784              -7.20   -13200.00
00785              -7.20   -12800.00
00786              -6.80   -12600.00
00787              -6.80   -12200.00
00788              -6.00   -12000.00
00789              -5.60   -11600.00
00790              -5.60   -11400.00
00791              -5.60   -11000.00
00792              -5.60   -10800.00
00793              -5.60   -10600.00
00794              -4.80   -10400.00
00795              -4.40    -9800.00
00796              -4.40    -9600.00
00797              -4.40    -9200.00
00798              -4.00    -9000.00
00799              -4.40    -8400.00
00800              -4.00    -8400.00
00801              -4.00    -7800.00
00802              -4.00    -7600.00
00803              -2.80    -7200.00
00804              -2.80    -7000.00
00805              -3.60    -6400.00
00806              -2.80    -6200.00
00807              -2.40    -5800.00
00808              -2.00    -5600.00
00809              -3.60    -5200.00
00810              -2.00    -4800.00
00811              -2.40    -4200.00
00812              -2.40    -4000.00
00813              -1.60    -3600.00
00814              -1.20    -3400.00
00815              -2.40    -3000.00
00816              -1.20    -2600.00
00817              -1.20    -2200.00
00818              -1.20    -2000.00
00819              -1.20    -1600.00
00820              -1.20    -1200.00
00821              -1.20     -800.00
00822              -0.40     -400.00
00823              -0.40        0.00
00824               0.00      400.00
00825               2.00      600.00
00826               3.20      800.00
00827              -2.00     1400.00
00828               0.40     1600.00
00829               3.60     2000.00
00830               0.80     2000.00
00831              -0.40     2400.00
00832               8.40     3000.00
00833              24.40     3600.00
00834               2.80     4200.00
00835             -45.60     4400.00
00836              -0.40     4800.00
00837              37.20     4800.00
00838             -24.80     5200.00
00839             -39.20     5400.00
00840              50.00     6200.00
00841              14.40     6000.00
00842             -50.00     6800.00
00843              50.00     7200.00
00844              26.80     7200.00
00845             -50.00     7800.00
00846              11.60     7800.00
00847              37.60     8400.00
00848              -2.00     8800.00
00849             -39.60     8800.00
00850              39.20     9400.00
00851              29.60     9400.00
00852             -50.00    10000.00
00853              13.20    10200.00
00854              42.00    10800.00
00855             -18.40    11000.00
00856             -17.20    11200.00
00857              38.80    11400.00
00858               6.00    11800.00
00859             -25.20    12200.00
00860              19.60    12400.00
00861              21.20    12800.00
00862             -10.40    13000.00
00863              -1.20    13200.00
00864              28.40    13400.00
00865               2.40    13600.00
00866             -10.80    14000.00
00867              20.00    14200.00
00868              14.00    14600.00
00869              -7.20    14800.00
00870              10.40    15000.00
00871              23.20    15200.00
00872              -1.20    15600.00
00873               3.20    15800.00
00874              20.00    16000.00
00875               8.40    16200.00
00876               2.40    16400.00
00877              15.60    16600.00
00878              17.20    16800.00
00879               5.60    17000.00
00880              11.60    17200.00
00881              19.20    17400.00
00882              10.00    17600.00
00883               9.20    17600.00
00884              21.20    17600.00
00885              16.40    18200.00
00886              11.20    18000.00
00887              19.60    18400.00
00888              21.20    18400.00
00889              14.00    18600.00
00890              18.00    18400.00
00891              25.20    18800.00
00892              18.40    18800.00
00893              20.40    19000.00
00894              27.60    19000.00
00895              24.40    19200.00
00896              22.80    19200.00
00897              28.40    19200.00
00898              30.80    19200.00
00899              27.60    19400.00
00900              30.00    19600.00
00901              34.80    19600.00
00902              32.80    19600.00
00903              32.40    19600.00
00904              36.00    19600.00
00905              36.00    19600.00
00906              34.40    19600.00
00907              36.40    19600.00
00908              38.00    19600.00
00909              35.60    19600.00
00910              34.00    19600.00
00911              34.80    19600.00
00912              31.60    19600.00
00913              28.40    19600.00
00914              29.60    19400.00
00915              28.00    19600.00
00916              25.20    19200.00
00917              24.40    19200.00
00918              24.40    19000.00
00919              22.00    18800.00
00920              21.60    19000.00
00921              21.60    18800.00
00922              20.00    18800.00
00923              19.60    18800.00
00924              18.80    18600.00
00925              18.40    18400.00
00926              17.20    18400.00
00927              16.80    18200.00
00928              16.80    18000.00
00929              15.60    18000.00
00930              14.40    17600.00
00931              14.80    17600.00
00932              13.60    17400.00
00933              12.80    17200.00
00934              13.20    17000.00
00935              12.40    16800.00
00936              11.60    16600.00
00937              11.60    16400.00
00938              11.60    16200.00
00939              10.40    16000.00
00940              10.00    15800.00
00941              10.00    15600.00
00942               9.20    15400.00
00943               8.80    15000.00
00944               8.40    14800.00
00945               8.00    14600.00
00946               7.60    14400.00
00947               7.20    14200.00
00948               7.20    13800.00
00949               7.20    13600.00
00950               6.80    13200.00
00951               6.80    13000.00
00952               6.40    12800.00
00953               6.00    12600.00
00954               5.60    12400.00
00955               5.60    12000.00
00956               5.20    11800.00
00957               5.20    11400.00
00958               5.20    11000.00
00959               4.00    10800.00
00960               4.40    10400.00
00961               4.40    10000.00
00962               4.00     9800.00
00963               3.60     9400.00
00964               4.00     9200.00
00965               3.60     8800.00
00966               3.20     8400.00
00967               3.20     8200.00
00968               3.20     8000.00
00969               2.40     7600.00
00970               2.80     7200.00
00971               2.80     6800.00
00972               2.00     6400.00
00973               2.00     6200.00
00974               1.60     5800.00
00975               2.00     5400.00
00976               2.00     5200.00
00977               1.60     4600.00
00978               1.20     4400.00
00979               1.20     4000.00
00980               0.80     3600.00
00981               0.80     3200.00
00982               0.80     3000.00
00983               0.40     2400.00
00984               0.80     2200.00
00985               0.40     1800.00
00986               0.40     1400.00
00987               0.00     1000.00
00988              -0.40      800.00
00989               0.40      200.00
00990              -0.40        0.00
00991               0.00     -400.00
00992               1.20     -800.00
00993               2.40    -1000.00
00994              -2.80    -1600.00
00995              -1.60    -1600.00
00996               1.20    -2000.00
00997              -1.20    -2400.00
00998               0.40    -2600.00
00999              20.80    -3200.00
01000              21.20    -4000.00
01001             -50.00    -4400.00
01002             -19.20    -4600.00
01003              46.00    -4800.00
01004             -21.60    -5000.00
01005             -48.40    -4800.00
01006              50.00    -6000.00
01007             -37.60    -5800.00
01008             -50.00    -6400.00
01009              50.00    -6800.00
01010             -33.20    -6800.00
01011             -24.00    -7600.00
01012              -2.40    -7600.00
01013              14.80    -8000.00
01014              14.80    -8600.00
01015             -50.00    -8400.00
01016              41.60    -9200.00
01017              13.20    -9200.00
01018             -50.00    -9800.00
01019               7.60   -10000.00
01020              21.60   -10000.00
01021             -17.60   -10800.00
01022             -31.60   -10800.00
01023              37.20   -11400.00
01024             -10.80   -11600.00
01025             -35.60   -12000.00
01026              11.20   -12200.00
01027               5.60   -12400.00
01028             -20.00   -12800.00
01029             -16.40   -13000.00
01030              18.40   -13200.00
01031             -12.80   -13600.00
01032             -22.00   -14000.00
01033               2.00   -14000.00
01034               0.80   -14400.00
01035             -23.60   -14600.00
01036              -7.20   -14800.00
01037               8.40   -14800.00
01038             -19.60   -15400.00
01039             -14.80   -15600.00
01040              -2.40   -15600.00
01041              -9.20   -16200.00
01042             -20.00   -16200.00
01043              -6.80   -16400.00
01044              -4.00   -16800.00
01045             -18.40   -16800.00
01046             -14.00   -17000.00
01047              -5.20   -17200.00
01048             -18.00   -17200.00
01049             -19.60   -17600.00
01050              -8.00   -17600.00
01051             -14.80   -17800.00
01052             -20.40   -18000.00
01053             -15.60   -18200.00
01054             -13.60   -18200.00
01055             -22.80   -18600.00
01056             -20.40   -18600.00
01057             -14.80   -18600.00
01058             -24.00   -18800.00
01059             -22.80   -18800.00
01060             -19.20   -19000.00
01061             -24.40   -19200.00
01062             -28.00   -19200.00
01063             -25.20   -19200.00
01064             -25.20   -19200.00
01065             -31.20   -19400.00
01066             -30.40   -19400.00
01067             -29.20   -19600.00
01068             -34.00   -19600.00
01069             -35.20   -19600.00
01070             -33.20   -19600.00
01071             -36.00   -19600.00
01072             -37.60   -19600.00
01073             -36.00   -19600.00
01074             -34.80   -19600.00
01075             -38.80   -19600.00
01076             -37.60   -19600.00
01077             -34.00   -19600.00
01078             -34.40   -19600.00
01079             -32.80   -19400.00
01080             -30.00   -19600.00
01081             -28.40   -19400.00
01082             -28.40   -19400.00
01083             -26.40   -19200.00
01084             -24.40   -19200.00
01085             -25.20   -19400.00
01086             -23.20   -19000.00
01087             -22.00   -19000.00
01088             -21.60   -18800.00
01089             -20.40   -18600.00
01090             -20.40   -18600.00
01091             -19.20   -18600.00
01092             -18.40   -18400.00
01093             -18.40   -18400.00
01094             -17.20   -18000.00
01095             -16.80   -18000.00
01096             -15.60   -17800.00
01097             -15.60   -17400.00
01098             -15.20   -17400.00
01099             -14.80   -17200.00
01100             -14.00   -17200.00
01101             -13.20   -17000.00
01102             -13.60   -17000.00
01103             -12.40   -16600.00
01104             -12.00   -16400.00
01105             -12.00   -16200.00
01106             -10.80   -16000.00
01107             -11.20   -15800.00
01108             -10.40   -15600.00
01109              -9.60   -15200.00
01110              -9.20   -15200.00
01111              -8.80   -14800.00
01112              -8.80   -14600.00
01113              -9.20   -14400.00
01114              -8.40   -14200.00
01115              -8.40   -13800.00
01116              -8.00   -13600.00
01117              -7.60   -13400.00
01118              -7.60   -13000.00
01119              -6.80   -12800.00
01120              -7.20   -12400.00
01121              -6.80   -12200.00
01122              -6.40   -12000.00
01123              -6.00   -11600.00
01124              -5.60   -11200.00
01125              -5.60   -11000.00
01126              -5.60   -10600.00
01127              -5.20   -10400.00
01128              -5.20   -10000.00
01129              -4.80    -9600.00
01130              -4.40    -9200.00
01131              -4.40    -9200.00
01132              -4.80    -8800.00
01133              -4.40    -8400.00
01134              -3.60    -8200.00
01135              -4.00    -7800.00
01136              -4.00    -7400.00
01137              -2.80    -7200.00
01138              -2.80    -6600.00
01139              -4.00    -6400.00
01140              -3.60    -6000.00
01141              -2.40    -5600.00
01142              -2.80    -5200.00
01143              -2.80    -4800.00
01144              -1.20    -4600.00
01145              -2.40    -4200.00
01146              -2.40    -4000.00
01147              -0.80    -3600.00
01148              -2.00    -3200.00
01149              -2.00    -2800.00
01150              -1.20    -2400.00
01151              -1.20    -2000.00
01152              -1.60    -1800.00
01153              -0.80    -1400.00
01154              -1.20    -1000.00
01155              -0.80     -400.00
01156               0.40     -200.00
01157               0.40        0.00
01158               0.40      400.00
01159               4.00      800.00
01160               0.80     1000.00
01161              -2.40     1400.00
01162               2.00     1800.00
01163               3.60     2000.00
01164               0.40     2200.00
01165               2.00     2600.00
01166              13.20     3200.00
01167              26.40     4000.00
01168             -23.60     4200.00
01169             -40.80     4600.00
01170              26.00     4800.00
01171              25.20     5200.00
01172             -47.60     5200.00
01173              -2.40     5800.00
01174              50.00     6200.00
01175             -50.00     6200.00
01176             -31.20     7000.00
01177              50.00     7000.00
01178             -29.60     7400.00
01179             -36.40     7800.00
01180              31.20     8000.00
01181              30.80     8600.00
01182             -26.00     8800.00
01183             -19.60     9200.00
01184              50.00     9400.00
01185             -11.60     9600.00
01186             -38.00    10000.00
01187              38.80    10200.00
01188              19.60    10800.00
01189             -30.00    11200.00
01190               7.60    11200.00
01191              40.40    11600.00
01192             -18.80    11800.00
01193             -10.80    12200.00
01194              28.00    12600.00
01195               8.40    12800.00
01196             -14.00    13200.00
01197              12.00    13400.00
01198              26.00    13600.00
01199             -10.00    14000.00
01200               0.40    14200.00
01201              23.20    14400.00
01202               4.40    14800.00
01203              -5.60    14800.00
01204              19.60    15200.00
01205              16.40    15600.00
01206              -4.80    15600.00
01207              12.00    15800.00
01208              17.20    16000.00
01209               3.60    16400.00
01210               6.00    16600.00
01211              18.80    16600.00
01212              11.60    16800.00
01213               6.00    17200.00
01214              16.40    17200.00
01215              16.40    17400.00
01216               7.60    17600.00
01217              13.60    17800.00
01218              21.20    18000.00
01219              13.20    18000.00
01220              13.60    18200.00
01221              21.60    18200.00
01222              18.40    18400.00
01223              13.60    18600.00
01224              21.20    18800.00
01225              23.60    18800.00
01226              18.00    18800.00
01227              23.20    19000.00
01228              27.60    19200.00
01229              23.20    19200.00
01230              23.60    19200.00
01231              30.00    19400.00
01232              29.60    19400.00
01233              26.80    19400.00
01234              32.80    19600.00
01235              35.60    19600.00
01236              31.20    19600.00
01237              33.60    19600.00
01238              37.20    19600.00
01239              34.40    19600.00
01240              34.00    19600.00
01241              38.00    19600.00
01242              37.60    19600.00
01243              33.20    19600.00
01244              34.40    19600.00
01245              34.00    19600.00
01246              29.60    19400.00
01247              29.20    19600.00
01248              29.60    19200.00
01249              26.40    19200.00
01250              24.40    19200.00
01251              24.80    19000.00
01252              23.20    19200.00
01253              21.20    19000.00
01254              21.20    18800.00
01255              21.20    18800.00
01256              19.60    18800.00
01257              18.80    18600.00
01258              19.20    18400.00
01259              18.40    18400.00
01260              15.60    18200.00
01261              16.80    18200.00
01262              15.60    17800.00
01263              14.80    17600.00
01264              15.60    17600.00
01265              14.80    17400.00
01266              12.00    17200.00
01267              14.00    17200.00
01268              12.00    17200.00
01269              11.60    16800.00
01270              12.40    16600.00
01271              10.80    16600.00
01272              10.40    16200.00
01273              12.00    15800.00
01274               9.60    15800.00
01275               8.80    15600.00
01276              10.40    15400.00
01277               8.40    14800.00
01278               7.20    14800.00
01279               8.40    14400.00
01280               7.60    14400.00
01281               7.20    14200.00
01282               6.80    13600.00
01283               7.20    13400.00
01284               6.40    13400.00
01285               6.80    13000.00
01286               6.00    12800.00
01287               6.00    12600.00
01288               5.60    12000.00
01289               5.20    11800.00
01290               5.20    11400.00
01291               5.20    11000.00
01292               4.40    11000.00
01293               4.80    10600.00
01294               4.40    10200.00
01295               4.00    10000.00
01296               4.00     9600.00
01297               3.60     9400.00
01298               3.60     9200.00
01299               3.60     8800.00
01300               2.80     8400.00
01301               2.80     8000.00
01302               2.40     7800.00
01303               2.40     7400.00
01304               2.00     7000.00
01305               2.40     6800.00
01306               2.80     6200.00
01307               2.40     6000.00
01308               2.00     5600.00
01309               2.40     5400.00
01310               1.60     4800.00
01311               1.20     4600.00
01312               0.80     4200.00
01313               0.80     3800.00
01314               0.80     3600.00
01315               0.80     3000.00
01316               0.40     2800.00
01317               0.40     2400.00
01318               0.80     2200.00
01319               0.40     1600.00
01320              -0.40     1200.00
01321              -0.40     1000.00
01322               0.00      400.00
01323              -0.40      400.00
01324               0.40        0.00
01325               0.80     -400.00
01326               2.40     -800.00
01327              -0.40    -1200.00
01328              -2.40    -1200.00
01329               0.00    -1800.00
01330               0.80    -2000.00
01331              -2.40    -2400.00
01332               5.20    -2600.00
01333              34.00    -3600.00
01334             -12.80    -4200.00
01335             -50.00    -4400.00
01336              15.20    -4800.00
01337              36.40    -5000.00
01338             -50.00    -4800.00
01339              10.00    -5200.00
01340              50.00    -6000.00
01341             -50.00    -5600.00
01342              18.00    -6800.00
01343              49.20    -6800.00
01344             -50.00    -7200.00
01345               0.80    -7800.00
01346              -6.00    -7600.00
01347              30.80    -8400.00
01348             -26.40    -8400.00
01349             -33.20    -8800.00
01350              50.00    -9600.00
01351             -31.60    -9200.00
01352             -31.60   -10000.00
01353              21.60   -10000.00
01354              12.00   -10600.00
01355             -37.20   -10800.00
01356              -4.00   -10800.00
01357              36.00   -11600.00
01358             -36.80   -11600.00
01359             -15.20   -12000.00
01360              14.40   -12400.00
01361              -4.40   -12800.00
01362             -26.80   -12800.00
01363               2.00   -13200.00
01364              13.60   -13600.00
01365             -26.00   -13800.00
01366             -11.20   -14000.00
01367               6.80   -14200.00
01368             -10.40   -14600.00
01369             -24.40   -14800.00
01370               6.00   -15000.00
01371              -2.00   -15200.00
01372             -22.40   -15400.00
01373              -7.60   -15800.00
01374              -2.40   -16000.00
01375             -15.60   -16200.00
01376             -18.00   -16400.00
01377              -1.20   -16400.00
01378             -10.40   -16800.00
01379             -20.00   -17000.00
01380              -8.80   -17200.00
01381              -8.40   -17200.00
01382             -22.80   -17600.00
01383             -14.00   -17600.00
01384              -8.40   -17800.00
01385             -18.80   -17800.00
01386             -19.20   -18000.00
01387             -13.20   -18200.00
01388             -17.20   -18400.00
01389             -24.40   -18400.00
01390             -16.40   -18800.00
01391             -18.00   -18600.00
01392             -26.00   -18800.00
01393             -20.40   -19000.00
01394             -20.40   -19200.00
01395             -26.40   -19200.00
01396             -28.00   -19200.00
01397             -24.40   -19200.00
01398             -27.60   -19200.00
01399             -32.00   -19400.00
01400             -29.60   -19400.00
01401             -30.80   -19600.00
01402             -34.80   -19600.00
01403             -34.40   -19600.00
01404             -33.20   -19600.00
01405             -36.80   -19600.00
01406             -36.40   -19600.00
01407             -34.40   -19600.00
01408             -36.40   -19600.00
01409             -39.20   -19600.00
01410             -35.60   -19400.00
01411             -34.00   -19400.00
01412             -34.40   -19600.00
01413             -31.60   -19600.00
01414             -29.60   -19400.00
01415             -28.80   -19400.00
01416             -27.60   -19200.00
01417             -24.80   -19400.00
01418             -24.40   -19200.00
01419             -25.20   -19200.00
01420             -22.00   -19000.00
01421             -21.20   -19000.00
01422             -21.60   -18800.00
01423             -21.60   -18800.00
01424             -19.60   -18600.00
01425             -17.20   -18400.00
01426             -19.20   -18400.00
01427             -19.60   -18200.00
01428             -15.60   -18000.00
01429             -15.60   -18000.00
01430             -16.80   -17800.00
01431             -15.20   -17400.00
01432             -14.00   -17400.00
01433             -14.00   -17200.00
01434             -14.80   -17200.00
01435             -12.80   -17000.00
01436             -12.80   -16800.00
01437             -12.40   -16400.00
01438             -12.00   -16200.00
01439             -10.80   -16200.00
01440             -10.80   -16000.00
01441             -12.00   -15600.00
01442             -10.40   -15400.00
01443              -9.60   -15200.00
01444             -10.00   -15000.00
01445              -9.20   -14800.00
01446              -8.80   -14600.00
01447              -8.40   -14200.00
01448              -8.40   -14000.00
01449              -8.40   -13800.00
01450              -7.60   -13400.00
01451              -7.60   -13200.00
01452              -7.60   -13000.00
01453              -6.80   -12600.00
01454              -6.80   -12400.00
01455              -6.00   -12000.00
01456              -6.80   -11800.00
01457              -5.60   -11400.00
01458              -5.20   -11200.00
01459              -6.00   -10800.00
01460              -5.60   -10400.00
01461              -4.80   -10200.00
01462              -4.40    -9800.00
01463              -5.20    -9600.00
01464              -4.40    -9400.00
01465              -4.40    -9200.00
01466              -5.20    -8800.00
01467              -4.00    -8200.00
01468              -4.00    -8200.00
01469              -4.00    -7600.00
01470              -3.60    -7400.00
01471              -2.80    -7000.00
01472              -2.80    -6600.00
01473              -2.80    -6200.00
01474              -2.80    -5800.00
01475              -1.20    -5600.00
01476              -3.60    -5200.00
01477              -2.40    -4800.00
01478              -2.00    -4400.00
01479              -2.40    -4000.00
01480              -2.40    -3800.00
01481              -0.80    -3400.00
01482              -2.00    -3000.00
01483              -0.80    -2600.00
01484              -0.80    -2400.00
01485              -1.20    -2000.00
01486              -0.80    -1600.00
01487              -1.20    -1200.00
01488              -1.20     -800.00
01489               0.40     -600.00
01490              -0.40     -200.00
01491              -0.40      200.00
01492               0.80      600.00
01493               4.80      800.00
01494              -0.80     1200.00
01495              -1.20     1600.00
01496               2.00     1800.00
01497               2.80     2000.00
01498              -2.00     2400.00
01499               5.20     2800.00
01500              21.60     3600.00
01501              16.40     4000.00
01502             -44.00     4400.00
01503             -17.20     4800.00
01504              37.60     5000.00
01505              -6.40     5200.00
01506             -49.20     5200.00
01507              50.00     6000.00
01508              50.00     6200.00
01509             -50.00     6400.00
01510              34.80     6800.00
01511              50.00     6800.00
01512             -50.00     7600.00
01513              -6.00     7800.00
01514              38.40     8200.00
01515              12.00     8600.00
01516             -40.80     8800.00
01517              18.40     9200.00
01518              47.60     9400.00
01519             -44.00    10000.00
01520              -6.80    10200.00
01521              46.80    10400.00
01522              -6.00    10800.00
01523             -26.40    11200.00
01524              30.00    11400.00
01525              21.60    11600.00
01526             -28.00    12000.00
01527              10.00    12400.00
01528              25.60    12600.00
01529              -5.20    12800.00
01530              -7.60    13200.00
01531              24.80    13400.00
01532              11.60    13600.00
01533             -14.00    14000.00
01534              14.40    14000.00
01535              18.80    14600.00
01536              -4.40    14800.00
01537               4.00    15000.00
01538              25.20    15000.00
01539               4.40    15400.00
01540              -1.20    15600.00
01541              18.80    16000.00
01542              11.60    16000.00
01543               1.60    16400.00
01544              12.80    16400.00
01545              19.60    16800.00
01546               7.20    17000.00
01547               8.80    17200.00
01548              18.80    17200.00
01549              12.00    17600.00
01550               7.60    17600.00
01551              19.60    17600.00
01552              18.40    17800.00
01553              10.80    18000.00
01554              18.00    18200.00
01555              21.60    18400.00
01556              15.20    18400.00
01557              16.40    18400.00
01558              24.80    18800.00
01559              20.40    18800.00
01560              18.40    19000.00
01561              26.40    19000.00
01562              24.80    19200.00
01563              22.40    19200.00
01564              26.80    19200.00
01565              30.80    19200.00
01566              28.00    19600.00
01567              29.20    19600.00
01568              34.00    19600.00
01569              33.20    19600.00
01570              31.60    19600.00
01571              34.80    19600.00
01572              36.40    19600.00
01573              34.40    19600.00
01574              35.60    19600.00
01575              38.00    19600.00
01576              36.00    19600.00
01577              33.20    19600.00
01578              34.40    19600.00
01579              32.40    19600.00
01580              29.20    19400.00
01581              29.20    19600.00
01582              28.00    19400.00
01583              26.00    19200.00
01584              24.40    19200.00
01585              24.40    19200.00
01586              22.80    19000.00
01587              21.60    19000.00
01588              21.60    18800.00
01589              20.00    18800.00
01590              19.60    18800.00
01591              19.20    18600.00
01592              18.00    18400.00
01593              17.20    18400.00
01594              18.00    18000.00
01595              16.40    18000.00
01596              15.20    18000.00
01597              15.20    17800.00
01598              14.00    17600.00
01599              13.20    17400.00
01600              13.60    17400.00
01601              13.60    17000.00
01602              12.00    16800.00
01603              12.40    16800.00
01604              12.00    16600.00
01605              10.80    16400.00
01606              10.80    16000.00
01607              10.40    15800.00
01608               9.60    15600.00
01609               8.80    15600.00
01610               9.20    15200.00
01611               8.80    15000.00
01612               8.40    14800.00
01613               8.00    14400.00
01614               7.60    14200.00
01615               7.20    14000.00
01616               7.20    13600.00
01617               7.20    13400.00
01618               6.80    13200.00
01619               6.40    12800.00
01620               6.00    12600.00
01621               5.60    12200.00
01622               5.20    12000.00
01623               5.20    11600.00
01624               5.20    11400.00
01625               4.40    11200.00
01626               4.40    10800.00
01627               4.40    10400.00
01628               4.00    10200.00
01629               4.00    10000.00
01630               3.60     9600.00
01631               4.00     9200.00
01632               3.60     9000.00
01633               3.60     8600.00
01634               3.60     8200.00
01635               2.40     8000.00
01636               2.40     7600.00
01637               2.40     7200.00
01638               2.00     6800.00
01639               2.40     6400.00
01640               2.00     6200.00
01641               1.60     6000.00
01642               2.00     5600.00
01643               1.60     5200.00
01644               1.20     4800.00
01645               1.20     4400.00
01646               1.20     4000.00
01647               0.80     3600.00
01648               0.80     3200.00
01649               0.40     3000.00
01650               0.40     2600.00
01651               0.40     2200.00
01652               0.40     1800.00
01653               0.40     1600.00
01654              -0.40     1000.00
01655              -0.40      800.00
01656              -0.40      400.00
01657               0.00        0.00
01658              -0.80     -200.00
01659               0.80     -600.00
01660               2.80     -800.00
01661              -2.40    -1400.00
01662              -2.00    -1600.00
01663               2.00    -1800.00
01664              -0.40    -2000.00
01665              -1.20    -2600.00
01666              13.60    -2800.00
01667              33.20    -4000.00
01668             -44.40    -4400.00
01669             -40.80    -4800.00
01670              39.20    -4600.00
01671               2.00    -5000.00
01672             -50.00    -4800.00
01673              50.00    -5800.00
01674              13.60    -6000.00
01675             -50.00    -5800.00
01676              50.00    -7000.00
01677              -6.00    -6800.00
01678             -40.80    -7400.00
01679               3.60    -7600.00
01680               4.00    -7600.00
01681              29.60    -8400.00
01682             -50.00    -8400.00
01683              16.00    -9200.00
01684              39.20    -9200.00
01685             -50.00    -9600.00
01686              -4.40   -10000.00
01687              24.40   -10000.00
01688              -5.20   -10800.00
01689             -40.40   -10800.00
01690              25.60   -11200.00
01691               9.20   -11600.00
01692             -42.00   -11800.00
01693               4.40   -12200.00
01694              10.80   -12400.00
01695             -14.80   -12800.00
01696             -22.80   -12800.00
01697              15.60   -13600.00
01698              -3.60   -13400.00
01699             -26.40   -13800.00
01700              -1.20   -14000.00
01701               4.40   -14400.00
01702             -20.40   -14600.00
01703             -15.20   -14800.00
01704              10.40   -15200.00
01705             -15.20   -15400.00
01706             -18.00   -15600.00
01707              -3.60   -16000.00
01708              -6.80   -16000.00
01709             -18.80   -16400.00
01710             -10.80   -16200.00
01711              -2.00   -16800.00
01712             -16.80   -16800.00
01713             -17.20   -17000.00
01714              -5.60   -17200.00
01715             -14.00   -17400.00
01716             -22.80   -17600.00
01717              -8.40   -17600.00
01718             -12.00   -17800.00
01719             -21.20   -18000.00
01720             -16.40   -18200.00
01721             -12.00   -18400.00
01722             -22.80   -18400.00
01723             -21.60   -18600.00
01724             -14.00   -18600.00
01725             -23.60   -18800.00
01726             -23.60   -18800.00
01727             -18.80   -18800.00
01728             -23.60   -19200.00
01729             -26.80   -19200.00
01730             -26.80   -19200.00
01731             -24.80   -19200.00
01732             -29.60   -19200.00
01733             -31.20   -19400.00
01734             -29.20   -19400.00
01735             -32.80   -19600.00
01736             -34.80   -19400.00
01737             -34.00   -19600.00
01738             -34.40   -19600.00
01739             -36.40   -19600.00
01740             -36.40   -19600.00
01741             -34.40   -19600.00
01742             -37.60   -19600.00
01743             -38.80   -19600.00
01744             -34.40   -19600.00
01745             -33.20   -19600.00
01746             -34.00   -19600.00
01747             -31.20   -19400.00
01748             -27.60   -19400.00
01749             -28.80   -19400.00
01750             -28.00   -19400.00
01751             -23.20   -19200.00
01752             -24.40   -19200.00
01753             -26.00   -19200.00
01754             -20.40   -19000.00
01755             -21.60   -18800.00
01756             -21.60   -18800.00
01757             -20.40   -18600.00
01758             -18.80   -18600.00
01759             -18.40   -18400.00
01760             -18.80   -18400.00
01761             -17.20   -18000.00
01762             -16.80   -18000.00
01763             -17.20   -18000.00
01764             -15.20   -17600.00
01765             -15.20   -17400.00
01766             -13.60   -17400.00
01767             -15.60   -17200.00
01768             -14.00   -17000.00
01769             -12.00   -17000.00
01770             -13.20   -16800.00
01771             -13.60   -16400.00
01772             -11.60   -16200.00
01773             -10.00   -16000.00
01774             -12.80   -16000.00
01775             -12.00   -15400.00
01776              -7.60   -15400.00
01777             -10.40   -15200.00
01778             -10.80   -14800.00
01779              -7.60   -14600.00
01780              -8.40   -14400.00
01781             -10.40   -14000.00
01782              -8.80   -13800.00
01783              -5.60   -13600.00
01784              -8.40   -13400.00
01785              -8.80   -13200.00
01786              -5.20   -12800.00
01787              -7.20   -12400.00
01788              -8.80   -12400.00
01789              -5.60   -11800.00
01790              -5.60   -11600.00
01791              -6.80   -11400.00
01792              -5.20   -11000.00
01793              -4.40   -10600.00
01794              -6.00   -10400.00
01795              -5.20   -10000.00
01796              -4.00    -9800.00
01797              -5.60    -9600.00
01798              -4.00    -9200.00
01799              -3.20    -8800.00
01800              -5.20    -8400.00
01801              -4.00    -8200.00
01802              -3.60    -8000.00
01803              -4.00    -7600.00
01804              -3.60    -7200.00
01805              -2.40    -6800.00
01806              -2.80    -6600.00
01807              -4.00    -6200.00
01808              -2.40    -5800.00
01809              -1.20    -5600.00
01810              -3.60    -4800.00
01811              -1.20    -4800.00
01812              -2.40    -4200.00
01813              -2.00    -4000.00
01814              -1.20    -3600.00
01815              -2.00    -3200.00
01816              -2.00    -2800.00
01817               0.40    -2600.00
01818              -1.60    -2000.00
01819              -2.00    -1800.00
01820               0.40    -1600.00
01821              -1.20    -1000.00
01822              -2.40     -800.00
01823               0.80     -400.00
01824               0.40        0.00
01825              -1.20      400.00
01826               2.00      800.00
01827               4.00     1000.00
01828              -2.40     1400.00
01829               0.40     1600.00
01830               4.00     2000.00
01831               0.80     2200.00
01832              -0.80     2400.00
01833              10.40     3000.00
01834              26.40     3800.00
01835              -9.20     4200.00
01836             -46.00     4600.00
01837              12.00     4800.00
01838              33.60     5000.00
01839             -36.80     5200.00
01840             -26.80     5600.00
01841              50.00     6200.00
01842             -16.00     6000.00
01843             -50.00     6800.00
01844              50.00     7000.00
01845               1.60     7200.00
01846             -50.00     7800.00
01847              21.20     8000.00
01848              34.80     8600.00
01849             -12.40     8600.00
01850             -34.40     9000.00
01851              50.00     9400.00
01852              13.20     9600.00
01853             -47.60    10000.00
01854              23.60    10400.00
01855              34.40    10800.00
01856             -23.20    11000.00
01857              -9.20    11200.00
01858              41.60    11600.00
01859              -4.00    11800.00
01860             -21.60    12400.00
01861              24.40    12400.00
01862              17.20    12800.00
01863             -12.40    13000.00
01864               3.60    13400.00
01865              29.60    13600.00
01866              -2.40    14000.00
01867              -8.40    14000.00
01868              21.20    14400.00
01869              11.60    14800.00
01870              -6.00    14800.00
01871              13.60    15000.00
01872              21.20    15600.00
01873              -2.40    15600.00
01874               6.00    15800.00
01875              19.60    16000.00
01876               6.80    16200.00
01877               4.00    16400.00
01878              18.00    16800.00
01879              15.20    16800.00
01880               5.20    17000.00
01881              14.40    17200.00
01882              18.40    17400.00
01883               8.40    17600.00
01884              12.00    17600.00
01885              22.00    17800.00
01886              13.60    18000.00
01887              12.00    18200.00
01888              21.20    18400.00
01889              20.40    18400.00
01890              13.60    18400.00
01891              20.00    18800.00
01892              24.80    18800.00
01893              18.00    19000.00
01894              21.20    19000.00
01895              27.60    19000.00
01896              24.00    19200.00
01897              23.20    19200.00
01898              28.80    19200.00
01899              30.40    19200.00
01900              27.60    19600.00
01901              29.60    19400.00
01902              34.40    19600.00
01903              32.80    19600.00
01904              32.40    19600.00
01905              36.00    19600.00
01906              36.00    19600.00
01907              34.00    19600.00
01908              36.00    19600.00
01909              38.00    19600.00
01910              34.40    19600.00
01911              34.00    19600.00
01912              34.40    19600.00
01913              30.80    19600.00
01914              29.20    19400.00
01915              28.40    19400.00
01916              27.60    19400.00
01917              24.80    19200.00
01918              24.40    19200.00
01919              24.00    19000.00
01920              22.00    19000.00
01921              21.20    19000.00
01922              21.20    18800.00
01923              20.40    18800.00
01924              19.60    18800.00
01925              18.80    18600.00
01926              18.80    18400.00
01927              16.80    18400.00
01928              16.40    18200.00
01929              16.40    18000.00
01930              16.00    17800.00
01931              14.80    17600.00
01932              14.80    17600.00
01933              13.60    17400.00
01934              13.20    17200.00
01935              13.20    17000.00
01936              12.00    16800.00
01937              11.60    16600.00
01938              12.00    16600.00
01939              11.60    16200.00
01940              10.40    16000.00
01941              10.40    15800.00
01942              10.00    15600.00
01943               9.60    15400.00
01944               8.80    15200.00
01945               8.40    14800.00
01946               7.60    14600.00
01947               8.40    14400.00
01948               7.20    14200.00
01949               7.20    13800.00
01950               7.20    13600.00
01951               6.80    13400.00
01952               6.80    13200.00
01953               6.80    12800.00
01954               5.60    12600.00
01955               5.60    12200.00
01956               5.60    12000.00
01957               5.20    11600.00
01958               5.20    11200.00
01959               5.20    11000.00
01960               4.40    10800.00
01961               4.00    10400.00
01962               4.40    10000.00
01963               3.60     9600.00
01964               3.60     9400.00
01965               3.60     9200.00
01966               3.20     8800.00
01967               3.20     8600.00
01968               2.40     8200.00
01969               2.80     7800.00
01970               2.40     7600.00
01971               2.40     7200.00
01972               2.40     6800.00
01973               2.00     6400.00
01974               2.00     6000.00
01975               2.00     5800.00
01976               2.00     5400.00
01977               1.20     5200.00
01978               1.20     4600.00
01979               1.20     4400.00
01980               0.80     4000.00
01981               0.80     3600.00
01982               0.80     3200.00
01983               0.40     2800.00
01984               0.40     2400.00
01985               0.40     2200.00
01986               0.40     1800.00
01987               0.00     1400.00
01988              -0.40      800.00
01989               0.40      800.00
01990              -0.40      200.00
01991               0.40     -200.00
01992               0.40     -400.00
01993               2.00     -800.00
01994               2.00    -1000.00
01995              -2.80    -1400.00
01996              -1.20    -1800.00
01997               1.60    -2000.00
01998              -1.20    -2400.00
01999               2.40    -2600.00
02000              26.80    -3200.00
02001               7.20    -4200.00
02002             -50.00    -4400.00
02003              -2.80    -4600.00
02004              45.60    -4800.00
02005             -38.00    -4800.00
02006             -26.80    -5000.00
02007              50.00    -6000.00
02008             -50.00    -5600.00
02009             -22.80    -6400.00
02010              50.00    -7000.00
02011             -46.00    -7000.00
02012             -11.60    -7800.00
02013              -5.20    -7600.00
02014              22.40    -8000.00
02015              -1.20    -8400.00
02016             -50.00    -8400.00
02017              50.00    -9400.00
02018              -6.80    -9200.00
02019             -46.00    -9800.00
02020              16.40   -10000.00
02021              18.00   -10400.00
02022             -26.80   -10800.00
02023             -21.20   -11000.00
02024              40.40   -11400.00
02025             -24.80   -11600.00
02026             -28.00   -12000.00
02027              14.00   -12200.00
02028               2.40   -12600.00
02029             -24.40   -12800.00
02030              -9.20   -13000.00
02031              18.80   -13400.00
02032             -20.40   -13600.00
02033             -18.00   -14000.00
02034               5.20   -14200.00
02035              -4.40   -14400.00
02036             -25.20   -14800.00
02037              -0.40   -14800.00
02038               3.60   -15200.00
02039             -21.60   -15400.00
02040             -10.80   -15600.00
02041              -2.40   -15600.00
02042             -12.40   -16000.00
02043             -19.60   -16400.00
02044              -4.40   -16400.00
02045              -6.00   -16600.00
02046             -19.20   -17000.00
02047             -12.00   -17200.00
02048              -6.00   -17200.00
02049             -20.40   -17200.00
02050             -17.20   -17600.00
02051              -7.60   -17800.00
02052             -16.80   -17800.00
02053             -20.00   -18000.00
02054             -14.80   -18400.00
02055             -14.00   -18400.00
02056             -23.60   -18400.00
02057             -18.80   -18600.00
02058             -15.60   -18800.00
02059             -24.40   -18800.00
02060             -22.00   -18800.00
02061             -20.00   -19000.00
02062             -24.80   -19200.00
02063             -28.40   -19200.00
02064             -24.80   -19400.00
02065             -25.20   -19400.00
02066             -31.60   -19400.00
02067             -30.00   -19400.00
02068             -29.60   -19400.00
02069             -34.40   -19400.00
02070             -34.40   -19600.00
02071             -33.20   -19400.00
02072             -35.60   -19600.00
02073             -37.20   -19600.00
02074             -35.60   -19600.00
02075             -34.80   -19600.00
02076             -38.80   -19600.00
02077             -36.80   -19600.00
02078             -32.80   -19600.00
02079             -33.60   -19400.00
02080             -32.80   -19400.00
02081             -30.00   -19600.00
02082             -28.00   -19400.00
02083             -28.00   -19400.00
02084             -26.00   -19400.00
02085             -24.40   -19200.00
02086             -24.80   -19200.00
02087             -22.80   -19200.00
02088             -21.60   -18800.00
02089             -21.60   -19000.00
02090             -21.60   -18800.00
02091             -20.00   -18800.00
02092             -18.80   -18600.00
02093             -18.80   -18400.00
02094             -18.40   -18400.00
02095             -16.80   -18000.00
02096             -17.20   -17800.00
02097             -16.40   -17800.00
02098             -15.20   -17400.00
02099             -15.60   -17400.00
02100             -15.20   -17200.00
02101             -13.20   -17000.00
02102             -13.60   -17000.00
02103             -13.60   -16800.00
02104             -12.40   -16800.00
02105             -12.00   -16400.00
02106             -12.00   -16200.00
02107             -10.80   -16000.00
02108             -10.80   -15800.00
02109             -10.80   -15600.00
02110              -9.20   -15200.00
02111              -8.80   -15000.00
02112              -9.20   -14800.00
02113              -9.20   -14600.00
02114              -8.40   -14400.00
02115              -8.40   -14000.00
02116              -8.40   -13800.00
02117              -7.60   -13600.00
02118              -7.60   -13200.00
02119              -7.60   -13000.00
02120              -6.80   -12800.00
02121              -6.80   -12400.00
02122              -6.00   -12200.00
02123              -6.80   -11800.00
02124              -5.20   -11600.00
02125              -5.60   -11200.00
02126              -6.00   -10800.00
02127              -4.80   -10600.00
02128              -5.20   -10400.00
02129              -5.20   -10000.00
02130              -4.40    -9600.00
02131              -5.20    -9200.00
02132              -4.40    -9000.00
02133              -3.60    -8600.00
02134              -4.00    -8400.00
02135              -4.00    -8200.00
02136              -2.80    -7600.00
02137              -3.60    -7400.00
02138              -2.40    -7000.00
02139              -2.40    -6600.00
02140              -2.80    -6400.00
02141              -3.60    -6000.00
02142              -2.00    -5600.00
02143              -3.60    -5200.00
02144              -2.40    -4800.00
02145              -1.20    -4600.00
02146              -2.80    -4200.00
02147              -2.40    -3800.00
02148              -0.40    -3600.00
02149              -2.40    -3200.00
02150              -2.40    -2800.00
02151              -0.40    -2400.00
02152              -1.20    -2000.00
02153              -1.20    -1600.00
02154              -0.40    -1200.00
02155              -1.20    -1000.00
02156              -0.40     -400.00
02157              -0.40     -200.00
02158              -0.40      200.00
02159               0.00      400.00
02160               3.60      800.00
02161               0.00     1200.00
02162              -2.40     1600.00
02163               1.20     1800.00
02164               2.80     2000.00
02165              -1.20     2200.00
02166               2.80     2800.00
02167              16.80     3200.00
02168              24.40     4000.00
02169             -34.80     4400.00
02170             -31.60     4600.00
02171              32.80     5000.00
02172              12.00     5200.00
02173             -50.00     5400.00
02174              20.40     6000.00
02175              50.00     6000.00
02176             -50.00     6400.00
02177              -2.40     7200.00
02178              50.00     7000.00
02179             -47.60     7600.00
02180             -23.20     7800.00
02181              35.60     8000.00
02182              22.80     8600.00
02183             -34.00     8800.00
02184              -4.40     9200.00
02185              50.00     9400.00
02186             -28.00     9800.00
02187             -26.00    10000.00
02188              44.00    10400.00
02189               8.40    10800.00
02190             -30.40    11000.00
02191              18.00    11200.00
02192              34.40    11800.00
02193             -24.80    12000.00
02194              -2.00    12200.00
02195              28.00    12600.00
02196               2.80    12800.00
02197             -12.00    13200.00
02198              18.80    13400.00
02199              21.20    13600.00
02200             -13.20    14000.00
02201               7.20    14200.00
02202              22.80    14400.00
02203               0.00    14800.00
02204              -2.00    15000.00
02205              23.20    15200.00
02206              12.00    15400.00
02207              -4.80    15600.00
02208              16.40    15800.00
02209              15.20    16000.00
02210               1.60    16400.00
02211               9.20    16600.00
02212              20.00    16800.00
02213              10.40    16800.00
02214               7.60    17200.00
02215              18.80    17400.00
02216              15.60    17400.00
02217               7.20    17600.00
02218              16.80    17600.00
02219              20.00    18000.00
02220              10.00    18000.00
02221              14.80    18000.00
02222              21.60    18400.00
02223              17.20    18600.00
02224              15.60    18400.00
02225              24.00    18800.00
02226              23.20    18800.00
02227              17.20    19000.00
02228              23.60    19000.00
02229              25.20    19000.00
02230              20.80    19200.00
02231              25.20    19200.00
02232              30.80    19200.00
02233              29.60    19400.00
02234              29.60    19600.00
02235              33.20    19600.00
02236              34.00    19600.00
02237              31.20    19600.00
02238              32.40    19600.00
02239              35.60    19600.00
02240              34.40    19600.00
02241              34.80    19600.00
02242              38.80    19600.00
02243              38.40    19600.00
02244              33.60    19600.00
02245              34.40    19600.00
02246              32.80    19600.00
02247              28.40    19600.00
02248              28.40    19400.00
02249              28.40    19400.00
02250              26.40    19200.00
02251              25.20    19200.00
02252              24.80    19200.00
02253              23.20    19000.00
02254              21.60    19000.00
02255              21.60    19000.00
02256              21.20    18800.00
02257              19.60    18800.00
02258              19.60    18800.00
02259              18.80    18400.00
02260              17.20    18400.00
02261              16.80    18200.00
02262              18.40    18200.00
02263              16.40    18000.00
02264              14.00    17600.00
02265              15.60    17600.00
02266              14.80    17400.00
02267              11.60    17200.00
02268              13.60    17200.00
02269              13.60    16800.00
02270              11.60    16600.00
02271              11.60    16600.00
02272              12.40    16400.00
02273              10.80    16000.00
02274              10.00    16000.00
02275              10.00    15600.00
02276              10.00    15600.00
02277              10.00    15200.00
02278               8.40    15000.00
02279               7.20    14800.00
02280               8.40    14400.00
02281               8.40    14200.00
02282               6.80    14000.00
02283               7.60    13600.00
02284               8.00    13600.00
02285               5.60    13200.00
02286               5.60    13000.00
02287               6.00    12600.00
02288               5.60    12400.00
02289               4.80    12000.00
02290               5.20    11800.00
02291               5.60    11200.00
02292               4.40    11200.00
02293               4.40    10800.00
02294               4.40    10600.00
02295               3.60    10200.00
02296               3.60    10000.00
02297               4.00     9600.00
02298               3.60     9400.00
02299               2.80     9000.00
02300               3.60     8600.00
02301               2.80     8400.00
02302               2.40     8000.00
02303               2.40     7800.00
02304               2.00     7200.00
02305               2.40     7000.00
02306               2.00     6800.00
02307               2.00     6400.00
02308               1.60     6000.00
02309               1.20     5600.00
02310               1.60     5200.00
02311               1.20     4800.00
02312               1.20     4600.00
02313               0.80     4200.00
02314               1.20     3800.00
02315               0.80     3400.00
02316               0.80     3000.00
02317               0.40     2800.00
02318               0.40     2400.00
02319               0.00     2000.00
02320               0.80     1600.00
02321               0.00     1400.00
02322               0.40      800.00
02323               0.40      400.00
02324              -0.40        0.00
02325               0.00     -400.00
02326               0.80     -400.00
02327               2.40    -1000.00
02328              -0.40    -1200.00
02329              -2.00    -1600.00
02330               0.40    -1800.00
02331               0.80    -2200.00
02332              -2.40    -2400.00
02333               7.60    -2800.00
02334              37.20    -3600.00
02335             -26.80    -4200.00
02336             -50.00    -4600.00
02337              27.20    -4600.00
02338              24.80    -5000.00
02339             -50.00    -4600.00
02340              37.20    -5400.00
02341              50.00    -6000.00
02342             -50.00    -5800.00
02343              44.40    -6800.00
02344              26.80    -6800.00
02345             -50.00    -7200.00
02346               4.40    -8000.00
02347              -2.80    -7400.00
02348              33.20    -8600.00
02349             -42.80    -8400.00
02350             -13.60    -9000.00
02351              50.00    -9400.00
02352             -45.60    -9400.00
02353             -20.00   -10200.00
02354              24.80   -10000.00
02355               4.40   -10600.00
02356             -41.20   -10800.00
02357              10.40   -11200.00
02358              26.40   -11600.00
02359             -42.40   -11800.00
02360              -5.60   -12200.00
02361              13.20   -12400.00
02362              -9.20   -12800.00
02363             -26.80   -13000.00
02364               8.80   -13200.00
02365               6.80   -13600.00
02366             -27.60   -13600.00
02367              -6.00   -14000.00
02368               5.60   -14400.00
02369             -14.80   -14600.00
02370             -21.20   -14800.00
02371               8.80   -15000.00
02372              -7.60   -15200.00
02373             -20.40   -15600.00
02374              -5.20   -15800.00
02375              -5.20   -16000.00
02376             -17.20   -16200.00
02377             -14.80   -16400.00
02378              -1.20   -16600.00
02379             -13.60   -16800.00
02380             -18.80   -17000.00
02381              -6.80   -17200.00
02382             -10.80   -17200.00
02383             -22.80   -17400.00
02384             -10.80   -17600.00
02385             -10.40   -17800.00
02386             -18.80   -18000.00
02387             -18.00   -18000.00
02388             -13.20   -18200.00
02389             -18.40   -18400.00
02390             -23.60   -18600.00
02391             -15.20   -18800.00
02392             -19.20   -18800.00
02393             -24.80   -18800.00
02394             -20.00   -19000.00
02395             -21.20   -19200.00
02396             -26.80   -19200.00
02397             -27.60   -19200.00
02398             -24.80   -19200.00
02399             -28.00   -19400.00
02400             -31.60   -19400.00
02401             -29.20   -19600.00
02402             -30.80   -19400.00
02403             -34.80   -19600.00
02404             -33.20   -19400.00
02405             -34.40   -19600.00
02406             -36.00   -19600.00
02407             -36.80   -19600.00
02408             -34.40   -19600.00
02409             -36.40   -19600.00
02410             -39.20   -19600.00
02411             -34.80   -19600.00
02412             -33.20   -19600.00
02413             -33.60   -19400.00
02414             -30.80   -19600.00
02415             -29.20   -19600.00
02416             -28.00   -19400.00
02417             -26.80   -19400.00
02418             -25.20   -19400.00
02419             -24.80   -19200.00
02420             -23.60   -19000.00
02421             -22.80   -19200.00
02422             -22.00   -19000.00
02423             -20.80   -18800.00
02424             -21.60   -18600.00
02425             -20.00   -18600.00
02426             -18.40   -18400.00
02427             -19.20   -18400.00
02428             -18.00   -18400.00
02429             -17.20   -18000.00
02430             -16.80   -18000.00
02431             -15.60   -17800.00
02432             -15.60   -17800.00
02433             -14.80   -17400.00
02434             -14.80   -17200.00
02435             -14.00   -17000.00
02436             -13.20   -16800.00
02437             -13.20   -16600.00
02438             -13.20   -16400.00
02439             -11.60   -16400.00
02440             -11.60   -16200.00
02441             -11.60   -15800.00
02442             -10.80   -15600.00
02443             -10.40   -15400.00
02444              -9.20   -15000.00
02445              -8.80   -14800.00
02446              -8.80   -14600.00
02447              -8.80   -14400.00
02448              -8.40   -14400.00
02449              -8.00   -14000.00
02450              -8.00   -13600.00
02451              -7.60   -13400.00
02452              -7.60   -13200.00
02453              -6.80   -13000.00
02454              -6.80   -12600.00
02455              -7.20   -12200.00
02456              -6.00   -12200.00
02457              -6.00   -11600.00
02458              -5.60   -11400.00
02459              -5.20   -11000.00
02460              -5.20   -10800.00
02461              -5.20   -10400.00
02462              -4.80   -10000.00
02463              -4.40   -10000.00
02464              -4.40    -9600.00
02465              -4.40    -9200.00
02466              -4.40    -8800.00
02467              -4.00    -8600.00
02468              -4.00    -8200.00
02469              -4.00    -8000.00
02470              -4.00    -7600.00
02471              -2.80    -7200.00
02472              -2.80    -6800.00
02473              -3.60    -6600.00
02474              -2.80    -6000.00
02475              -2.40    -6000.00
02476              -2.00    -5600.00
02477              -3.20    -5000.00
02478              -2.00    -4600.00
02479              -2.40    -4400.00
02480              -2.80    -4000.00
02481              -1.20    -3600.00
02482              -1.20    -3400.00
02483              -2.00    -2800.00
02484              -1.20    -2600.00
02485              -0.80    -2400.00
02486              -1.60    -1800.00
02487              -1.60    -1600.00
02488              -1.20    -1200.00
02489              -0.80     -800.00
02490              -0.80     -400.00
02491              -0.80     -200.00
02492              -0.40      200.00
02493               0.80      600.00
02494               2.80      800.00
02495              -1.20     1200.00
02496              -0.40     1600.00
02497               2.40     1800.00
02498               1.20     2200.00
02499              -1.20     2600.00
02500               6.80     2800.00
02501              22.80     3600.00
02502               6.80     4200.00
02503             -46.00     4400.00
02504              -6.00     4600.00
02505              37.60     4800.00
02506             -19.20     5200.00
02507             -42.80     5400.00
02508              50.00     6200.00
02509              26.40     6200.00
02510             -50.00     6600.00
02511              50.00     7000.00
02512              36.00     7000.00
02513             -50.00     7800.00
02514               6.80     8000.00
02515              38.80     8200.00
02516               2.00     8800.00
02517             -41.20     8800.00
02518              33.60     9400.00
02519              35.60     9400.00
02520             -50.00    10000.00
02521               7.20    10000.00
02522              44.40    10400.00
02523             -15.20    10800.00
02524             -20.40    11200.00
02525              37.20    11600.00
02526              11.60    11800.00
02527             -26.80    12000.00
02528              17.20    12400.00
02529              22.80    12600.00
02530              -9.20    12800.00
02531              -3.20    13200.00
02532              28.00    13600.00
02533               5.20    13600.00
02534             -11.60    14000.00
02535              18.80    14200.00
02536              16.40    14600.00
02537              -6.80    14800.00
02538               8.00    15000.00
02539              24.80    15200.00
02540               0.80    15600.00
02541               2.00    15600.00
02542              20.40    15800.00
02543               9.20    16000.00
02544               2.00    16400.00
02545              15.20    16600.00
02546              18.00    16600.00
02547               5.60    17000.00
02548              10.40    17200.00
02549              19.60    17400.00
02550              10.40    17400.00
02551               8.80    17600.00
02552              20.40    17600.00
02553              16.80    18000.00
02554              10.40    18200.00
02555              19.60    18200.00
02556              21.20    18400.00
02557              13.60    18600.00
02558              17.20    18800.00
02559              25.20    18800.00
02560              18.80    18800.00
02561              18.80    18800.00
02562              27.60    19000.00
02563              24.40    19000.00
02564              21.60    19000.00
02565              27.60    19200.00
02566              30.80    19400.00
02567              27.60    19400.00
02568              28.80    19200.00
02569              34.80    19600.00
02570              33.20    19600.00
02571              31.20    19600.00
02572              35.60    19600.00
02573              36.80    19600.00
02574              34.00    19600.00
02575              35.60    19600.00
02576              38.40    19600.00
02577              36.00    19600.00
02578              32.80    19600.00
02579              34.00    19600.00
02580              32.80    19600.00
02581              29.20    19400.00
02582              27.60    19600.00
02583              28.40    19400.00
02584              26.40    19200.00
02585              23.20    19200.00
02586              24.40    19000.00
02587              23.60    19000.00
02588              21.20    19000.00
02589              21.20    18800.00
02590              21.20    18800.00
02591              20.00    18800.00
02592              19.60    18600.00
02593              18.00    18400.00
02594              17.20    18400.00
02595              17.20    18200.00
02596              16.80    17800.00
02597              16.00    17800.00
02598              15.60    17600.00
02599              15.20    17600.00
02600              12.80    17400.00
02601              13.20    17200.00
02602              13.60    17000.00
02603              12.00    16800.00
02604              11.60    16600.00
02605              12.40    16400.00
02606              11.60    16400.00
02607              10.40    16000.00
02608              10.40    15800.00
02609              10.00    15600.00
02610               8.80    15200.00
02611               8.80    15200.00
02612               8.80    14800.00
02613               7.60    14800.00
02614               7.60    14400.00
02615               7.60    14200.00
02616               7.20    14000.00
02617               6.80    13600.00
02618               6.80    13200.00
02619               6.40    13200.00
02620               6.00    12800.00
02621               5.60    12600.00
02622               5.60    12400.00
02623               5.20    11800.00
02624               4.80    11600.00
02625               4.40    11200.00
02626               4.80    11000.00
02627               4.00    10800.00
02628               4.00    10400.00
02629               4.00    10200.00
02630               4.00     9800.00
02631               3.60     9400.00
02632               2.80     9200.00
02633               3.60     8800.00
02634               2.80     8400.00
02635               2.80     8200.00
02636               2.40     7800.00
02637               2.00     7400.00
02638               2.40     7200.00
02639               2.40     6800.00
02640               2.00     6400.00
02641               1.20     6200.00
02642               2.00     5800.00
02643               1.20     5600.00
02644               2.00     5000.00
02645               2.00     4800.00
02646               1.20     4400.00
02647               0.80     4000.00
02648               1.20     3600.00
02649               0.80     3200.00
02650               0.80     3000.00
02651               0.40     2600.00
02652               0.80     2200.00
02653               0.80     1800.00
02654              -0.40     1600.00
02655              -0.40     1200.00
02656               0.80      800.00
02657              -0.40      400.00
02658              -0.40        0.00
02659               0.80     -400.00
02660               1.20     -800.00
02661               2.40    -1000.00
02662              -2.40    -1200.00
02663              -1.20    -1600.00
02664               1.20    -1800.00
02665              -0.80    -2200.00
02666               0.40    -2400.00
02667              18.40    -3000.00
02668              24.80    -4000.00
02669             -50.00    -4200.00
02670             -26.00    -4600.00
02671              44.40    -4800.00
02672             -14.80    -5000.00
02673             -50.00    -4600.00
02674              50.00    -5800.00
02675             -22.40    -5800.00
02676             -50.00    -6000.00
02677              50.00    -6800.00
02678             -26.00    -6800.00
02679             -29.60    -7600.00
02680              -0.80    -8000.00
02681              11.60    -8000.00
02682              20.00    -8800.00
02683             -50.00    -8400.00
02684              34.80    -9200.00
02685              21.20    -9200.00
02686             -50.00    -9800.00
02687               4.40   -10000.00
02688              22.80   -10000.00
02689             -13.60   -10800.00
02690             -35.60   -10800.00
02691              34.40   -11400.00
02692              -5.20   -11600.00
02693             -38.80   -12000.00
02694              10.00   -12200.00
02695               7.60   -12600.00
02696             -19.20   -12800.00
02697             -18.40   -13000.00
02698              18.80   -13200.00
02699             -11.60   -13600.00
02700             -24.40   -13800.00
02701               2.00   -14000.00
02702               0.80   -14400.00
02703             -22.80   -14800.00
02704              -9.20   -14800.00
02705               8.40   -15200.00
02706             -18.40   -15200.00
02707             -15.20   -15600.00
02708              -2.40   -15800.00
02709              -8.40   -16000.00
02710             -19.60   -16400.00
02711              -8.00   -16400.00
02712              -2.80   -16600.00
02713             -18.40   -16800.00
02714             -14.80   -17000.00
02715              -5.20   -17200.00
02716             -16.80   -17200.00
02717             -20.40   -17600.00
02718              -8.40   -17600.00
02719             -14.00   -17800.00
02720             -20.00   -18000.00
02721             -15.60   -18200.00
02722             -12.80   -18400.00
02723             -22.00   -18600.00
02724             -20.80   -18400.00
02725             -14.40   -18600.00
02726             -23.20   -18800.00
02727             -23.20   -18800.00
02728             -18.80   -19000.00
02729             -23.60   -19200.00
02730             -28.00   -19200.00
02731             -26.00   -19200.00
02732             -24.80   -19400.00
02733             -30.80   -19400.00
02734             -31.20   -19600.00
02735             -28.00   -19400.00
02736             -33.20   -19400.00
02737             -34.80   -19600.00
02738             -32.80   -19600.00
02739             -34.80   -19600.00
02740             -37.20   -19600.00
02741             -34.80   -19600.00
02742             -34.80   -19600.00
02743             -38.80   -19600.00
02744             -37.60   -19600.00
02745             -34.40   -19600.00
02746             -34.80   -19600.00
02747             -32.80   -19600.00
02748             -30.80   -19600.00
02749             -29.60   -19400.00
02750             -28.00   -19400.00
02751             -26.80   -19400.00
02752             -24.80   -19200.00
02753             -24.80   -19200.00
02754             -23.60   -19200.00
02755             -22.80   -19000.00
02756             -21.60   -18800.00
02757             -21.20   -18800.00
02758             -20.40   -18600.00
02759             -19.60   -18400.00
02760             -18.80   -18400.00
02761             -18.80   -18400.00
02762             -18.00   -18200.00
02763             -17.20   -18000.00
02764             -16.00   -17800.00
02765             -15.60   -17400.00
02766             -15.20   -17600.00
02767             -14.80   -17200.00
02768             -14.00   -17200.00
02769             -13.60   -16800.00
02770             -13.20   -16800.00
02771             -12.80   -16600.00
02772             -12.00   -16400.00
02773             -12.00   -16200.00
02774             -10.80   -16000.00
02775             -10.40   -15800.00
02776             -10.80   -15600.00
02777              -9.60   -15200.00
02778              -8.80   -15200.00
02779             -10.00   -14800.00
02780             -10.00   -14600.00
02781              -8.40   -14400.00
02782              -7.60   -14000.00
02783              -8.40   -13800.00
02784              -7.60   -13600.00
02785              -6.80   -13200.00
02786              -7.60   -13000.00
02787              -7.20   -12800.00
02788              -6.00   -12600.00
02789              -6.00   -12200.00
02790              -7.20   -11800.00
02791              -5.60   -11600.00
02792              -4.40   -11200.00
02793              -6.00   -10800.00
02794              -5.60   -10600.00
02795              -4.40   -10200.00
02796              -5.20   -10000.00
02797              -4.40    -9800.00
02798              -4.40    -9400.00
02799              -4.00    -9200.00
02800              -4.00    -8800.00
02801              -4.40    -8400.00
02802              -3.60    -8200.00
02803              -3.20    -7600.00
02804              -4.40    -7400.00
02805              -2.40    -7200.00
02806              -2.00    -6800.00
02807              -3.60    -6400.00
02808              -3.60    -6000.00
02809              -1.20    -5800.00
02810              -3.60    -5400.00
02811              -2.80    -4800.00
02812              -2.00    -4600.00
02813              -2.40    -4200.00
02814              -2.40    -4000.00
02815              -1.20    -3600.00
02816              -2.00    -3200.00
02817              -1.20    -2800.00
02818              -2.00    -2600.00
02819              -1.20    -2200.00
02820              -0.80    -1800.00
02821              -1.20    -1400.00
02822              -2.00    -1000.00
02823              -0.80     -800.00
02824              -0.80     -400.00
02825              -1.20        0.00
02826               0.40      400.00
02827               2.80      800.00
02828               0.80     1000.00
02829              -2.40     1400.00
02830               1.20     1600.00
02831               3.20     2000.00
02832              -0.80     2200.00
02833               1.20     2600.00
02834              12.40     3000.00
02835              26.00     3800.00
02836             -20.00     4400.00
02837             -41.20     4600.00
02838              21.20     4800.00
02839              27.60     5000.00
02840             -45.60     5200.00
02841             -10.00     5800.00
02842              50.00     6200.00
02843             -43.60     6200.00
02844             -42.00     7000.00
02845              50.00     7000.00
02846             -21.60     7200.00
02847             -40.80     8000.00
02848              29.20     7800.00
02849              32.00     8600.00
02850             -22.00     8800.00
02851             -24.40     9000.00
02852              50.00     9400.00
02853              -4.40     9600.00
02854             -42.00    10000.00
02855              35.60    10400.00
02856              24.80    10800.00
02857             -29.20    11000.00
02858               3.60    11200.00
02859              42.00    11600.00
02860             -15.60    12000.00
02861             -13.60    12400.00
02862              27.60    12600.00
02863              10.40    12800.00
02864             -13.60    13200.00
02865              10.80    13400.00
02866              26.80    13600.00
02867              -8.80    14000.00
02868              -1.20    14200.00
02869              23.20    14400.00
02870               5.60    14600.00
02871              -6.00    14800.00
02872              19.60    15200.00
02873              18.00    15600.00
02874              -5.20    15600.00
02875              10.80    15800.00
02876              18.80    16000.00
02877               4.00    16200.00
02878               5.20    16400.00
02879              19.60    16600.00
02880              12.40    16800.00
02881               5.20    17000.00
02882              15.60    17200.00
02883              17.20    17400.00
02884               7.20    17400.00
02885              13.60    17600.00
02886              21.60    17600.00
02887              12.40    18000.00
02888              13.20    18000.00
02889              21.20    18400.00
02890              18.80    18400.00
02891              13.20    18400.00
02892              21.20    18600.00
02893              23.60    18800.00
02894              17.60    18800.00
02895              23.20    19000.00
02896              26.80    19000.00
02897              22.80    19200.00
02898              24.40    19200.00
02899              29.60    19200.00
02900              29.20    19400.00
02901              27.60    19600.00
02902              31.20    19400.00
02903              34.40    19600.00
02904              32.00    19400.00
02905              32.80    19600.00
02906              36.40    19600.00
02907              35.20    19600.00
02908              34.40    19600.00
02909              37.60    19600.00
02910              37.20    19600.00
02911              34.00    19600.00
02912              34.40    19600.00
02913              34.00    19600.00
02914              30.80    19600.00
02915              29.20    19400.00
02916              29.20    19400.00
02917              26.80    19400.00
02918              24.80    19200.00
02919              24.40    19200.00
02920              23.60    19200.00
02921              21.60    19000.00
02922              21.60    19000.00
02923              21.20    18800.00
02924              20.00    18800.00
02925              19.60    18400.00
02926              18.80    18400.00
02927              18.40    18200.00
02928              17.20    18200.00
02929              16.40    18200.00
02930              15.60    18000.00
02931              16.40    17600.00
02932              14.80    17600.00
02933              15.20    17400.00
02934              14.00    17400.00
02935              12.40    17200.00
02936              12.40    17000.00
02937              13.20    16800.00
02938              10.80    16400.00
02939              11.20    16400.00
02940              11.60    16000.00
02941              10.40    15800.00
02942               9.60    15800.00
02943              10.00    15600.00
02944               9.20    15200.00
02945               8.40    15000.00
02946               8.40    14800.00
02947               8.40    14400.00
02948               6.80    14200.00
02949               7.20    14000.00
02950               7.60    13600.00
02951               6.00    13600.00
02952               6.80    13200.00
02953               7.20    13000.00
02954               5.60    12800.00
02955               5.20    12400.00
02956               6.00    12000.00
02957               5.20    11800.00
02958               4.00    11600.00
02959               5.20    11200.00
02960               4.80    11000.00
02961               4.00    10600.00
02962               4.00    10400.00
02963               4.00    10000.00
02964               3.60     9600.00
02965               3.60     9200.00
02966               3.60     9000.00
02967               3.60     8600.00
02968               2.80     8400.00
02969               2.40     8000.00
02970               2.80     7800.00
02971               2.00     7200.00
02972               2.40     7000.00
02973               2.40     6800.00
02974               2.00     6400.00
02975               1.20     6200.00
02976               2.00     5600.00
02977               2.00     5400.00
02978               1.60     4800.00
02979               1.60     4600.00
02980               0.80     4200.00
02981               1.20     3800.00
02982               0.80     3600.00
02983               1.20     3200.00
02984               0.80     3000.00
02985               0.40     2400.00
02986               0.40     2000.00
02987               0.80     1600.00
02988              -0.40     1400.00
02989               0.40     1200.00
02990               0.80      600.00
02991               0.00      400.00
02992              -0.40     -200.00
02993               0.80     -400.00
02994               2.80     -800.00
02995               0.40    -1000.00
02996              -2.40    -1600.00
02997              -0.40    -1600.00
02998               0.80    -2000.00
02999              -1.60    -2200.00
03000               5.20    -2600.00
03001              32.00    -3200.00
03002              -6.80    -4200.00
03003             -50.00    -4400.00
03004              10.40    -4600.00
03005              40.40    -5000.00
03006             -50.00    -4800.00
03007              -2.00    -5000.00
03008              50.00    -6000.00
03009             -50.00    -5600.00
03010               5.20    -6600.00
03011              50.00    -6800.00
03012             -50.00    -7000.00
03013              -2.00    -8000.00
03014              -6.80    -7400.00
03015              28.40    -8200.00
03016             -18.40    -8400.00
03017             -40.80    -8800.00
03018              50.00    -9400.00
03019             -24.40    -9200.00
03020             -36.40   -10000.00
03021              19.60   -10000.00
03022              14.00   -10400.00
03023             -34.40   -10800.00
03024             -10.40   -10800.00
03025              38.00   -11400.00
03026             -33.60   -11600.00
03027             -20.00   -12000.00
03028              14.00   -12400.00
03029              -2.40   -12400.00
03030             -26.40   -13000.00
03031              -2.00   -13000.00
03032              15.20   -13600.00
03033             -24.80   -13800.00
03034             -13.20   -14000.00
03035               5.60   -14200.00
03036              -7.60   -14400.00
03037             -24.80   -14600.00
03038               3.60   -14800.00
03039              -0.40   -15200.00
03040             -22.00   -15400.00
03041              -8.80   -15600.00
03042              -2.80   -16000.00
03043             -14.00   -16200.00
03044             -18.00   -16200.00
03045              -2.40   -16400.00
03046              -8.80   -16800.00
03047             -19.60   -16800.00
03048             -10.00   -17200.00
03049              -7.20   -17200.00
03050             -21.60   -17600.00
03051             -15.20   -17600.00
03052              -8.40   -17800.00
03053             -17.60   -17800.00
03054             -18.80   -18000.00
03055             -13.60   -18000.00
03056             -15.20   -18400.00
03057             -24.40   -18400.00
03058             -17.20   -18600.00
03059             -16.80   -18800.00
03060             -24.80   -18800.00
03061             -20.40   -19000.00
03062             -20.00   -19000.00
03063             -26.00   -19200.00
03064             -27.60   -19200.00
03065             -24.40   -19200.00
03066             -26.80   -19200.00
03067             -31.60   -19400.00
03068             -29.60   -19400.00
03069             -30.00   -19400.00
03070             -36.00   -19400.00
03071             -34.40   -19600.00
03072             -33.20   -19400.00
03073             -37.20   -19600.00
03074             -37.60   -19600.00
03075             -34.00   -19600.00
03076             -36.40   -19600.00
03077             -39.60   -19600.00
03078             -36.00   -19600.00
03079             -33.20   -19400.00
03080             -34.80   -19600.00
03081             -31.60   -19400.00
03082             -30.00   -19400.00
03083             -28.00   -19400.00
03084             -28.00   -19200.00
03085             -26.00   -19400.00
03086             -24.40   -19200.00
03087             -24.80   -19200.00
03088             -23.20   -19000.00
03089             -21.60   -18800.00
03090             -22.00   -18800.00
03091             -21.20   -18800.00
03092             -19.60   -18600.00
03093             -18.40   -18400.00
03094             -19.60   -18400.00
03095             -18.00   -18400.00
03096             -17.20   -18000.00
03097             -15.60   -17800.00
03098             -17.20   -17800.00
03099             -15.20   -17400.00
03100             -13.20   -17600.00
03101             -15.60   -17200.00
03102             -15.20   -17000.00
03103             -10.80   -17000.00
03104             -14.00   -16800.00
03105             -14.00   -16600.00
03106             -10.00   -16400.00
03107             -11.60   -16000.00
03108             -12.00   -16000.00
03109             -10.40   -15600.00
03110             -10.00   -15400.00
03111              -9.20   -15200.00
03112             -10.00   -15000.00
03113              -8.80   -14800.00
03114              -8.80   -14400.00
03115              -9.20   -14200.00
03116              -7.60   -14000.00
03117              -7.60   -13800.00
03118              -7.60   -13400.00
03119              -7.20   -13200.00
03120              -7.60   -13000.00
03121              -6.80   -12600.00
03122              -6.00   -12400.00
03123              -7.20   -12200.00
03124              -6.00   -11800.00
03125              -5.20   -11400.00
03126              -5.60   -11000.00
03127              -5.60   -10800.00
03128              -4.40   -10600.00
03129              -5.20   -10000.00
03130              -5.20    -9800.00
03131              -4.40    -9600.00
03132              -4.40    -9200.00
03133              -4.40    -9000.00
03134              -4.00    -8600.00
03135              -3.60    -8400.00
03136              -4.40    -8000.00
03137              -4.40    -7600.00
03138              -3.60    -7200.00
03139              -2.80    -6800.00
03140              -4.00    -6600.00
03141              -2.80    -6400.00
03142              -2.40    -6000.00
03143              -2.00    -5600.00
03144              -4.00    -5200.00
03145              -1.60    -4800.00
03146              -2.40    -4400.00
03147              -3.60    -4200.00
03148              -2.00    -3800.00
03149              -1.20    -3400.00
03150              -2.80    -3200.00
03151              -2.00    -2800.00
03152              -1.20    -2400.00
03153              -1.20    -2000.00
03154              -1.20    -1800.00
03155              -0.80    -1400.00
03156              -1.20     -800.00
03157              -0.80     -400.00
03158              -0.40     -200.00
03159              -0.40      200.00
03160               0.40      600.00
03161               4.00      800.00
03162              -1.20     1200.00
03163              -1.20     1400.00
03164               2.00     1800.00
03165               2.40     2000.00
03166              -1.20     2400.00
03167               5.20     2800.00
03168              20.00     3600.00
03169              18.80     4000.00
03170             -40.40     4400.00
03171             -22.40     4800.00
03172              36.00     4800.00
03173               0.40     5200.00
03174             -50.00     5400.00
03175              40.80     6000.00
03176              50.00     6200.00
03177             -50.00     6400.00
03178              24.00     7000.00
03179              50.00     7000.00
03180             -50.00     7600.00
03181             -10.80     7800.00
03182              37.60     8200.00
03183              15.60     8800.00
03184             -39.20     8800.00
03185              11.60     9200.00
03186              50.00     9400.00
03187             -39.60     9800.00
03188             -12.80    10200.00
03189              47.20    10400.00
03190              -2.00    11000.00
03191             -28.80    11000.00
03192              27.20    11600.00
03193              26.40    11800.00
03194             -28.00    12000.00
03195               6.80    12400.00
03196              26.40    12600.00
03197              -3.60    13000.00
03198              -9.20    13200.00
03199              23.20    13400.00
03200              14.80    13600.00
03201             -14.00    14000.00
03202              12.40    14200.00
03203              20.00    14400.00
03204              -3.60    14800.00
03205               1.20    15000.00
03206              24.80    15200.00
03207               6.80    15200.00
03208              -3.20    15600.00
03209              18.00    15800.00
03210              13.20    16000.00
03211               2.00    16200.00
03212              11.60    16400.00
03213              18.80    16600.00
03214               7.60    17000.00
03215               7.60    17200.00
03216              18.40    17400.00
03217              13.60    17400.00
03218               7.60    17600.00
03219              18.40    17600.00
03220              19.60    18000.00
03221              10.40    18200.00
03222              16.40    18200.00
03223              21.60    18400.00
03224              15.60    18400.00
03225              15.20    18600.00
03226              24.40    18800.00
03227              21.20    18800.00
03228              18.00    19000.00
03229              26.00    19000.00
03230              25.60    19200.00
03231              22.00    19200.00
03232              26.40    19200.00
03233              30.00    19200.00
03234              28.40    19400.00
03235              28.40    19400.00
03236              34.00    19600.00
03237              34.00    19400.00
03238              31.20    19600.00
03239              34.80    19600.00
03240              36.40    19600.00
03241              34.00    19600.00
03242              36.00    19600.00
03243              38.00    19600.00
03244              36.40    19600.00
03245              34.00    19600.00
03246              34.80    19600.00
03247              33.20    19600.00
03248              29.20    19400.00
03249              29.60    19400.00
03250              28.40    19400.00
03251              26.40    19400.00
03252              24.40    19400.00
03253              24.40    19200.00
03254              23.60    19000.00
03255              21.60    19000.00
03256              21.60    18800.00
03257              21.20    18800.00
03258              19.60    18800.00
03259              18.80    18800.00
03260              18.40    18400.00
03261              18.00    18400.00
03262              18.00    18400.00
03263              16.40    18200.00
03264              16.40    18000.00
03265              15.20    17600.00
03266              13.60    17600.00
03267              13.60    17400.00
03268              13.60    17200.00
03269              13.60    17200.00
03270              12.40    16800.00
03271              12.00    16600.00
03272              11.60    16400.00
03273              11.60    16000.00
03274              10.40    16000.00
03275              10.00    15800.00
03276              10.40    15800.00
03277               8.40    15400.00
03278               8.80    15200.00
03279               8.80    15000.00
03280               7.60    14800.00
03281               8.40    14400.00
03282               7.20    14200.00
03283               7.60    14000.00
03284               7.20    13800.00
03285               6.00    13400.00
03286               7.20    13200.00
03287               7.20    12800.00
03288               4.40    12600.00
03289               5.60    12400.00
03290               6.00    12000.00
03291               4.40    11800.00
03292               4.40    11400.00
03293               6.00    11000.00
03294               4.80    10800.00
03295               3.60    10600.00
03296               4.80    10200.00
03297               4.00     9600.00
03298               2.80     9600.00
03299               4.00     9200.00
03300               4.00     8800.00
03301               2.80     8600.00
03302               2.80     8200.00
03303               3.20     8000.00
03304               2.80     7600.00
03305               1.60     7200.00
03306               2.80     7000.00
03307               2.80     6600.00
03308               1.20     6200.00
03309               2.00     6000.00
03310               2.40     5600.00
03311               2.00     5200.00
03312               1.20     4800.00
03313               2.00     4400.00
03314               1.20     4000.00
03315               1.20     3600.00
03316               0.80     3200.00
03317               0.80     3000.00
03318               0.40     2800.00
03319               0.40     2400.00
03320               0.40     2000.00
03321              -0.40     1600.00
03322               0.40     1200.00
03323               0.40      800.00
03324              -0.40      400.00
03325               0.40        0.00
03326               0.40     -200.00
03327               0.40     -600.00
03328               3.60     -800.00
03329              -2.00    -1200.00
03330              -2.40    -1600.00
03331               1.20    -1800.00
03332               0.00    -2200.00
03333              -2.40    -2400.00
03334              11.60    -2800.00
03335              35.20    -4000.00
03336             -39.60    -4200.00
03337             -46.80    -4600.00
03338              35.60    -4800.00
03339               9.60    -5000.00
03340             -50.00    -4800.00
03341              50.00    -5600.00
03342              28.40    -6000.00
03343             -50.00    -5800.00
03344              50.00    -7000.00
03345               4.40    -6600.00
03346             -46.00    -7400.00
03347               3.60    -8000.00
03348               1.60    -7600.00
03349              31.20    -8600.00
03350             -50.00    -8400.00
03351               6.80    -9000.00
03352              44.80    -9200.00
03353             -50.00    -9400.00
03354              -9.20   -10000.00
03355              24.40   -10000.00
03356              -2.00   -10600.00
03357             -41.20   -10800.00
03358              21.20   -11200.00
03359              15.60   -11600.00
03360             -42.80   -11800.00
03361               1.20   -12200.00
03362              11.60   -12400.00
03363             -14.00   -12800.00
03364             -24.80   -13000.00
03365              13.60   -13200.00
03366              -0.40   -13600.00
03367             -26.80   -13800.00
03368              -2.80   -14000.00
03369               5.20   -14400.00
03370             -18.00   -14600.00
03371             -17.20   -14600.00
03372              10.00   -15000.00
03373             -12.00   -15200.00
03374             -19.60   -15400.00
03375              -4.00   -15600.00
03376              -5.60   -16000.00
03377             -18.40   -16200.00
03378             -12.40   -16400.00
03379              -1.20   -16400.00
03380             -15.20   -16800.00
03381             -18.00   -17000.00
03382              -6.00   -17200.00
03383             -12.40   -17200.00
03384             -22.80   -17400.00
03385              -9.60   -17600.00
03386             -10.80   -17800.00
03387             -19.60   -18000.00
03388             -18.00   -18000.00
03389             -12.00   -18200.00
03390             -19.20   -18400.00
03391             -23.60   -18400.00
03392             -14.80   -18600.00
03393             -20.40   -18800.00
03394             -25.20   -18800.00
03395             -19.60   -18800.00
03396             -22.00   -19200.00
03397             -28.00   -19200.00
03398             -28.00   -19200.00
03399             -24.40   -19400.00
03400             -29.20   -19400.00
03401             -32.40   -19600.00
03402             -28.80   -19600.00
03403             -31.20   -19600.00
03404             -35.60   -19400.00
03405             -34.40   -19600.00
03406             -33.60   -19600.00
03407             -37.20   -19600.00
03408             -37.20   -19600.00
03409             -34.40   -19600.00
03410             -37.60   -19600.00
03411             -39.60   -19600.00
03412             -34.80   -19400.00
03413             -33.20   -19600.00
03414             -34.00   -19600.00
03415             -31.20   -19400.00
03416             -29.20   -19400.00
03417             -28.00   -19400.00
03418             -27.60   -19400.00
03419             -24.80   -19200.00
03420             -24.80   -19200.00
03421             -24.80   -19000.00
03422             -22.00   -18800.00
03423             -21.20   -18800.00
03424             -21.20   -18800.00
03425             -21.20   -18800.00
03426             -18.80   -18600.00
03427             -18.40   -18400.00
03428             -18.80   -18400.00
03429             -17.60   -18400.00
03430             -16.80   -18000.00
03431             -16.80   -18000.00
03432             -15.20   -17800.00
03433             -15.20   -17400.00
03434             -14.40   -17400.00
03435             -14.40   -17000.00
03436             -13.60   -17000.00
03437             -12.40   -16800.00
03438             -13.20   -16600.00
03439             -12.00   -16400.00
03440             -12.00   -16200.00
03441             -11.60   -16000.00
03442             -10.40   -15800.00
03443             -11.60   -15600.00
03444             -10.00   -15200.00
03445              -8.80   -15200.00
03446              -8.80   -14800.00
03447             -10.00   -14600.00
03448              -8.80   -14400.00
03449              -7.60   -14000.00
03450              -7.60   -13800.00
03451              -7.60   -13600.00
03452              -8.40   -13400.00
03453              -7.20   -13000.00
03454              -6.00   -12800.00
03455              -7.60   -12400.00
03456              -6.40   -12200.00
03457              -5.60   -12000.00
03458              -7.60   -11600.00
03459              -6.00   -11400.00
03460              -4.40   -11000.00
03461              -5.60   -10600.00
03462              -6.00   -10400.00
03463              -4.00   -10000.00
03464              -4.00    -9800.00
03465              -5.60    -9600.00
03466              -5.20    -9200.00
03467              -3.60    -8800.00
03468              -4.00    -8400.00
03469              -3.60    -8200.00
03470              -4.40    -8000.00
03471              -4.40    -7600.00
03472              -2.80    -7200.00
03473              -3.60    -6800.00
03474              -4.00    -6400.00
03475              -2.40    -6200.00
03476              -2.40    -5800.00
03477              -3.20    -5600.00
03478              -3.60    -5000.00
03479              -1.20    -4600.00
03480              -3.20    -4400.00
03481              -2.80    -4000.00
03482              -0.80    -3600.00
03483              -1.60    -3200.00
03484              -2.40    -2800.00
03485              -1.20    -2600.00
03486              -1.20    -2200.00
03487              -2.00    -2000.00
03488              -1.20    -1600.00
03489              -1.20    -1200.00
03490              -0.80     -800.00
03491               0.40     -400.00
03492              -0.80        0.00
03493               0.40      400.00
03494               2.00      600.00
03495               2.00     1000.00
03496              -2.00     1200.00
03497               1.20     1800.00
03498               2.00     2000.00
03499               0.80     2200.00
03500               0.40     2400.00
03501               8.40     3000.00
03502              25.20     3800.00
03503              -2.80     4200.00
03504             -46.80     4600.00
03505               6.00     4800.00
03506              36.80     5000.00
03507             -31.60     5200.00
03508             -33.20     5400.00
03509              50.00     6200.00
03510              -2.00     6000.00
03511             -50.00     6800.00
03512              50.00     7000.00
03513              13.60     7000.00
03514             -50.00     8000.00
03515              16.80     8000.00
03516              37.20     8400.00
03517              -7.60     9000.00
03518             -37.60     8800.00
03519              45.60     9400.00
03520              20.00     9600.00
03521             -50.00    10000.00
03522              20.00    10200.00
03523              38.40    10600.00
03524             -22.00    11000.00
03525             -12.00    11200.00
03526              40.80    11600.00
03527              -0.80    11800.00
03528             -23.20    12200.00
03529              23.20    12400.00
03530              18.00    12800.00
03531             -12.00    13200.00
03532               1.20    13400.00
03533              28.40    13400.00
03534              -1.20    13800.00
03535              -8.80    14000.00
03536              21.20    14200.00
03537              12.00    14600.00
03538              -7.60    14800.00
03539              12.40    15200.00
03540              22.80    15200.00
03541              -2.80    15600.00
03542               5.20    15800.00
03543              20.40    16000.00
03544               6.80    16200.00
03545               2.40    16400.00
03546              17.20    16600.00
03547              16.40    16800.00
03548               4.00    17000.00
03549              12.40    17200.00
03550              19.60    17400.00
03551               8.40    17400.00
03552              10.40    17600.00
03553              22.00    17800.00
03554              15.20    18000.00
03555              10.80    18000.00
03556              20.40    18200.00
03557              20.40    18400.00
03558              13.20    18600.00
03559              19.20    18800.00
03560              25.60    18800.00
03561              18.00    18800.00
03562              20.00    19000.00
03563              28.00    19000.00
03564              23.20    19200.00
03565              22.40    19200.00
03566              29.20    19200.00
03567              30.80    19200.00
03568              27.20    19400.00
03569              30.80    19600.00
03570              34.80    19600.00
03571              32.40    19600.00
03572              32.40    19600.00
03573              37.20    19600.00
03574              36.00    19600.00
03575              34.00    19600.00
03576              37.20    19600.00
03577              38.00    19600.00
03578              34.40    19600.00
03579              34.40    19600.00
03580              34.80    19600.00
03581              31.20    19600.00
03582              29.20    19600.00
03583              29.60    19600.00
03584              28.00    19200.00
03585              24.80    19200.00
03586              24.80    19200.00
03587              24.40    19200.00
03588              22.00    19000.00
03589              21.60    19000.00
03590              21.20    19000.00
03591              20.00    18800.00
03592              19.60    18800.00
03593              18.80    18400.00
03594              18.40    18400.00
03595              17.20    18200.00
03596              16.80    18200.00
03597              16.40    18000.00
03598              14.80    17600.00
03599              14.80    17800.00
03600              15.20    17400.00
03601              13.60    17400.00
03602              13.60    17200.00
03603              13.20    17000.00
03604              12.40    16800.00
03605              12.00    16600.00
03606              12.00    16400.00
03607              10.40    16000.00
03608              10.80    16000.00
03609              10.40    15800.00
03610               9.20    15600.00
03611               9.20    15400.00
03612               9.20    15000.00
03613               8.40    14800.00
03614               8.40    14600.00
03615               7.60    14400.00
03616               7.60    14000.00
03617               7.60    13800.00
03618               6.80    13600.00
03619               7.20    13400.00
03620               6.80    13000.00
03621               5.60    12800.00
03622               6.00    12400.00
03623               5.60    12000.00
03624               4.80    12000.00
03625               5.20    11600.00
03626               4.80    11200.00
03627               4.40    11000.00
03628               4.40    10800.00
03629               4.00    10400.00
03630               4.40    10200.00
03631               4.40     9600.00
03632               3.60     9200.00
03633               4.00     9200.00
03634               4.00     8800.00
03635               2.80     8400.00
03636               2.80     8200.00
03637               3.60     7800.00
03638               2.80     7600.00
03639               2.00     7200.00
03640               2.40     6800.00
03641               3.60     6400.00
03642               0.80     6200.00
03643               2.00     5800.00
03644               3.60     5400.00
03645               0.80     5000.00
03646               1.60     4600.00
03647               2.00     4200.00
03648               1.20     3800.00
03649               0.80     3600.00
03650               1.20     3200.00
03651               1.60     3000.00
03652              -0.40     2600.00
03653               0.40     2200.00
03654               0.40     1800.00
03655               0.40     1400.00
03656              -0.40     1000.00
03657              -2.40      600.00
03658               0.80      400.00
03659               1.20        0.00
03660              -1.20     -400.00
03661               1.20     -600.00
03662               3.60    -1000.00
03663              -4.00    -1400.00
03664              -3.60    -1800.00
03665               2.40    -2000.00
03666              -0.40    -2200.00
03667              -0.80    -2600.00
03668              24.40    -3200.00
03669              16.40    -4000.00
03670             -50.00    -4400.00
03671             -12.40    -4600.00
03672              48.40    -4800.00
03673             -30.00    -5000.00
03674             -39.60    -4800.00
03675              50.00    -6000.00
03676             -50.00    -5600.00
03677             -38.80    -6400.00
03678              50.00    -6800.00
03679             -39.60    -6800.00
03680             -17.20    -7800.00
03681              -4.40    -7600.00
03682              18.80    -8000.00
03683               6.80    -8600.00
03684             -50.00    -8400.00
03685              48.80    -9400.00
03686               2.40    -9200.00
03687             -49.20    -9800.00
03688              12.00   -10000.00
03689              19.60   -10200.00
03690             -22.80   -10800.00
03691             -26.80   -10800.00
03692              39.20   -11400.00
03693             -18.00   -11600.00
03694             -31.20   -12000.00
03695              13.20   -12200.00
03696               4.00   -12600.00
03697             -22.00   -12800.00
03698             -12.40   -13000.00
03699              19.20   -13200.00
03700             -17.20   -13400.00
03701             -20.40   -14000.00
03702               4.00   -14000.00
03703              -1.20   -14400.00
03704             -25.20   -14600.00
03705              -4.40   -14800.00
03706               7.20   -15200.00
03707             -20.40   -15200.00
03708             -13.20   -15600.00
03709              -2.00   -15800.00
03710             -10.00   -16000.00
03711             -20.00   -16400.00
03712              -6.00   -16400.00
03713              -4.40   -16800.00
03714             -19.60   -16800.00
03715             -13.60   -17000.00
03716              -4.80   -17200.00
03717             -18.40   -17600.00
03718             -19.60   -17600.00
03719              -8.00   -17600.00
03720             -14.80   -17800.00
03721             -21.20   -18000.00
03722             -15.20   -18000.00
03723             -13.20   -18400.00
03724             -23.20   -18400.00
03725             -20.40   -18400.00
03726             -15.20   -18800.00
03727             -24.40   -18800.00
03728             -22.80   -18800.00
03729             -19.60   -19000.00
03730             -24.40   -19200.00
03731             -28.00   -19200.00
03732             -25.20   -19200.00
03733             -26.00   -19400.00
03734             -31.20   -19400.00
03735             -30.80   -19400.00
03736             -30.00   -19400.00
03737             -34.00   -19400.00
03738             -34.40   -19600.00
03739             -33.20   -19600.00
03740             -35.60   -19600.00
03741             -37.20   -19600.00
03742             -36.00   -19600.00
03743             -35.20   -19600.00
03744             -38.40   -19400.00
03745             -37.60   -19600.00
03746             -34.00   -19600.00
03747             -34.40   -19600.00
03748             -32.00   -19600.00
03749             -29.60   -19400.00
03750             -29.20   -19400.00
03751             -28.00   -19400.00
03752             -25.60   -19200.00
03753             -24.40   -19200.00
03754             -25.20   -19200.00
03755             -23.20   -19200.00
03756             -21.20   -19200.00
03757             -22.00   -18800.00
03758             -22.00   -18600.00
03759             -18.80   -18600.00
03760             -18.40   -18400.00
03761             -19.20   -18400.00
03762             -18.00   -18200.00
03763             -16.80   -18000.00
03764             -17.20   -18000.00
03765             -17.20   -17800.00
03766             -13.60   -17600.00
03767             -14.80   -17400.00
03768             -16.80   -17200.00
03769             -14.00   -17000.00
03770             -10.80   -17000.00
03771             -13.60   -16800.00
03772             -14.00   -16400.00
03773             -10.40   -16400.00
03774             -10.80   -16200.00
03775             -12.40   -16000.00
03776             -10.80   -15600.00
03777              -9.20   -15600.00
03778              -9.60   -15200.00
03779             -10.40   -15200.00
03780              -8.80   -14800.00
03781              -8.80   -14600.00
03782              -8.80   -14400.00
03783              -8.40   -14000.00
03784              -7.20   -13800.00
03785              -7.20   -13600.00
03786              -8.00   -13200.00
03787              -7.60   -13000.00
03788              -6.80   -12800.00
03789              -6.40   -12600.00
03790              -6.80   -12200.00
03791              -6.80   -11800.00
03792              -5.60   -11400.00
03793              -5.60   -11400.00
03794              -6.00   -10800.00
03795              -5.60   -10600.00
03796              -4.40   -10400.00
03797              -4.80   -10000.00
03798              -5.60    -9800.00
03799              -4.40    -9400.00
03800              -4.00    -9000.00
03801              -5.20    -8800.00
03802              -5.20    -8400.00
03803              -3.60    -8200.00
03804              -4.00    -7800.00
03805              -4.40    -7400.00
03806              -2.40    -7000.00
03807              -2.40    -6800.00
03808              -3.60    -6400.00
03809              -3.60    -6000.00
03810              -2.00    -5800.00
03811              -2.80    -5200.00
03812              -3.20    -4800.00
03813              -2.00    -4400.00
03814              -2.40    -4200.00
03815              -2.40    -4000.00
03816              -0.80    -3600.00
03817              -2.00    -3200.00
03818              -1.20    -2800.00
03819              -1.20    -2400.00
03820              -0.80    -2000.00
03821              -1.20    -1800.00
03822              -1.20    -1200.00
03823              -1.20    -1000.00
03824              -0.40     -400.00
03825              -0.40     -200.00
03826               0.00      200.00
03827               0.40      600.00
03828               4.00      800.00
03829               0.00     1200.00
03830              -2.00     1400.00
03831               2.40     1800.00
03832               2.40     2000.00
03833              -0.80     2400.00
03834               3.20     2600.00
03835              15.60     3200.00
03836              24.40     4000.00
03837             -30.00     4400.00
03838             -35.60     4400.00
03839              29.20     4800.00
03840              18.80     5200.00
03841             -50.00     5200.00
03842               9.20     6000.00
03843              50.00     6200.00
03844             -50.00     6400.00
03845             -16.40     7000.00
03846              50.00     7000.00
03847             -39.60     7600.00
03848             -30.00     8000.00
03849              33.60     8000.00
03850              26.80     8600.00
03851             -30.00     8800.00
03852             -12.00     9200.00
03853              50.00     9400.00
03854             -20.40     9600.00
03855             -32.40    10000.00
03856              42.00    10400.00
03857              13.60    10800.00
03858             -31.20    11000.00
03859              13.20    11200.00
03860              37.60    11800.00
03861             -22.80    12000.00
03862              -6.00    12200.00
03863              28.40    12400.00
03864               5.20    12800.00
03865             -13.20    13000.00
03866              16.40    13400.00
03867              23.20    13600.00
03868             -12.40    14000.00
03869               4.00    14000.00
03870              22.80    14400.00
03871               2.00    14800.00
03872              -4.00    15000.00
03873              21.60    15200.00
03874              14.00    15400.00
03875              -5.20    15600.00
03876              13.60    15800.00
03877              17.20    16000.00
03878               2.40    16400.00
03879               7.20    16400.00
03880              20.40    16800.00
03881              11.20    16800.00
03882               5.60    17200.00
03883              17.20    17200.00
03884              16.40    17400.00
03885               6.40    17600.00
03886              14.80    17600.00
03887              21.20    18000.00
03888              11.60    18000.00
03889              14.00    18000.00
03890              22.00    18400.00
03891              18.00    18600.00
03892              13.60    18600.00
03893              22.80    18800.00
03894              23.20    18800.00
03895              17.20    19000.00
03896              24.40    19000.00
03897              26.40    19000.00
03898              22.40    19200.00
03899              24.80    19200.00
03900              29.60    19400.00
03901              29.60    19200.00
03902              28.00    19400.00
03903              32.40    19400.00
03904              34.00    19600.00
03905              31.60    19400.00
03906              34.00    19600.00
03907              36.40    19600.00
03908              35.60    19600.00
03909              34.80    19600.00
03910              38.00    19600.00
03911              37.20    19600.00
03912              34.00    19600.00
03913              34.40    19400.00
03914              33.20    19600.00
03915              29.60    19600.00
03916              29.20    19600.00
03917              28.40    19400.00
03918              26.40    19200.00
03919              24.80    19200.00
03920              24.40    19200.00
03921              23.20    19000.00
03922              21.60    19000.00
03923              21.60    19000.00
03924              20.40    18800.00
03925              20.00    18800.00
03926              19.60    18800.00
03927              18.40    18400.00
03928              18.40    18400.00
03929              17.20    18200.00
03930              16.40    18000.00
03931              16.00    18000.00
03932              14.80    17800.00
03933              14.00    17600.00
03934              14.80    17400.00
03935              13.20    17400.00
03936              12.40    17200.00
03937              13.60    16800.00
03938              11.60    16800.00
03939              11.60    16600.00
03940              12.40    16400.00
03941              10.40    16200.00
03942              10.40    16000.00
03943              11.20    15800.00
03944               8.40    15400.00
03945               9.20    15200.00
03946              10.40    15000.00
03947               7.20    14800.00
03948               7.60    14400.00
03949               9.20    14200.00
03950               6.80    14000.00
03951               7.20    13800.00
03952               7.20    13600.00
03953               6.00    13200.00
03954               6.80    13000.00
03955               6.80    12800.00
03956               5.60    12400.00
03957               5.60    12200.00
03958               5.20    11800.00
03959               5.20    11600.00
03960               5.20    11200.00
03961               4.40    10800.00
03962               4.00    10400.00
03963               4.40    10200.00
03964               4.00    10000.00
03965               3.60     9600.00
03966               4.00     9400.00
03967               3.60     9000.00
03968               2.80     8800.00
03969               4.00     8400.00
03970               4.00     8000.00
03971               2.40     7600.00
03972               2.40     7400.00
03973               2.80     7000.00
03974               2.40     6800.00
03975               2.00     6200.00
03976               2.00     6000.00
03977               1.20     5600.00
03978               1.20     5200.00
03979               1.60     4800.00
03980               1.20     4400.00
03981               1.20     4200.00
03982               1.20     3600.00
03983               0.80     3600.00
03984               0.80     3200.00
03985               0.80     2800.00
03986               0.00     2200.00
03987              -0.40     2000.00
03988               0.40     1600.00
03989              -0.40     1400.00
03990              -1.20      800.00
03991               0.80      400.00
03992               0.40      200.00
03993              -0.40     -200.00
03994               0.40     -400.00
03995               3.20    -1000.00
03996              -1.20    -1200.00
03997              -2.40    -1600.00
03998               0.40    -1800.00
03999               0.80    -2000.00
04000              -2.40    -2400.00
04001               6.80    -2800.00
04002              36.00    -3800.00
04003             -20.40    -4200.00
04004             -50.00    -4400.00
04005              21.60    -4800.00
04006              30.80    -5000.00
04007             -50.00    -4800.00
04008              24.40    -5200.00
04009              50.00    -6000.00
04010             -50.00    -5800.00
04011              31.20    -6800.00
04012              38.40    -6800.00
04013             -50.00    -7200.00
04014               2.40    -8000.00
04015              -5.20    -7600.00
04016              32.80    -8400.00
04017             -34.80    -8400.00
04018             -23.60    -8800.00
04019              50.00    -9400.00
04020             -38.00    -9200.00
04021             -26.00   -10000.00
04022              22.80   -10000.00
04023               8.80   -10400.00
04024             -39.60   -10800.00
04025               2.40   -10800.00
04026              32.40   -11600.00
04027             -40.00   -12000.00
04028             -10.80   -12200.00
04029              13.60   -12400.00
04030              -5.60   -12600.00
04031             -26.40   -12800.00
04032               5.20   -13200.00
04033              10.80   -13600.00
04034             -26.80   -13600.00
04035              -8.80   -14000.00
04036               6.00   -14400.00
04037             -12.00   -14600.00
04038             -23.20   -14800.00
04039               7.20   -15000.00
04040              -5.60   -15200.00
04041             -21.60   -15600.00
04042              -6.00   -15600.00
04043              -4.00   -16000.00
04044             -15.60   -16200.00
04045             -15.60   -16400.00
04046              -1.20   -16600.00
04047             -12.00   -16800.00
04048             -19.60   -16800.00
04049              -8.40   -17000.00
04050             -10.00   -17200.00
04051             -22.80   -17400.00
04052             -12.40   -17600.00
04053             -10.00   -17600.00
04054             -18.40   -17800.00
04055             -18.80   -18000.00
04056             -13.60   -18400.00
04057             -18.00   -18400.00
04058             -24.00   -18600.00
04059             -16.00   -18600.00
04060             -18.80   -18800.00
04061             -25.20   -18800.00
04062             -20.00   -19000.00
04063             -21.20   -19000.00
04064             -26.80   -19200.00
04065             -28.00   -19200.00
04066             -24.80   -19400.00
04067             -27.60   -19200.00
04068             -31.60   -19400.00
04069             -30.00   -19400.00
04070             -31.20   -19600.00
04071             -34.80   -19400.00
04072             -34.80   -19600.00
04073             -34.00   -19600.00
04074             -36.00   -19600.00
04075             -37.60   -19600.00
04076             -34.80   -19600.00
04077             -35.60   -19600.00
04078             -39.20   -19600.00
04079             -36.00   -19600.00
04080             -32.80   -19600.00
04081             -33.60   -19400.00
04082             -32.40   -19600.00
04083             -29.20   -19400.00
04084             -28.00   -19400.00
04085             -28.00   -19400.00
04086             -25.20   -19200.00
04087             -24.40   -19200.00
04088             -24.80   -19200.00
04089             -22.00   -19200.00
04090             -21.60   -18800.00
04091             -21.20   -18800.00
04092             -20.80   -18800.00
04093             -19.60   -18600.00
04094             -18.40   -18600.00
04095             -18.40   -18400.00
04096             -18.00   -18200.00
04097             -16.80   -18000.00
04098             -16.80   -17800.00
04099             -15.20   -17800.00
04100             -15.20   -17600.00
04101             -14.80   -17400.00
04102             -14.40   -17200.00
04103             -13.60   -17200.00
04104             -12.40   -17000.00
04105             -13.20   -16600.00
04106             -12.40   -16600.00
04107             -12.00   -16200.00
04108             -11.60   -16000.00
04109             -10.80   -16000.00
04110             -11.20   -15600.00
04111             -10.40   -15400.00
04112              -9.20   -15200.00
04113              -9.60   -14800.00
04114              -8.80   -14800.00
04115              -8.80   -14600.00
04116              -8.80   -14200.00
04117              -8.00   -14000.00
04118              -8.40   -13800.00
04119              -8.00   -13600.00
04120              -7.60   -13200.00
04121              -7.20   -13000.00
04122              -6.80   -12600.00
04123              -6.40   -12400.00
04124              -6.00   -12000.00
04125              -6.80   -11600.00
04126              -5.20   -11400.00
04127              -5.20   -11200.00
04128              -6.00   -10800.00
04129              -5.20   -10600.00
04130              -4.40   -10000.00
04131              -5.60    -9800.00
04132              -5.20    -9600.00
04133              -4.00    -9200.00
04134              -4.40    -9000.00
04135              -5.20    -8600.00
04136              -3.20    -8200.00
04137              -3.60    -8000.00
04138              -4.40    -7600.00
04139              -2.40    -7200.00
04140              -2.40    -6800.00
04141              -3.60    -6400.00
04142              -2.80    -6200.00
04143              -2.40    -5800.00
04144              -2.00    -5600.00
04145              -3.60    -5200.00
04146              -2.00    -5000.00
04147              -2.40    -4400.00
04148              -2.80    -4200.00
04149              -1.20    -3600.00
04150              -1.20    -3400.00
04151              -2.40    -3000.00
04152              -1.20    -2600.00
04153              -0.80    -2400.00
04154              -1.20    -2000.00
04155              -0.80    -1600.00
04156              -0.80    -1000.00
04157              -0.80     -800.00
04158              -0.40     -400.00
04159               0.40     -200.00
04160               0.00      400.00
04161               0.80      600.00
04162               4.00      800.00
04163              -1.20     1200.00
04164              -0.80     1600.00
04165               2.40     1800.00
04166               2.00     2200.00
04167              -0.80     2400.00
04168               6.40     2800.00
04169              22.00     3600.00
04170              11.60     4000.00
04171             -44.40     4400.00
04172             -11.60     4800.00
04173              37.60     5000.00
04174             -12.40     5200.00
04175             -46.40     5400.00
04176              50.00     6200.00
04177              39.20     6000.00
04178             -50.00     6600.00
04179              46.80     7000.00
04180              46.80     6800.00
04181             -50.00     7600.00
04182               0.40     7800.00
04183              38.00     8200.00
04184               7.20     8800.00
04185             -42.00     8800.00
04186              26.40     9400.00
04187              42.00     9400.00
04188             -47.20    10000.00
04189               0.40    10200.00
04190              45.20    10400.00
04191             -10.40    10800.00
04192             -24.40    11200.00
04193              34.00    11600.00
04194              16.80    11800.00
04195             -28.00    12000.00
04196              13.20    12400.00
04197              24.40    12600.00
04198              -7.20    13000.00
04199              -6.00    13200.00
04200              26.80    13400.00
04201               9.20    13600.00
04202             -14.00    14000.00
04203              18.00    14200.00
04204              18.40    14600.00
04205             -12.00    14800.00
04206              14.80    15000.00
04207              12.00    15400.00
04208               8.40    15400.00
04209               1.20    15800.00
04210              15.60    15800.00
04211              27.60    16200.00
04212              -9.60    16400.00
04213              14.80    16400.00
04214              17.20    16800.00
04215               3.60    16800.00
04216               5.60    17200.00
04217              21.20    17200.00
04218              15.60    17600.00
04219              10.40    17600.00
04220              20.40    17800.00
04221              18.80    18000.00
04222              12.00    18000.00
04223              10.40    18200.00
04224              22.00    18200.00
04225              14.00    18400.00
04226              15.60    18800.00
04227              30.00    18800.00
04228              21.20    18800.00
04229              17.20    19000.00
04230              30.00    19000.00
04231              21.20    19200.00
04232              19.20    19000.00
04233              29.60    19200.00
04234              29.20    19200.00
04235              29.20    19400.00
04236              29.60    19600.00
04237              36.40    19600.00
04238              33.60    19400.00
04239              29.20    19600.00
04240              35.60    19600.00
04241              37.20    19600.00
04242              32.00    19600.00
04243              35.60    19600.00
04244              38.80    19600.00
04245              35.60    19600.00
04246              34.80    19600.00
04247              34.80    19600.00
04248              32.00    19600.00
04249              29.20    19400.00
04250              28.40    19400.00
04251              26.40    19600.00
04252              26.40    19200.00
04253              24.80    19200.00
04254              23.20    19200.00
04255              22.40    19000.00
04256              22.80    19000.00
04257              21.60    19000.00
04258              19.60    18800.00
04259              20.00    18600.00
04260              18.40    18600.00
04261              17.60    18400.00
04262              18.00    18200.00
04263              16.80    18200.00
04264              16.40    18000.00
04265              16.40    17800.00
04266              15.60    17600.00
04267              14.80    17600.00
04268              13.60    17400.00
04269              12.80    17200.00
04270              12.40    17200.00
04271              12.80    16800.00
04272              12.00    16600.00
04273              11.60    16400.00
04274              11.60    16200.00
04275              11.60    16000.00
04276              10.00    15800.00
04277               9.60    15600.00
04278               8.80    15200.00
04279               9.20    15200.00
04280               8.40    15000.00
04281               8.40    14800.00
04282               8.00    14400.00
04283               7.20    14200.00
04284               7.60    14000.00
04285               7.20    13600.00
04286               6.80    13400.00
04287               7.20    13200.00
04288               6.80    12800.00
04289               5.60    12600.00
04290               5.60    12400.00
04291               5.60    12200.00
04292               4.80    11600.00
04293               5.20    11400.00
04294               5.20    11000.00
04295               4.40    10800.00
04296               4.00    10400.00
04297               4.80    10200.00
04298               4.00     9800.00
04299               4.00     9400.00
04300               3.60     9200.00
04301               3.60     8800.00
04302               3.60     8600.00
04303               3.20     8200.00
04304               3.60     8000.00
04305               2.80     7600.00
04306               2.40     7200.00
04307               2.00     6800.00
04308               2.00     6400.00
04309               2.00     6200.00
04310               2.00     5800.00
04311               2.00     5400.00
04312               2.00     5000.00
04313               1.20     4600.00
04314               0.80     4400.00
04315               1.20     4000.00
04316               0.80     3600.00
04317               0.40     3200.00
04318               0.80     2800.00
04319               0.40     2400.00
04320               0.40     2000.00
04321               0.40     2000.00
04322               0.00     1600.00
04323               0.00     1000.00
04324              -0.40      600.00
04325               0.40      400.00
04326              -0.40        0.00
04327               0.40     -400.00
04328               0.80     -800.00
04329               2.80    -1000.00
04330              -2.40    -1200.00
04331              -2.00    -1600.00
04332               1.20    -2000.00
04333              -0.80    -2400.00
04334              -1.20    -2400.00
04335              16.00    -3000.00
04336              29.60    -4000.00
04337             -49.20    -4400.00
04338             -33.20    -4600.00
04339              42.40    -4800.00
04340              -6.00    -5000.00
04341             -50.00    -4600.00
04342              50.00    -5800.00
04343              -4.40    -5800.00
04344             -50.00    -6000.00
04345              50.00    -7000.00
04346             -16.40    -6800.00
04347             -35.20    -7400.00
04348               1.20    -8000.00
04349               7.60    -8000.00
04350              24.80    -8400.00
04351             -50.00    -8400.00
04352              26.00    -9200.00
04353              30.40    -9200.00
04354             -50.00    -9600.00
04355               0.80   -10000.00
04356              23.60   -10000.00
04357              -9.60   -10600.00
04358             -38.00   -10800.00
04359              30.80   -11200.00
04360               2.40   -11600.00
04361             -40.80   -12000.00
04362               7.20   -12400.00
04363               9.20   -12400.00
04364             -17.60   -12800.00
04365             -21.60   -13200.00
04366              18.00   -13200.00
04367              -7.20   -13400.00
04368             -26.00   -13800.00
04369               1.20   -14200.00
04370               3.60   -14400.00
04371             -22.00   -14600.00
04372             -12.00   -14800.00
04373               9.60   -15200.00
04374             -17.20   -15200.00
04375             -16.80   -15600.00
04376              -2.80   -15600.00
04377              -7.60   -16200.00
04378             -20.00   -16200.00
04379              -9.60   -16400.00
04380              -2.00   -16400.00
04381             -17.20   -16800.00
04382             -16.80   -17000.00
04383              -5.20   -17200.00
04384             -15.20   -17200.00
04385             -21.60   -17600.00
04386              -8.80   -17600.00
04387             -12.80   -17800.00
04388             -20.00   -18000.00
04389             -16.80   -18200.00
04390             -13.20   -18200.00
04391             -21.60   -18400.00
04392             -22.00   -18600.00
04393             -14.80   -18800.00
04394             -22.00   -18600.00
04395             -24.40   -19000.00
04396             -20.00   -18800.00
04397             -23.20   -19000.00
04398             -28.00   -19200.00
04399             -26.40   -19200.00
04400             -24.40   -19400.00
04401             -30.00   -19200.00
04402             -31.60   -19600.00
04403             -28.80   -19400.00
04404             -32.80   -19600.00
04405             -36.00   -19600.00
04406             -33.60   -19400.00
04407             -34.40   -19600.00
04408             -37.60   -19600.00
04409             -36.40   -19600.00
04410             -34.80   -19600.00
04411             -38.00   -19600.00
04412             -38.80   -19400.00
04413             -34.00   -19600.00
04414             -33.20   -19600.00
04415             -33.20   -19600.00
04416             -30.80   -19400.00
04417             -28.40   -19400.00
04418             -28.00   -19400.00
04419             -26.80   -19400.00
04420             -24.40   -19200.00
04421             -24.80   -19200.00
04422             -23.60   -19200.00
04423             -22.00   -19000.00
04424             -21.60   -19000.00
04425             -21.20   -18800.00
04426             -20.40   -18800.00
04427             -18.80   -18600.00
04428             -18.80   -18400.00
04429             -18.40   -18400.00
04430             -17.20   -18200.00
04431             -16.80   -18000.00
04432             -16.80   -17800.00
04433             -15.20   -17600.00
04434             -15.20   -17600.00
04435             -15.20   -17400.00
04436             -14.00   -17200.00
04437             -13.60   -17000.00
04438             -13.20   -16800.00
04439             -13.20   -16600.00
04440             -12.00   -16400.00
04441             -12.00   -16200.00
04442             -12.00   -16000.00
04443             -10.80   -15800.00
04444             -10.80   -15600.00
04445             -10.00   -15200.00
04446              -9.20   -15200.00
04447              -9.20   -15000.00
04448              -9.20   -14600.00
04449              -8.80   -14400.00
04450              -8.40   -14200.00
04451              -8.40   -13800.00
04452              -7.60   -13600.00
04453              -7.60   -13200.00
04454              -8.40   -13000.00
04455              -6.80   -12800.00
04456              -7.20   -12400.00
04457              -7.20   -12200.00
04458              -6.80   -12000.00
04459              -5.60   -11600.00
04460              -6.00   -11400.00
04461              -5.60   -11000.00
04462              -5.20   -10600.00
04463              -5.20   -10400.00
04464              -5.20    -9800.00
04465              -4.40    -9800.00
04466              -4.40    -9400.00
04467              -4.40    -9200.00
04468              -4.00    -8800.00
04469              -4.40    -8600.00
04470              -4.00    -8200.00
04471              -4.00    -7800.00
04472              -3.60    -7400.00
04473              -2.80    -7200.00
04474              -2.80    -6800.00
04475              -2.80    -6400.00
04476              -2.80    -6000.00
04477              -2.00    -5800.00
04478              -1.60    -5400.00
04479              -3.60    -5000.00
04480              -1.20    -4400.00
04481              -2.00    -4200.00
04482              -2.40    -4000.00
04483              -1.60    -3600.00
04484              -0.80    -3200.00
04485              -1.20    -2800.00
04486              -1.20    -2600.00
04487              -0.80    -2200.00
04488              -0.80    -1800.00
04489              -1.20    -1400.00
04490              -0.80    -1000.00
04491              -0.40     -800.00
04492               0.40     -200.00
04493              -0.80        0.00
04494               0.40      400.00
04495               4.00      800.00
04496               1.20     1000.00
04497              -2.80     1200.00
04498               2.00     1800.00
04499               2.80     2000.00
04500              -1.20     2200.00
04501               0.80     2600.00
04502              12.00     3200.00
04503              25.20     3800.00
04504             -14.00     4400.00
04505             -44.80     4600.00
04506              16.80     4800.00
04507              31.60     5200.00
04508             -43.20     5200.00
04509             -17.20     5600.00
04510              50.00     6400.00
04511             -32.80     6000.00
04512             -50.00     7000.00
04513              50.00     6800.00
04514             -12.40     7200.00
04515             -46.00     7800.00
04516              26.40     8000.00
04517              32.40     8400.00
04518             -18.40     8800.00
04519             -29.60     9000.00
04520              50.00     9400.00
04521               2.80     9400.00
04522             -46.00    10000.00
04523              30.80    10200.00
04524              29.20    10600.00
04525             -26.80    11000.00
04526              -2.00    11200.00
04527              41.60    11800.00
04528             -10.40    12000.00
04529             -17.20    12200.00
04530              26.00    12400.00
04531              13.60    12800.00
04532             -14.00    13200.00
04533               7.20    13400.00
04534              28.00    13600.00
04535              -6.80    14000.00
04536              -4.40    14200.00
04537              23.20    14400.00
04538               7.60    14800.00
04539              -6.80    14800.00
04540              17.20    15200.00
04541              20.00    15400.00
04542              -4.40    15600.00
04543               9.20    15800.00
04544              19.60    16000.00
04545               5.20    16200.00
04546               4.40    16400.00
04547              18.40    16600.00
04548              13.60    16800.00
04549               5.20    17200.00
04550              14.80    17200.00
04551              18.00    17400.00
04552               8.40    17600.00
04553              12.40    17600.00
04554              21.60    17800.00
04555              13.60    18000.00
04556              12.40    18200.00
04557              20.80    18200.00
04558              20.00    18400.00
04559              14.00    18400.00
04560              20.40    18800.00
04561              24.40    18800.00
04562              18.00    18800.00
04563              21.60    19200.00
04564              27.20    19000.00
04565              23.60    19200.00
04566              24.00    19200.00
04567              29.20    19200.00
04568              29.20    19200.00
04569              28.00    19400.00
04570              31.20    19600.00
04571              34.40    19600.00
04572              32.80    19400.00
04573              32.80    19600.00
04574              36.00    19600.00
04575              35.60    19600.00
04576              34.00    19600.00
04577              36.00    19600.00
04578              37.60    19600.00
04579              34.80    19600.00
04580              34.00    19600.00
04581              34.00    19600.00
04582              30.80    19600.00
04583              29.20    19400.00
04584              28.40    19400.00
04585              26.80    19400.00
04586              25.20    19200.00
04587              24.80    19200.00
04588              23.20    19000.00
04589              22.00    19000.00
04590              21.60    19000.00
04591              20.80    18800.00
04592              20.00    18800.00
04593              19.60    18800.00
04594              18.80    18600.00
04595              18.40    18400.00
04596              17.20    18400.00
04597              16.00    18000.00
04598              15.60    18000.00
04599              15.60    17800.00
04600              15.20    17600.00
04601              15.20    17600.00
04602              13.60    17400.00
04603              13.60    17200.00
04604              12.00    16800.00
04605              12.00    16800.00
04606              11.60    16600.00
04607              12.00    16400.00
04608              11.60    16200.00
04609              10.80    16000.00
04610              10.00    15800.00
04611               9.60    15600.00
04612               8.80    15200.00
04613               9.20    15000.00
04614               8.80    14800.00
04615               8.00    14600.00
04616               7.60    14400.00
04617               7.60    14000.00
04618               7.20    13800.00
04619               6.80    13600.00
04620               6.80    13400.00
04621               6.80    13000.00
04622               6.40    12800.00
04623               6.00    12600.00
04624               5.60    12200.00
04625               5.20    12000.00
04626               5.20    11600.00
04627               4.80    11200.00
04628               5.20    11000.00
04629               5.20    10800.00
04630               4.00    10400.00
04631               4.00    10000.00
04632               3.60     9600.00
04633               4.00     9400.00
04634               3.60     9000.00
04635               2.80     8600.00
04636               3.60     8400.00
04637               2.80     8000.00
04638               2.00     7800.00
04639               3.60     7600.00
04640               2.40     7200.00
04641               1.20     6800.00
04642               2.40     6400.00
04643               2.00     6200.00
04644               0.80     5800.00
04645               2.40     5400.00
04646               2.00     4800.00
04647               0.40     4400.00
04648               2.00     4200.00
04649               1.20     3800.00
04650               0.80     3600.00
04651               0.80     3200.00
04652               0.80     2800.00
04653               0.40     2400.00
04654               0.40     2000.00
04655               0.40     1600.00
04656              -0.40     1200.00
04657              -0.80     1000.00
04658               0.40      600.00
04659               0.40      400.00
04660              -0.40     -200.00
04661               0.40     -400.00
04662               2.40     -800.00
04663               1.20    -1000.00
04664              -2.80    -1600.00
04665              -1.20    -1800.00
04666               1.20    -2000.00
04667              -2.40    -2400.00
04668               3.60    -2600.00
04669              29.60    -3400.00
04670               0.80    -4200.00
04671             -50.00    -4400.00
04672               4.00    -4600.00
04673              44.00    -4800.00
04674             -45.20    -5000.00
04675             -14.80    -4800.00
04676              50.00    -6000.00
04677             -50.00    -5600.00
04678             -10.00    -6600.00
04679              50.00    -7000.00
04680             -50.00    -6800.00
04681              -7.20    -7800.00
04682              -5.60    -7600.00
04683              26.00    -8200.00
04684             -10.00    -8400.00
04685             -47.60    -8800.00
04686              50.00    -9600.00
04687             -15.60    -9200.00
04688             -41.60   -10000.00
04689              18.00   -10000.00
04690              16.40   -10400.00
04691             -30.40   -10800.00
04692             -15.60   -10800.00
04693              39.20   -11400.00
04694             -28.40   -11600.00
04695             -23.60   -12200.00
04696              14.80   -12400.00
04697               0.80   -12400.00
04698             -25.20   -12800.00
04699              -5.60   -13000.00
04700              17.20   -13400.00
04701             -22.40   -13600.00
04702             -16.80   -14000.00
04703               5.60   -14200.00
04704              -5.60   -14400.00
04705             -26.00   -14600.00
04706               2.00   -15000.00
04707               2.40   -15200.00
04708             -22.80   -15400.00
04709             -10.00   -15600.00
04710              -2.40   -16000.00
04711             -13.60   -16200.00
04712             -18.80   -16400.00
04713              -3.60   -16600.00
04714              -7.60   -16800.00
04715             -20.40   -16800.00
04716             -10.80   -17200.00
04717              -6.80   -17400.00
04718             -21.20   -17400.00
04719             -16.40   -17600.00
04720              -8.00   -17800.00
04721             -17.20   -18000.00
04722             -20.00   -18000.00
04723             -14.00   -18200.00
04724             -15.20   -18400.00
04725             -24.00   -18600.00
04726             -18.00   -18600.00
04727             -16.40   -18800.00
04728             -24.80   -18800.00
04729             -21.60   -19000.00
04730             -20.00   -19000.00
04731             -25.20   -19200.00
04732             -28.00   -19200.00
04733             -24.80   -19200.00
04734             -26.00   -19400.00
04735             -32.00   -19400.00
04736             -30.00   -19600.00
04737             -29.20   -19600.00
04738             -34.40   -19600.00
04739             -34.40   -19600.00
04740             -33.20   -19600.00
04741             -35.60   -19600.00
04742             -37.20   -19600.00
04743             -34.80   -19600.00
04744             -35.60   -19600.00
04745             -39.20   -19600.00
04746             -36.40   -19600.00
04747             -33.20   -19600.00
04748             -34.40   -19600.00
04749             -32.40   -19600.00
04750             -30.00   -19600.00
04751             -28.00   -19400.00
04752             -28.00   -19400.00
04753             -26.00   -19400.00
04754             -24.80   -19200.00
04755             -24.80   -19200.00
04756             -22.80   -19200.00
04757             -21.60   -19000.00
04758             -21.60   -18800.00
04759             -20.40   -18800.00
04760             -20.40   -18800.00
04761             -18.80   -18600.00
04762             -18.80   -18400.00
04763             -18.40   -18400.00
04764             -17.20   -18200.00
04765             -16.80   -17800.00
04766             -16.40   -17800.00
04767             -15.20   -17800.00
04768             -15.20   -17200.00
04769             -14.80   -17400.00
04770             -14.00   -17200.00
04771             -13.60   -17000.00
04772             -13.60   -16800.00
04773             -13.20   -16600.00
04774             -12.00   -16400.00
04775             -12.00   -16200.00
04776             -10.80   -16000.00
04777             -10.80   -15600.00
04778             -10.80   -15600.00
04779             -10.00   -15200.00
04780              -9.20   -15000.00
04781              -9.20   -14800.00
04782              -9.20   -14600.00
04783              -8.80   -14400.00
04784              -7.60   -14000.00
04785              -8.80   -13800.00
04786              -7.60   -13600.00
04787              -7.20   -13200.00
04788              -7.60   -12800.00
04789              -6.80   -12800.00
04790              -6.80   -12400.00
04791              -6.80   -12000.00
04792              -6.00   -11800.00
04793              -5.60   -11400.00
04794              -5.60   -11200.00
04795              -6.00   -11000.00
04796              -5.20   -10600.00
04797              -4.80   -10400.00
04798              -5.20   -10000.00
04799              -4.40    -9600.00
04800              -4.40    -9200.00
04801              -4.00    -9000.00
04802              -4.40    -8800.00
04803              -3.60    -8400.00
04804              -3.60    -8000.00
04805              -4.00    -7800.00
04806              -3.60    -7200.00
04807              -2.80    -7200.00
04808              -2.80    -6600.00
04809              -2.80    -6400.00
04810              -2.80    -5800.00
04811              -1.60    -5600.00
04812              -2.80    -5400.00
04813              -2.40    -4800.00
04814              -2.00    -4600.00
04815              -2.40    -4200.00
04816              -2.00    -3800.00
04817              -0.40    -3400.00
04818              -2.00    -3000.00
04819              -1.20    -2800.00
04820              -0.80    -2400.00
04821              -1.20    -2000.00
04822              -1.20    -1600.00
04823              -1.20    -1400.00
04824              -0.80     -800.00
04825              -0.40     -400.00
04826              -0.80     -200.00
04827               0.40      200.00
04828               0.40      400.00
04829               3.60      800.00
04830              -0.40     1000.00
04831              -2.00     1400.00
04832               2.00     1800.00
04833               2.40     2000.00
04834              -1.20     2200.00
04835               4.00     2800.00
04836              18.00     3600.00
04837              21.20     4000.00
04838             -37.60     4400.00
04839             -28.00     4800.00
04840              34.00     5000.00
04841               7.20     5400.00
04842             -50.00     5400.00
04843              29.60     6000.00
04844              50.00     6200.00
04845             -50.00     6400.00
04846              10.00     7000.00
04847              50.00     6800.00
04848             -50.00     7600.00
04849             -18.40     7800.00
04850              36.40     8000.00
04851              20.40     8600.00
04852             -37.60     8800.00
04853               2.80     9200.00
04854              50.00     9400.00
04855             -34.40     9800.00
04856             -20.00    10000.00
04857              46.00    10400.00
04858               3.60    10800.00
04859             -30.00    11000.00
04860              22.00    11400.00
04861              31.20    11800.00
04862             -26.40    12000.00
04863               2.00    12200.00
04864              28.00    12600.00
04865              -0.40    12800.00
04866             -11.60    13200.00
04867              21.20    13400.00
04868              18.40    13600.00
04869             -14.00    14000.00
04870               9.20    14200.00
04871              21.20    14600.00
04872              -2.00    14800.00
04873              -0.80    15000.00
04874              24.40    15200.00
04875              10.00    15600.00
04876              -3.60    15600.00
04877              16.80    16000.00
04878              15.20    16200.00
04879               2.00    16400.00
04880              10.00    16600.00
04881              20.40    16800.00
04882               8.40    16800.00
04883               7.20    17000.00
04884              18.80    17200.00
04885              14.40    17400.00
04886               6.80    17600.00
04887              18.00    17800.00
04888              20.00    18000.00
04889              10.40    18200.00
04890              16.00    18200.00
04891              21.60    18200.00
04892              16.40    18400.00
04893              14.80    18600.00
04894              23.60    18800.00
04895              21.60    18800.00
04896              17.60    19000.00
04897              25.20    19000.00
04898              26.00    19200.00
04899              22.00    19200.00
04900              26.00    19400.00
04901              30.00    19200.00
04902              28.00    19400.00
04903              28.00    19200.00
04904              33.20    19600.00
04905              33.60    19400.00
04906              31.20    19600.00
04907              34.40    19600.00
04908              36.40    19600.00
04909              34.40    19600.00
04910              34.80    19600.00
04911              37.60    19600.00
04912              36.80    19600.00
04913              34.00    19600.00
04914              34.40    19600.00
04915              32.80    19600.00
04916              29.20    19600.00
04917              29.20    19400.00
04918              28.40    19400.00
04919              26.00    19200.00
04920              24.80    19200.00
04921              24.80    19200.00
04922              23.20    19200.00
04923              21.60    19000.00
04924              21.60    18800.00
04925              20.40    18800.00
04926              19.60    18600.00
04927              19.20    18600.00
04928              18.80    18400.00
04929              18.00    18400.00
04930              16.80    18200.00
04931              16.80    18200.00
04932              15.60    18000.00
04933              15.20    17600.00
04934              14.80    17600.00
04935              14.00    17400.00
04936              13.20    17400.00
04937              14.00    17200.00
04938              12.40    16800.00
04939              12.00    16800.00
04940              11.60    16400.00
04941              12.00    16200.00
04942              10.80    16200.00
04943              10.40    16000.00
04944              10.00    15600.00
04945               9.20    15600.00
04946               9.20    15200.00
04947               8.80    15000.00
04948               8.00    14800.00
04949               7.60    14400.00
04950               8.40    14200.00
04951               7.60    14000.00
04952               6.00    13600.00
04953               7.20    13400.00
04954               7.60    13200.00
04955               6.00    13000.00
04956               5.60    12800.00
04957               6.40    12400.00
04958               5.20    12000.00
04959               5.20    11800.00
04960               4.40    11600.00
04961               4.40    11200.00
04962               5.20    11000.00
04963               3.60    10600.00
04964               4.00    10200.00
04965               4.40    10000.00
04966               4.00     9600.00
04967               3.20     9200.00
04968               3.60     8800.00
04969               3.60     8600.00
04970               2.80     8400.00
04971               2.40     7800.00
04972               2.40     7600.00
04973               2.40     7200.00
04974               2.80     7000.00
04975               2.00     6600.00
04976               1.20     6200.00
04977               2.40     6000.00
04978               1.60     5400.00
04979               1.20     5200.00
04980               1.20     4800.00
04981               1.20     4600.00
04982               0.80     4000.00
04983               1.20     3600.00
04984               0.80     3400.00
04985               0.40     3000.00
04986               0.80     2800.00
04987               2.00     2400.00
04988              -0.40     1800.00
04989              -0.40     1600.00
04990               1.20     1200.00
04991              -0.40      800.00
04992              -0.80      400.00
04993               0.80        0.00
04994               0.80     -400.00
04995              -0.40     -400.00
04996               3.60     -800.00
04997              -0.80    -1200.00
04998              -2.00    -1600.00
04999               0.40    -1800.00
05000               0.80    -2000.00
