Unit:(mV)
                     CH1         CH2
Frequency              ? 300.163 kHz
00001               1.20    -2600.00
00002              18.40    -2800.00
00003              24.80    -4000.00
00004             -48.40    -4200.00
00005             -22.80    -4400.00
00006              42.00    -4800.00
00007              -6.00    -5000.00
00008             -50.00    -4600.00
00009              50.00    -5400.00
00010              26.40    -6000.00
00011             -50.00    -5800.00
00012              50.00    -6800.00
00013              13.60    -6600.00
00014             -50.00    -7200.00
00015               9.20    -7600.00
00016               8.40    -7400.00
00017              30.80    -8400.00
00018             -50.00    -8200.00
00019               7.60    -8800.00
00020              50.00    -9200.00
00021             -50.00    -9200.00
00022             -10.80    -9800.00
00023              36.40    -9800.00
00024               0.80   -10400.00
00025             -42.80   -10600.00
00026              28.40   -10800.00
00027              26.00   -11200.00
00028             -44.00   -11400.00
00029               7.20   -11800.00
00030              20.40   -12200.00
00031             -11.60   -12400.00
00032             -18.80   -12600.00
00033              21.20   -13000.00
00034               8.40   -13000.00
00035             -21.60   -13400.00
00036               3.60   -13600.00
00037              13.20   -13800.00
00038             -10.40   -14200.00
00039             -12.40   -14200.00
00040              19.60   -14600.00
00041              -2.00   -14600.00
00042             -13.20   -15000.00
00043               6.00   -15200.00
00044               6.00   -15400.00
00045             -10.80   -15600.00
00046              -3.60   -15800.00
00047              11.60   -16000.00
00048              -4.40   -16200.00
00049              -6.80   -16400.00
00050               7.60   -16600.00
00051               0.40   -16800.00
00052             -10.00   -17000.00
00053               3.60   -17000.00
00054               4.00   -17200.00
00055              -5.60   -17600.00
00056              -1.60   -17400.00
00057               5.20   -17600.00
00058              -2.00   -17800.00
00059              -6.00   -17800.00
00060               4.80   -18000.00
00061               0.40   -18000.00
00062              -4.80   -18200.00
00063               2.40   -18200.00
00064               2.00   -18400.00
00065              -2.80   -18400.00
00066              -2.40   -18600.00
00067               2.80   -18400.00
00068              -1.20   -18600.00
00069              -3.60   -18600.00
00070               1.20   -18600.00
00071               0.80   -18800.00
00072              -2.40   -18800.00
00073              -0.80   -18600.00
00074               2.00   -18800.00
00075              -0.80   -18800.00
00076              -2.00   -18800.00
00077               2.00   -18800.00
00078               0.40   -18800.00
00079              -2.40   -18800.00
00080               0.40   -18800.00
00081               0.80   -18800.00
00082              -1.60   -18600.00
00083              -1.60   -18800.00
00084               0.80   -18800.00
00085              -0.40   -18600.00
00086              -1.20   -18600.00
00087               0.80   -18400.00
00088               0.40   -18400.00
00089              -1.20   -18200.00
00090              -0.80   -18000.00
00091              -0.40   -18000.00
00092              -0.80   -18000.00
00093              -1.20   -17800.00
00094              -0.40   -17800.00
00095               0.40   -17600.00
00096              -1.20   -17400.00
00097              -1.20   -17200.00
00098               0.00   -17200.00
00099              -0.40   -17200.00
00100              -1.20   -17000.00
00101              -0.40   -16800.00
00102              -0.40   -16600.00
00103              -1.20   -16400.00
00104              -0.40   -16200.00
00105              -0.40   -16200.00
00106              -0.80   -15800.00
00107              -0.80   -15600.00
00108              -0.40   -15400.00
00109              -0.80   -15200.00
00110              -1.20   -15200.00
00111              -0.80   -14800.00
00112              -0.40   -14600.00
00113              -0.40   -14200.00
00114              -0.80   -14000.00
00115              -0.40   -13800.00
00116              -0.80   -13600.00
00117              -0.40   -13400.00
00118              -0.40   -13200.00
00119              -0.40   -12800.00
00120              -0.40   -12800.00
00121              -0.80   -12400.00
00122              -0.40   -12200.00
00123              -0.80   -12000.00
00124              -0.80   -11600.00
00125              -0.40   -11000.00
00126              -0.80   -11000.00
00127               0.00   -10600.00
00128              -0.40   -10400.00
00129              -0.80   -10000.00
00130               0.00    -9800.00
00131               0.00    -9600.00
00132              -0.40    -9200.00
00133              -0.80    -8800.00
00134              -0.40    -8600.00
00135              -0.40    -8200.00
00136              -0.40    -8000.00
00137              -0.40    -7600.00
00138              -0.40    -7200.00
00139              -0.80    -7000.00
00140               0.40    -6600.00
00141               0.00    -6400.00
00142              -0.40    -6000.00
00143              -0.80    -5600.00
00144               0.40    -5200.00
00145              -0.80    -5000.00
00146              -0.40    -4600.00
00147              -0.40    -4200.00
00148              -0.40    -4000.00
00149              -0.80    -3600.00
00150               0.40    -3200.00
00151              -0.80    -3000.00
00152              -0.40    -2600.00
00153              -0.40    -2400.00
00154              -0.40    -1800.00
00155              -0.80    -1600.00
00156              -0.40    -1000.00
00157              -0.80     -800.00
00158              -0.40     -400.00
00159               0.40     -200.00
00160              -0.40      200.00
00161               0.80      600.00
00162               3.60      600.00
00163              -2.40     1200.00
00164              -1.20     1400.00
00165               2.40     1800.00
00166               0.80     2000.00
00167              -2.40     2400.00
00168               4.00     2600.00
00169              13.20     3200.00
00170              21.20     3800.00
00171             -28.40     4200.00
00172             -33.20     4600.00
00173              24.40     4600.00
00174              15.60     5000.00
00175             -44.00     5200.00
00176              -8.00     5600.00
00177              50.00     6200.00
00178             -29.60     6000.00
00179             -50.00     6800.00
00180              50.00     7000.00
00181              -9.20     7200.00
00182             -49.20     7600.00
00183              26.40     7800.00
00184              22.80     8200.00
00185             -19.60     8800.00
00186             -26.00     8800.00
00187              42.80     9200.00
00188               2.80     9400.00
00189             -46.40    10000.00
00190              22.80    10000.00
00191              27.20    10400.00
00192             -29.60    10600.00
00193             -10.40    11000.00
00194              36.80    11200.00
00195             -10.80    11400.00
00196             -24.80    11800.00
00197              20.40    12200.00
00198               9.20    12600.00
00199             -20.00    12600.00
00200               0.80    13200.00
00201              21.20    13000.00
00202             -11.60    13400.00
00203             -11.60    13600.00
00204              16.00    14000.00
00205               0.80    14200.00
00206             -15.20    14400.00
00207               7.20    14800.00
00208              12.80    15000.00
00209             -13.20    15000.00
00210              -2.00    15200.00
00211              11.60    15600.00
00212              -5.60    15800.00
00213              -7.60    15800.00
00214               7.60    16000.00
00215               3.60    16400.00
00216              -7.20    16400.00
00217               2.00    16600.00
00218               6.00    16800.00
00219              -5.60    16800.00
00220              -3.20    16800.00
00221               6.00    17200.00
00222              -0.40    17200.00
00223              -4.40    17400.00
00224               3.60    17600.00
00225               3.20    17800.00
00226              -5.60    17800.00
00227              -0.80    18000.00
00228               4.40    18200.00
00229              -2.80    18200.00
00230              -2.00    18200.00
00231               3.60    18400.00
00232              -0.40    18400.00
00233              -2.40    18400.00
00234               0.80    18400.00
00235               0.80    18600.00
00236              -2.00    18800.00
00237              -0.80    18800.00
00238               2.00    18800.00
00239              -0.40    18600.00
00240              -2.00    18800.00
00241               0.40    18800.00
00242               1.20    18800.00
00243              -1.60    18800.00
00244              -0.40    18800.00
00245               2.00    18800.00
00246              -0.80    18800.00
00247              -0.40    18800.00
00248               2.00    18600.00
00249              -0.40    18600.00
00250              -0.80    18800.00
00251              -0.40    18400.00
00252               1.20    18600.00
00253              -0.80    18400.00
00254              -0.40    18400.00
00255               0.80    18200.00
00256               0.40    18200.00
00257              -1.20    18000.00
00258               0.40    18000.00
00259               0.40    18000.00
00260              -0.80    17600.00
00261               0.80    17600.00
00262               1.20    17600.00
00263              -0.40    17400.00
00264              -1.20    17200.00
00265               0.40    17200.00
00266               0.40    16800.00
00267              -0.80    16800.00
00268              -0.40    16800.00
00269               1.20    16400.00
00270              -0.80    16400.00
00271              -1.20    16200.00
00272               2.40    16000.00
00273              -0.80    15600.00
00274              -1.20    15600.00
00275               2.80    15200.00
00276              -1.20    15200.00
00277              -0.40    14800.00
00278               1.60    14600.00
00279              -1.20    14400.00
00280              -0.40    14200.00
00281               0.40    14000.00
00282              -0.40    13800.00
00283              -1.20    13600.00
00284               0.80    13200.00
00285              -0.40    13000.00
00286              -1.20    12800.00
00287               0.80    12600.00
00288              -1.20    12400.00
00289               0.40    12000.00
00290               0.40    11800.00
00291              -1.20    11400.00
00292               0.40    11000.00
00293              -1.20    10800.00
00294               0.40    10400.00
00295               0.40    10200.00
00296              -2.40    10000.00
00297               0.80     9600.00
00298               0.40     9400.00
00299              -2.40     8800.00
00300               0.80     8800.00
00301               0.40     8400.00
00302              -2.00     8000.00
00303               0.40     7800.00
00304               0.40     7600.00
00305              -2.00     7200.00
00306              -0.40     6800.00
00307               0.40     6600.00
00308              -1.20     6000.00
00309              -0.40     6000.00
00310               0.40     5600.00
00311              -0.80     5400.00
00312              -0.40     4800.00
00313               0.40     4400.00
00314              -0.40     4000.00
00315              -1.20     3800.00
00316               0.40     3400.00
00317              -0.40     3200.00
00318              -0.80     2800.00
00319               0.40     2400.00
00320              -0.40     2000.00
00321              -0.80     1600.00
00322              -0.40     1400.00
00323              -0.40      800.00
00324              -0.80      600.00
00325               0.40      400.00
00326               0.00     -200.00
00327              -0.40     -400.00
00328               2.00     -800.00
00329               2.40    -1200.00
00330              -2.40    -1200.00
00331              -0.80    -1600.00
00332               2.40    -2000.00
00333              -0.80    -2200.00
00334               0.40    -2400.00
00335              14.80    -2800.00
00336              31.60    -4000.00
00337             -39.60    -4200.00
00338             -36.00    -4400.00
00339              37.20    -4600.00
00340               6.80    -5000.00
00341             -50.00    -4600.00
00342              50.00    -5200.00
00343              50.00    -6000.00
00344             -50.00    -5600.00
00345              50.00    -6800.00
00346              38.80    -6800.00
00347             -50.00    -7000.00
00348               7.20    -7600.00
00349               4.40    -7400.00
00350              32.40    -8200.00
00351             -39.60    -8400.00
00352             -12.80    -8600.00
00353              50.00    -9200.00
00354             -42.40    -9200.00
00355             -23.20    -9800.00
00356              34.80    -9800.00
00357               9.60   -10400.00
00358             -42.80   -10600.00
00359              14.80   -10800.00
00360              37.20   -11200.00
00361             -42.00   -11400.00
00362              -2.40   -12000.00
00363              23.20   -12000.00
00364              -6.00   -12400.00
00365             -21.60   -12400.00
00366              15.20   -12800.00
00367              15.20   -13000.00
00368             -21.20   -13200.00
00369              -0.80   -13600.00
00370              14.00   -13800.00
00371              -6.00   -14200.00
00372             -16.80   -14200.00
00373              16.80   -14600.00
00374               4.00   -14600.00
00375             -14.80   -15000.00
00376               4.00   -15200.00
00377               7.60   -15400.00
00378              -8.80   -15600.00
00379              -6.80   -15800.00
00380              11.60   -16200.00
00381              -1.20   -16200.00
00382              -8.40   -16400.00
00383               6.40   -16400.00
00384               3.60   -16800.00
00385             -10.40   -16800.00
00386               1.20   -17000.00
00387               5.60   -17200.00
00388              -4.40   -17200.00
00389              -2.80   -17200.00
00390               4.80   -17600.00
00391               0.00   -17800.00
00392              -7.20   -17800.00
00393               3.60   -17800.00
00394               2.00   -18000.00
00395              -5.20   -18200.00
00396               1.60   -18200.00
00397               2.40   -18600.00
00398              -2.40   -18400.00
00399              -2.80   -18600.00
00400               2.00   -18400.00
00401               0.40   -18600.00
00402              -3.60   -18600.00
00403               0.40   -18600.00
00404               1.60   -18800.00
00405              -2.00   -18800.00
00406              -1.20   -18800.00
00407               1.20   -18800.00
00408              -0.40   -18800.00
00409              -2.40   -18800.00
00410               0.80   -18800.00
00411               0.80   -18800.00
00412              -2.40   -18800.00
00413              -0.80   -18800.00
00414               0.80   -18800.00
00415              -1.20   -18800.00
00416              -2.00   -18800.00
00417              -0.40   -18600.00
00418               0.40   -18600.00
00419              -1.20   -18600.00
00420              -0.40   -18400.00
00421               0.40   -18400.00
00422              -1.20   -18400.00
00423              -0.80   -18000.00
00424              -0.40   -18000.00
00425              -0.40   -18000.00
00426              -1.20   -17800.00
00427              -0.40   -17800.00
00428               0.40   -17400.00
00429              -1.60   -17400.00
00430              -1.20   -17400.00
00431               0.40   -17000.00
00432              -0.80   -17000.00
00433              -0.80   -16800.00
00434               0.00   -16800.00
00435              -0.80   -16600.00
00436              -1.20   -16400.00
00437              -0.80   -16200.00
00438               0.40   -16200.00
00439              -1.20   -15800.00
00440              -0.40   -15600.00
00441              -0.40   -15400.00
00442              -0.40   -15200.00
00443              -0.80   -15000.00
00444              -0.80   -14800.00
00445              -0.40   -14600.00
00446               0.00   -14600.00
00447              -0.80   -14400.00
00448              -0.40   -14000.00
00449              -0.80   -13600.00
00450              -0.40   -13600.00
00451              -0.40   -13200.00
00452              -0.40   -12800.00
00453              -0.40   -12600.00
00454              -0.80   -12400.00
00455              -0.40   -12200.00
00456              -0.40   -12000.00
00457              -0.80   -11600.00
00458              -0.40   -11200.00
00459              -0.40   -11000.00
00460              -0.40   -10800.00
00461              -0.40   -10400.00
00462              -0.40   -10000.00
00463              -0.80    -9800.00
00464              -0.40    -9600.00
00465               0.00    -9200.00
00466              -0.80    -9000.00
00467              -0.80    -8800.00
00468              -0.40    -8400.00
00469              -0.40    -8000.00
00470              -0.40    -7800.00
00471               0.40    -7200.00
00472              -0.80    -7000.00
00473               0.00    -6800.00
00474              -0.40    -6400.00
00475               0.00    -6000.00
00476              -0.80    -5800.00
00477               0.40    -5200.00
00478              -0.80    -4800.00
00479              -0.80    -4600.00
00480              -0.40    -4400.00
00481              -0.40    -4000.00
00482              -0.80    -3600.00
00483               0.00    -3200.00
00484              -0.80    -3000.00
00485              -0.80    -2600.00
00486               0.40    -2200.00
00487              -0.40    -1800.00
00488              -0.80    -1600.00
00489               0.00    -1200.00
00490              -1.20     -800.00
00491              -0.40     -400.00
00492               0.40     -200.00
00493              -0.40        0.00
00494               0.80      400.00
00495               4.00      800.00
00496              -1.20     1000.00
00497              -2.00     1400.00
00498               2.40     1800.00
00499               1.20     2000.00
00500              -2.00     2400.00
00501               2.80     2600.00
00502              11.20     3200.00
00503              22.80     3800.00
00504             -20.00     4000.00
00505             -39.20     4400.00
00506              17.20     4800.00
00507              23.60     5000.00
00508             -38.80     5200.00
00509             -20.80     5600.00
00510              50.00     6200.00
00511              -2.80     6000.00
00512             -50.00     6800.00
00513              50.00     7000.00
00514              13.20     7000.00
00515             -50.00     7800.00
00516              18.40     7800.00
00517              27.60     8200.00
00518             -12.40     8600.00
00519             -31.20     8600.00
00520              36.00     9200.00
00521              17.20     9200.00
00522             -49.20     9800.00
00523              12.00    10000.00
00524              35.60    10200.00
00525             -24.80    10800.00
00526             -20.00    10800.00
00527              35.20    11200.00
00528              -0.40    11400.00
00529             -30.80    11800.00
00530              16.80    12000.00
00531              13.20    12400.00
00532             -18.00    12600.00
00533              -4.00    13000.00
00534              21.20    13200.00
00535              -6.00    13200.00
00536             -14.00    13600.00
00537              12.40    13800.00
00538               5.20    14000.00
00539             -14.00    14400.00
00540               2.00    14600.00
00541              14.80    14800.00
00542              -8.80    15000.00
00543              -6.80    15200.00
00544              10.80    15400.00
00545              -1.20    15600.00
00546              -9.20    15800.00
00547               4.40    16000.00
00548               6.00    16200.00
00549              -7.20    16400.00
00550              -0.80    16600.00
00551               6.80    16800.00
00552              -4.00    16800.00
00553              -4.40    17200.00
00554               5.60    17200.00
00555               0.80    17400.00
00556              -4.80    17400.00
00557               2.40    17400.00
00558               3.60    17800.00
00559              -4.40    17800.00
00560              -2.40    18000.00
00561               4.40    18000.00
00562              -2.00    18200.00
00563              -2.80    18200.00
00564               3.60    18400.00
00565              -0.40    18400.00
00566              -2.40    18400.00
00567               1.20    18400.00
00568               1.20    18600.00
00569              -2.00    18800.00
00570              -0.40    18800.00
00571               2.00    18800.00
00572              -0.40    18800.00
00573              -1.20    18800.00
00574               0.00    18800.00
00575               0.80    18800.00
00576              -0.40    18800.00
00577              -0.80    18800.00
00578               1.20    19000.00
00579              -0.40    18800.00
00580              -0.80    18800.00
00581               0.80    18600.00
00582               0.40    18600.00
00583              -0.80    18800.00
00584               0.40    18600.00
00585               0.40    18600.00
00586               0.40    18400.00
00587              -0.80    18400.00
00588               0.00    18400.00
00589               0.80    18200.00
00590               0.80    18200.00
00591              -1.20    18000.00
00592              -5.20    18200.00
00593              11.60    17600.00
00594             -15.20    17600.00
00595               6.40    17400.00
00596               3.60    17600.00
00597              -4.40    17200.00
00598              12.40    17200.00
00599              -5.60    17000.00
00600              -0.40    16800.00
00601              -2.00    16800.00
00602               1.60    16400.00
00603              -7.60    16400.00
00604               0.80    16200.00
00605               4.00    16000.00
00606               0.40    15800.00
00607               3.60    15600.00
00608               0.80    15400.00
00609              -1.20    15200.00
00610              -2.80    14800.00
00611              -3.60    14800.00
00612              -2.40    14600.00
00613               0.80    14400.00
00614               3.60    14200.00
00615               0.80    13800.00
00616               0.40    13600.00
00617               2.80    13400.00
00618              -5.60    13000.00
00619              -1.20    12800.00
00620              -0.40    12600.00
00621              -0.80    12200.00
00622               0.80    12000.00
00623              -1.20    11800.00
00624               2.40    11400.00
00625              -0.40    11200.00
00626              -0.40    10800.00
00627              -1.20    10600.00
00628              -0.80    10400.00
00629              -3.60    10000.00
00630               1.60     9600.00
00631               0.40     9400.00
00632              -1.20     9200.00
00633               0.40     8800.00
00634              -1.20     8600.00
00635               0.00     8200.00
00636              -0.80     8000.00
00637              -0.40     7600.00
00638              -1.20     7400.00
00639               0.40     7000.00
00640              -1.20     6600.00
00641              -0.40     6200.00
00642               0.40     6000.00
00643              -0.80     5600.00
00644               0.80     5200.00
00645              -0.40     4800.00
00646              -0.80     4400.00
00647              -0.80     4000.00
00648               0.40     3800.00
00649              -0.80     3400.00
00650               0.40     3200.00
00651              -0.40     2800.00
00652              -0.40     2400.00
00653              -0.40     2000.00
00654               0.40     1800.00
00655              -0.80     1400.00
00656              -0.80     1000.00
00657              -0.40      600.00
00658              -0.80      400.00
00659               0.40        0.00
00660               0.40     -400.00
00661               2.00     -800.00
00662               2.80    -1000.00
00663              -2.40    -1200.00
00664              -1.20    -1600.00
00665               2.00    -1800.00
00666              -0.40    -2200.00
00667              -0.80    -2400.00
00668              10.80    -2800.00
00669              34.00    -3600.00
00670             -28.40    -4200.00
00671             -48.40    -4400.00
00672              29.60    -4600.00
00673              20.00    -5000.00
00674             -50.00    -4600.00
00675              26.00    -5000.00
00676              50.00    -6000.00
00677             -50.00    -5600.00
00678              21.60    -6600.00
00679              50.00    -6800.00
00680             -50.00    -7000.00
00681               0.40    -7600.00
00682               2.80    -7400.00
00683              30.80    -8200.00
00684             -24.40    -8200.00
00685             -31.20    -8600.00
00686              50.00    -9200.00
00687             -26.80    -9000.00
00688             -35.60    -9800.00
00689              31.20    -9800.00
00690              18.00   -10000.00
00691             -39.60   -10600.00
00692               0.80   -10800.00
00693              46.00   -11200.00
00694             -36.00   -11400.00
00695             -13.20   -11800.00
00696              25.20   -12000.00
00697              -2.00   -12200.00
00698             -22.00   -12400.00
00699               9.20   -12600.00
00700              20.40   -13000.00
00701             -20.00   -13200.00
00702              -5.20   -13600.00
00703              14.80   -13800.00
00704              -2.00   -14000.00
00705             -18.00   -14200.00
00706              13.20   -14400.00
00707               8.80   -14800.00
00708             -15.20   -15000.00
00709               1.60   -15200.00
00710               8.80   -15400.00
00711              -6.00   -15600.00
00712              -9.20   -15600.00
00713              10.40   -16000.00
00714               2.00   -16000.00
00715              -9.60   -16400.00
00716               4.00   -16400.00
00717               6.00   -16800.00
00718              -9.20   -16800.00
00719              -1.20   -17000.00
00720               7.20   -17200.00
00721              -3.20   -17200.00
00722              -4.00   -17400.00
00723               4.00   -17400.00
00724               2.00   -17800.00
00725              -7.20   -17800.00
00726               1.60   -17800.00
00727               4.00   -18000.00
00728              -5.20   -18000.00
00729              -0.40   -18200.00
00730               3.60   -18400.00
00731              -2.00   -18400.00
00732              -4.00   -18400.00
00733               2.00   -18400.00
00734               1.20   -18600.00
00735              -4.00   -18600.00
00736               0.40   -18600.00
00737               2.00   -18800.00
00738              -2.00   -18800.00
00739              -2.00   -18600.00
00740               0.80   -18800.00
00741               0.00   -18800.00
00742              -2.40   -18800.00
00743              -0.40   -18800.00
00744               2.00   -18800.00
00745              -2.80   -18600.00
00746              -1.20   -18800.00
00747               1.20   -18600.00
00748              -0.80   -18800.00
00749              -2.80   -18800.00
00750              -0.40   -18600.00
00751               0.80   -18600.00
00752              -2.00   -18600.00
00753              -0.80   -18600.00
00754               0.80   -18400.00
00755              -0.80   -18400.00
00756              -1.20   -18200.00
00757              -0.40   -18000.00
00758               0.00   -18000.00
00759              -1.60   -17800.00
00760              -1.20   -17800.00
00761               0.80   -17600.00
00762              -1.20   -17600.00
00763              -2.00   -17400.00
00764               0.40   -17000.00
00765              -0.80   -17200.00
00766              -1.20   -17000.00
00767               0.40   -16800.00
00768              -0.40   -16800.00
00769              -0.80   -16400.00
00770               0.00   -16200.00
00771              -0.40   -16200.00
00772              -1.20   -15800.00
00773              -0.40   -15600.00
00774              -0.40   -15600.00
00775              -0.80   -15400.00
00776               0.00   -15000.00
00777              -0.80   -14800.00
00778              -0.40   -14400.00
00779              -0.40   -14400.00
00780              -0.40   -14200.00
00781              -0.40   -14000.00
00782              -0.80   -13800.00
00783              -0.40   -13400.00
00784              -0.40   -13200.00
00785              -0.40   -13000.00
00786              -0.40   -12800.00
00787              -0.80   -12400.00
00788              -0.80   -12200.00
00789              -0.40   -12000.00
00790              -0.80   -11600.00
00791              -0.40   -11400.00
00792              -0.40   -10800.00
00793               0.00   -10800.00
00794               0.00   -10400.00
00795              -0.80   -10200.00
00796              -0.40   -10000.00
00797              -0.40    -9600.00
00798              -0.40    -9200.00
00799              -0.80    -9000.00
00800              -0.40    -8800.00
00801              -0.40    -8400.00
00802              -0.80    -8200.00
00803              -0.40    -7800.00
00804              -0.80    -7400.00
00805              -0.80    -7200.00
00806              -0.40    -6600.00
00807              -0.40    -6400.00
00808              -0.80    -6000.00
00809              -1.20    -5800.00
00810               0.00    -5400.00
00811              -0.40    -5000.00
00812              -0.80    -4600.00
00813              -0.40    -4400.00
00814              -0.40    -4000.00
00815              -1.20    -3600.00
00816               0.40    -3400.00
00817              -0.40    -3000.00
00818              -0.80    -2600.00
00819               0.40    -2400.00
00820              -0.40    -2000.00
00821              -0.80    -1600.00
00822              -0.80    -1000.00
00823              -0.40    -1000.00
00824              -0.80     -600.00
00825               0.80     -200.00
00826               0.00        0.00
00827               0.40      600.00
00828               3.60      800.00
00829               0.00     1000.00
00830              -2.80     1400.00
00831               2.00     1600.00
00832               2.80     2000.00
00833              -2.00     2200.00
00834               2.00     2600.00
00835              10.00     3000.00
00836              22.00     3800.00
00837             -10.40     4000.00
00838             -42.80     4400.00
00839               8.40     4800.00
00840              28.80     5000.00
00841             -30.00     5200.00
00842             -31.20     5400.00
00843              50.00     6000.00
00844              23.20     6000.00
00845             -50.00     6400.00
00846              50.00     7000.00
00847              34.80     6800.00
00848             -50.00     7600.00
00849               7.20     7800.00
00850              31.20     8000.00
00851              -4.40     8600.00
00852             -34.00     8800.00
00853              24.40     9200.00
00854              30.00     9200.00
00855             -47.20     9600.00
00856              -0.80    10000.00
00857              40.40    10400.00
00858             -17.20    10600.00
00859             -28.00    10800.00
00860              30.00    11200.00
00861              12.00    11400.00
00862             -33.20    11800.00
00863              10.00    12000.00
00864              18.80    12400.00
00865             -15.20    12600.00
00866              -9.20    12800.00
00867              20.00    13000.00
00868               0.40    13200.00
00869             -18.40    13600.00
00870              10.00    14000.00
00871               8.40    14000.00
00872             -13.20    14200.00
00873              -2.00    14400.00
00874              15.20    15000.00
00875              -5.20    14800.00
00876              -9.20    15200.00
00877              10.00    15400.00
00878               1.20    15600.00
00879              -9.20    15800.00
00880               2.00    16000.00
00881               7.20    16000.00
00882              -5.60    16400.00
00883              -3.60    16400.00
00884               7.20    16800.00
00885              -2.40    16800.00
00886              -6.00    16800.00
00887               5.20    17200.00
00888               2.80    17200.00
00889              -5.60    17400.00
00890               1.20    17600.00
00891               4.40    17600.00
00892              -3.60    17800.00
00893              -3.60    18000.00
00894               4.40    18200.00
00895              -0.80    18000.00
00896              -3.60    18200.00
00897               3.60    18400.00
00898               1.20    18400.00
00899              -2.80    18400.00
00900               0.40    18400.00
00901               2.40    18800.00
00902              -1.20    18600.00
00903              -1.20    18800.00
00904               2.00    18800.00
00905               0.80    18800.00
00906              -1.20    18800.00
00907              -0.40    18800.00
00908               0.80    18800.00
00909              -0.80    18800.00
00910              -1.20    18800.00
00911               1.60    18800.00
00912               0.40    18800.00
00913              -1.20    18800.00
00914               1.60    18600.00
00915               0.40    18800.00
00916              -0.80    18800.00
00917               0.40    18600.00
00918               0.40    18800.00
00919              -0.40    18400.00
00920              -0.80    18400.00
00921               0.40    18400.00
00922               0.40    18200.00
00923              -0.40    18200.00
00924               0.40    18000.00
00925               0.00    18000.00
00926               0.80    17800.00
00927               0.40    17600.00
00928               0.40    17600.00
00929              -0.40    17200.00
00930              -1.20    17400.00
00931              -0.40    17200.00
00932               0.40    17000.00
00933              -0.80    16800.00
00934               0.40    16600.00
00935              -0.40    16600.00
00936              -0.40    16400.00
00937              -0.40    16200.00
00938              -0.40    16000.00
00939               0.00    15800.00
00940              -0.40    15600.00
00941               0.40    15400.00
00942              -0.40    15200.00
00943              -0.80    15000.00
00944              -0.40    14800.00
00945              -0.40    14600.00
00946              -0.40    14400.00
00947              -0.40    14200.00
00948              -0.40    14000.00
00949              -0.80    13600.00
00950              -0.40    13400.00
00951              -0.40    13200.00
00952              -0.40    12800.00
00953              -0.40    12600.00
00954              -0.40    12400.00
00955              -0.40    12000.00
00956              -0.40    11800.00
00957              -0.80    11400.00
00958              -0.40    11200.00
00959              -0.40    10800.00
00960              -0.80    10600.00
00961               0.40    10400.00
00962              -0.40    10200.00
00963              -0.80     9600.00
00964               0.40     9600.00
00965              -0.80     9200.00
00966              -0.80     8800.00
00967               0.40     8600.00
00968              -0.80     8400.00
00969              -0.40     7800.00
00970               0.40     7600.00
00971              -0.40     7200.00
00972              -0.80     6800.00
00973               0.40     6600.00
00974              -0.40     6200.00
00975              -0.80     6000.00
00976              -0.40     5600.00
00977              -0.40     5400.00
00978              -0.80     4800.00
00979               0.40     4600.00
00980               0.00     4400.00
00981              -0.80     4000.00
00982               0.00     3600.00
00983              -0.40     3200.00
00984              -0.80     3000.00
00985              -0.40     2600.00
00986               0.40     2200.00
00987              -0.40     1800.00
00988              -0.40     1400.00
00989              -0.40     1000.00
00990              -0.80      600.00
00991              -0.40      400.00
00992              -0.40        0.00
00993               0.00     -200.00
00994               0.80     -600.00
00995               3.60     -800.00
00996              -2.40    -1000.00
00997              -2.00    -1600.00
00998               2.40    -1800.00
00999               0.00    -2200.00
01000              -2.00    -2400.00
01001               8.80    -2800.00
01002              32.80    -3600.00
01003             -17.20    -4200.00
01004             -50.00    -4200.00
01005              20.00    -4600.00
01006              31.20    -4800.00
01007             -50.00    -5000.00
01008               0.40    -5000.00
01009              50.00    -6000.00
01010             -50.00    -5600.00
01011             -10.00    -6400.00
01012              50.00    -6800.00
01013             -50.00    -6800.00
01014             -10.40    -7800.00
01015               4.00    -7400.00
01016              28.00    -8000.00
01017              -8.80    -8400.00
01018             -47.20    -8400.00
01019              50.00    -9200.00
01020              -7.60    -9200.00
01021             -47.20    -9800.00
01022              25.20    -9800.00
01023              26.00   -10000.00
01024             -33.60   -10400.00
01025             -14.00   -10600.00
01026              50.00   -11200.00
01027             -25.20   -11000.00
01028             -24.80   -11600.00
01029              26.40   -12000.00
01030               5.20   -12200.00
01031             -23.20   -12400.00
01032               2.40   -12800.00
01033              25.20   -13000.00
01034             -16.80   -13200.00
01035             -10.00   -13600.00
01036              14.00   -13600.00
01037               2.00   -14000.00
01038             -18.80   -14200.00
01039               8.40   -14600.00
01040              13.60   -14600.00
01041             -15.20   -14800.00
01042              -1.20   -15200.00
01043               9.20   -15200.00
01044              -2.80   -15600.00
01045             -10.40   -15600.00
01046               8.00   -16000.00
01047               4.80   -16200.00
01048             -10.00   -16200.00
01049               2.00   -16600.00
01050               7.60   -16600.00
01051              -8.80   -16800.00
01052              -4.00   -17000.00
01053               7.60   -17200.00
01054              -2.40   -17200.00
01055              -6.00   -17200.00
01056               4.00   -17600.00
01057               3.60   -17600.00
01058              -7.20   -17800.00
01059               0.40   -17800.00
01060               5.20   -18000.00
01061              -4.80   -18000.00
01062              -1.60   -18200.00
01063               3.60   -18400.00
01064              -1.20   -18400.00
01065              -4.00   -18600.00
01066               0.80   -18400.00
01067               1.60   -18600.00
01068              -4.00   -18600.00
01069              -0.80   -18600.00
01070               2.40   -18600.00
01071              -1.60   -18800.00
01072              -2.40   -18800.00
01073               0.80   -18800.00
01074               0.00   -18800.00
01075              -2.00   -18800.00
01076               0.40   -18800.00
01077               0.80   -18800.00
01078              -2.40   -18800.00
01079              -1.20   -18800.00
01080               0.40   -18800.00
01081              -0.80   -18600.00
01082              -1.60   -18800.00
01083              -0.80   -18600.00
01084               0.80   -18600.00
01085              -1.20   -18600.00
01086              -0.80   -18400.00
01087               0.40   -18400.00
01088              -0.80   -18400.00
01089              -0.80   -18400.00
01090              -0.40   -18000.00
01091               0.40   -18000.00
01092              -0.80   -18000.00
01093              -1.20   -17800.00
01094               0.80   -17400.00
01095              -0.40   -17400.00
01096              -1.60   -17600.00
01097              -0.40   -17200.00
01098               0.40   -17200.00
01099              -1.20   -17000.00
01100              -0.40   -16800.00
01101               0.40   -16600.00
01102              -0.80   -16400.00
01103              -0.80   -16200.00
01104               0.40   -16200.00
01105              -0.80   -16000.00
01106              -0.80   -15800.00
01107               0.00   -15600.00
01108              -0.80   -15400.00
01109              -0.80   -15200.00
01110              -0.80   -15000.00
01111              -0.40   -14600.00
01112               0.40   -14600.00
01113              -0.40   -14000.00
01114              -0.40   -14000.00
01115              -0.40   -13800.00
01116              -0.40   -13600.00
01117               0.00   -13200.00
01118              -0.80   -13000.00
01119              -0.40   -12800.00
01120              -0.40   -12400.00
01121              -0.40   -12200.00
01122              -0.40   -12000.00
01123              -0.40   -11600.00
01124              -0.80   -11400.00
01125              -0.40   -11000.00
01126               0.40   -10800.00
01127               0.40   -10600.00
01128              -0.80   -10000.00
01129              -1.20    -9800.00
01130              -0.40    -9600.00
01131               0.40    -9200.00
01132              -2.00    -9000.00
01133              -2.40    -8800.00
01134               2.00    -8400.00
01135               0.00    -8200.00
01136              -3.60    -7800.00
01137              -0.40    -7400.00
01138               1.20    -7200.00
01139              -1.60    -6800.00
01140              -2.00    -6400.00
01141               0.80    -6000.00
01142              -0.80    -5800.00
01143              -1.60    -5600.00
01144               0.40    -5000.00
01145              -0.80    -4600.00
01146              -1.20    -4400.00
01147              -0.80    -4000.00
01148              -0.40    -3800.00
01149              -0.80    -3400.00
01150              -0.40    -3200.00
01151              -0.40    -2800.00
01152              -0.80    -2400.00
01153              -0.80    -2000.00
01154              -0.40    -1800.00
01155              -0.40    -1400.00
01156              -0.80    -1000.00
01157              -0.40     -400.00
01158               0.40     -200.00
01159              -0.40        0.00
01160               0.40      400.00
01161               3.60      800.00
01162               0.40     1000.00
01163              -2.80     1400.00
01164               2.00     1600.00
01165               2.40     2000.00
01166              -1.20     2200.00
01167               0.40     2400.00
01168               8.40     3000.00
01169              20.40     3600.00
01170              -0.80     4000.00
01171             -44.00     4400.00
01172              -1.20     4600.00
01173              32.40     4800.00
01174             -20.40     5400.00
01175             -39.60     5400.00
01176              48.40     6000.00
01177              44.40     6200.00
01178             -50.00     6400.00
01179              29.60     7000.00
01180              50.00     7000.00
01181             -50.00     7400.00
01182              -4.40     7800.00
01183              34.00     8000.00
01184               2.40     8600.00
01185             -34.40     8600.00
01186              12.40     9000.00
01187              39.20     9200.00
01188             -41.20     9600.00
01189             -12.40    10000.00
01190              41.20    10200.00
01191              -8.40    10400.00
01192             -32.40    10800.00
01193              23.20    11000.00
01194              21.60    11400.00
01195             -34.00    11800.00
01196               2.00    12000.00
01197              21.60    12200.00
01198             -11.60    12600.00
01199             -13.20    12800.00
01200              18.00    13200.00
01201               5.60    13400.00
01202             -19.60    13600.00
01203               6.00    13800.00
01204              10.80    14000.00
01205             -10.80    14400.00
01206              -6.00    14400.00
01207              15.60    14800.00
01208              -1.20    14800.00
01209             -12.00    15200.00
01210               7.60    15400.00
01211               5.20    15600.00
01212             -10.00    15800.00
01213              -0.40    16000.00
01214               9.20    16000.00
01215              -4.40    16400.00
01216              -5.20    16600.00
01217               7.20    16800.00
01218              -0.80    16800.00
01219              -7.20    17000.00
01220               4.40    17200.00
01221               4.00    17200.00
01222              -5.20    17400.00
01223               0.40    17400.00
01224               4.40    17600.00
01225              -2.00    17600.00
01226              -4.00    17800.00
01227               3.60    18000.00
01228               1.20    18200.00
01229              -4.00    18400.00
01230               2.00    18400.00
01231               2.80    18400.00
01232              -3.20    18400.00
01233              -0.40    18600.00
01234               3.60    18800.00
01235              -1.20    18400.00
01236              -1.20    18800.00
01237               2.40    18800.00
01238               0.00    18800.00
01239              -1.20    18800.00
01240               0.40    18800.00
01241               0.40    18800.00
01242              -0.40    18800.00
01243              -0.80    18800.00
01244               0.80    18800.00
01245               0.80    18800.00
01246              -0.80    18800.00
01247               1.20    18800.00
01248               0.80    18800.00
01249              -0.80    18600.00
01250               0.40    18600.00
01251               0.40    18600.00
01252              -0.40    18400.00
01253              -0.40    18400.00
01254               0.40    18400.00
01255               0.40    18200.00
01256              -0.40    18200.00
01257              -0.40    18000.00
01258               0.40    18000.00
01259               0.40    17800.00
01260              -0.40    17600.00
01261               0.40    17400.00
01262              -0.40    17600.00
01263              -0.80    17200.00
01264              -0.40    17200.00
01265               1.20    17000.00
01266              -0.80    16800.00
01267              -0.40    16800.00
01268              -0.40    16600.00
01269              -0.40    16400.00
01270              -0.40    16200.00
01271              -0.40    16000.00
01272              -0.40    16000.00
01273              -0.40    15600.00
01274              -0.40    15400.00
01275               0.40    15200.00
01276              -0.40    15000.00
01277              -0.80    14600.00
01278              -0.40    14800.00
01279              -0.40    14400.00
01280              -1.20    14000.00
01281              -0.40    14000.00
01282              -0.40    13600.00
01283              -0.80    13400.00
01284              -0.40    13400.00
01285               0.00    13000.00
01286              -0.80    12600.00
01287               0.40    12600.00
01288               0.00    12200.00
01289              -0.40    12000.00
01290              -0.40    11600.00
01291               0.00    11200.00
01292              -0.40    11000.00
01293              -0.80    10800.00
01294              -0.40    10400.00
01295              -0.40    10200.00
01296              -0.80     9800.00
01297               0.40     9600.00
01298              -0.40     9200.00
01299              -0.40     8800.00
01300               0.40     8600.00
01301              -0.40     8400.00
01302              -0.40     8000.00
01303              -0.40     7600.00
01304              -0.40     7400.00
01305              -0.40     7000.00
01306              -0.40     6800.00
01307              -0.40     6200.00
01308              -0.40     6000.00
01309              -0.80     5600.00
01310              -0.40     5400.00
01311              -0.80     4800.00
01312               0.00     4600.00
01313              -0.40     4200.00
01314               0.00     4000.00
01315              -0.40     3600.00
01316              -0.40     3200.00
01317              -0.40     3000.00
01318              -0.40     2800.00
01319              -0.40     2200.00
01320              -0.40     2000.00
01321              -0.40     1400.00
01322              -0.80     1200.00
01323              -0.40      800.00
01324              -0.40      400.00
01325              -0.40        0.00
01326               0.40     -200.00
01327               0.00     -600.00
01328               3.60     -800.00
01329              -0.80    -1200.00
01330              -2.40    -1600.00
01331               0.80    -1600.00
01332               0.80    -2000.00
01333              -2.80    -2400.00
01334               6.00    -2600.00
01335              29.60    -3400.00
01336              -4.00    -4000.00
01337             -50.00    -4200.00
01338               9.20    -4600.00
01339              39.20    -4800.00
01340             -39.20    -5000.00
01341             -24.80    -4800.00
01342              50.00    -6000.00
01343             -50.00    -5600.00
01344             -40.40    -6400.00
01345              50.00    -6800.00
01346             -39.60    -6800.00
01347             -22.00    -7600.00
01348               5.20    -7400.00
01349              21.60    -8000.00
01350               7.20    -8400.00
01351             -50.00    -8400.00
01352              50.00    -9000.00
01353              11.60    -9200.00
01354             -50.00    -9600.00
01355              17.20   -10000.00
01356              30.40   -10000.00
01357             -24.40   -10600.00
01358             -25.20   -10600.00
01359              48.80   -11200.00
01360             -12.00   -11200.00
01361             -32.80   -11600.00
01362              23.20   -12000.00
01363              10.00   -12200.00
01364             -20.40   -12400.00
01365              -6.00   -12800.00
01366              26.80   -13000.00
01367              -9.20   -13200.00
01368             -14.80   -13400.00
01369              12.00   -13800.00
01370               6.80   -14000.00
01371             -18.00   -14200.00
01372               2.40   -14400.00
01373              17.20   -14600.00
01374             -12.40   -14800.00
01375              -5.60   -15200.00
01376              10.00   -15200.00
01377              -0.40   -15600.00
01378             -12.00   -15600.00
01379               5.20   -15800.00
01380               8.00   -16000.00
01381              -8.80   -16200.00
01382              -1.20   -16400.00
01383               8.40   -16600.00
01384              -5.60   -16800.00
01385              -6.40   -17000.00
01386               7.20   -17000.00
01387               0.00   -17200.00
01388              -6.00   -17400.00
01389               2.00   -17600.00
01390               4.80   -17600.00
01391              -6.00   -17800.00
01392              -2.40   -17800.00
01393               5.20   -18000.00
01394              -4.00   -18000.00
01395              -2.40   -18400.00
01396               3.60   -18200.00
01397              -0.40   -18400.00
01398              -4.00   -18400.00
01399               0.00   -18600.00
01400               2.00   -18600.00
01401              -3.20   -18600.00
01402              -1.20   -18800.00
01403               2.00   -18800.00
01404              -0.80   -18800.00
01405              -2.00   -18800.00
01406               0.40   -18800.00
01407               0.40   -18800.00
01408              -2.00   -18800.00
01409              -0.80   -18800.00
01410               1.20   -18800.00
01411              -1.20   -18800.00
01412              -1.60   -18800.00
01413               0.40   -18800.00
01414              -0.40   -18800.00
01415              -1.60   -18800.00
01416              -1.20   -18800.00
01417               0.80   -18600.00
01418              -1.20   -18400.00
01419              -1.20   -18400.00
01420               0.40   -18400.00
01421              -0.80   -18400.00
01422              -1.20   -18400.00
01423              -0.40   -18200.00
01424               0.40   -18000.00
01425              -1.20   -17800.00
01426              -1.20   -17600.00
01427               0.40   -17600.00
01428              -0.40   -17400.00
01429              -1.60   -17400.00
01430              -0.40   -17200.00
01431               0.40   -17000.00
01432              -0.80   -17000.00
01433              -0.80   -16800.00
01434              -0.40   -16800.00
01435              -0.40   -16400.00
01436              -1.20   -16400.00
01437               0.00   -16000.00
01438              -0.80   -16000.00
01439              -1.20   -15600.00
01440              -0.40   -15600.00
01441              -0.40   -15400.00
01442              -0.40   -15200.00
01443              -1.20   -14800.00
01444              -0.80   -14600.00
01445               0.40   -14600.00
01446              -0.80   -14200.00
01447              -0.40   -14000.00
01448              -0.40   -13800.00
01449              -0.80   -13600.00
01450              -0.40   -13200.00
01451              -0.40   -13000.00
01452              -0.80   -12800.00
01453              -0.80   -12400.00
01454              -0.40   -12400.00
01455              -0.80   -12000.00
01456              -0.80   -11800.00
01457              -0.80   -11600.00
01458              -0.40   -11000.00
01459              -0.40   -10800.00
01460              -0.40   -10600.00
01461              -0.80   -10400.00
01462              -0.80   -10000.00
01463              -0.80    -9600.00
01464              -0.80    -9200.00
01465              -0.80    -9000.00
01466              -0.80    -8800.00
01467              -0.80    -8600.00
01468              -1.20    -8200.00
01469              -0.80    -8000.00
01470              -0.80    -7400.00
01471              -0.80    -7200.00
01472               0.00    -6800.00
01473              -0.80    -6400.00
01474              -0.80    -6200.00
01475              -0.40    -5800.00
01476              -0.80    -5400.00
01477               0.40    -5200.00
01478              -1.20    -4600.00
01479              -0.80    -4400.00
01480               0.40    -4000.00
01481              -0.80    -3800.00
01482              -0.40    -3400.00
01483               0.40    -3200.00
01484              -1.20    -2800.00
01485              -0.40    -2400.00
01486               0.40    -2000.00
01487              -0.80    -1800.00
01488              -0.40    -1400.00
01489              -0.40    -1000.00
01490              -0.80     -800.00
01491              -0.40     -400.00
01492               0.80        0.00
01493               0.40      400.00
01494               2.40      600.00
01495               2.00      800.00
01496              -2.40     1400.00
01497               0.80     1400.00
01498               2.80     2000.00
01499              -0.80     2200.00
01500              -0.40     2400.00
01501               6.80     3000.00
01502              18.00     3600.00
01503               7.60     4000.00
01504             -42.40     4400.00
01505             -11.60     4600.00
01506              32.80     5000.00
01507              -9.20     5200.00
01508             -44.00     5400.00
01509              32.80     6000.00
01510              50.00     6200.00
01511             -50.00     6400.00
01512               5.20     6800.00
01513              50.00     6800.00
01514             -50.00     7400.00
01515             -18.00     7800.00
01516              35.20     8000.00
01517               9.20     8400.00
01518             -32.80     8800.00
01519               0.40     9000.00
01520              45.20     9200.00
01521             -32.00     9400.00
01522             -25.20    10000.00
01523              40.00    10200.00
01524               1.60    10400.00
01525             -34.40    10800.00
01526              14.80    11200.00
01527              29.60    11200.00
01528             -31.20    11600.00
01529              -7.20    12000.00
01530              23.60    12400.00
01531              -7.20    12400.00
01532             -17.20    13000.00
01533              14.80    13200.00
01534              10.40    13400.00
01535             -20.00    13600.00
01536               2.80    13800.00
01537              13.20    14000.00
01538              -8.80    14400.00
01539              -8.80    14400.00
01540              13.60    14800.00
01541               2.80    14800.00
01542             -13.20    15000.00
01543               5.20    15400.00
01544               6.00    15600.00
01545              -8.40    15800.00
01546              -2.80    16000.00
01547               8.80    16000.00
01548              -2.00    16400.00
01549              -6.00    16400.00
01550               5.60    16600.00
01551               2.40    16800.00
01552              -7.60    17200.00
01553               2.00    17200.00
01554               6.00    17200.00
01555              -4.40    17400.00
01556              -1.20    17400.00
01557               5.60    17600.00
01558              -0.80    17800.00
01559              -5.20    18000.00
01560               3.60    18000.00
01561               2.40    18200.00
01562              -4.00    18200.00
01563               1.60    18400.00
01564               3.60    18400.00
01565              -2.40    18400.00
01566              -0.80    18400.00
01567               2.80    18600.00
01568              -0.40    18400.00
01569              -2.00    18800.00
01570               2.00    18800.00
01571               1.20    18800.00
01572              -2.00    18800.00
01573              -0.40    18800.00
01574               0.80    18800.00
01575              -0.40    18800.00
01576              -0.80    18800.00
01577               0.80    18800.00
01578               0.80    18800.00
01579              -1.20    18800.00
01580               0.80    18800.00
01581               1.20    18800.00
01582              -1.20    18800.00
01583               0.00    18400.00
01584               0.80    18600.00
01585              -0.40    18400.00
01586              -0.80    18400.00
01587               0.40    18400.00
01588               0.00    18200.00
01589              -0.80    18200.00
01590              -0.40    18000.00
01591              -0.40    18000.00
01592               0.40    17800.00
01593              -0.80    17800.00
01594               0.00    17600.00
01595               0.40    17400.00
01596              -0.80    17400.00
01597              -0.40    17200.00
01598               0.80    17200.00
01599              -0.80    17000.00
01600              -0.80    16800.00
01601               0.00    16600.00
01602              -0.40    16400.00
01603              -0.80    16200.00
01604               0.40    16000.00
01605              -0.40    15800.00
01606              -0.40    15800.00
01607               0.00    15600.00
01608               0.40    15200.00
01609              -0.80    15000.00
01610              -0.40    14800.00
01611               0.40    14800.00
01612               0.00    14400.00
01613              -0.40    14200.00
01614              -0.40    14000.00
01615              -0.40    13600.00
01616              -0.40    13600.00
01617              -0.40    13200.00
01618               0.40    13000.00
01619              -0.80    12600.00
01620              -0.80    12400.00
01621               0.80    12400.00
01622              -0.40    12000.00
01623              -0.80    11600.00
01624               0.80    11200.00
01625              -0.80    11000.00
01626               0.00    10800.00
01627               0.40    10400.00
01628              -0.80    10200.00
01629              -0.40    10000.00
01630               0.40     9600.00
01631              -0.80     9200.00
01632              -0.40     8800.00
01633               1.20     8600.00
01634              -1.20     8400.00
01635               0.00     8000.00
01636               0.80     7800.00
01637              -2.00     7400.00
01638              -0.40     7000.00
01639               0.80     6800.00
01640              -1.20     6400.00
01641              -0.80     6000.00
01642               0.80     5600.00
01643              -0.80     5400.00
01644              -0.80     4800.00
01645               0.80     4600.00
01646               0.00     4400.00
01647              -0.80     4000.00
01648               0.40     3600.00
01649              -0.80     3200.00
01650              -0.80     3000.00
01651              -0.80     2600.00
01652              -0.80     2400.00
01653               0.40     2000.00
01654              -0.40     1600.00
01655              -1.20     1200.00
01656               0.00      800.00
01657              -0.40      400.00
01658              -0.40      200.00
01659               0.40     -200.00
01660               0.40     -400.00
01661               2.40     -800.00
01662               0.40     -800.00
01663              -2.40    -1600.00
01664               0.40    -1800.00
01665               1.20    -2000.00
01666              -2.40    -2400.00
01667               4.00    -2400.00
01668              25.20    -3200.00
01669               8.80    -4000.00
01670             -50.00    -4200.00
01671              -2.00    -4600.00
01672              43.60    -4800.00
01673             -27.60    -5000.00
01674             -43.20    -4800.00
01675              50.00    -5800.00
01676             -28.40    -5800.00
01677             -50.00    -6000.00
01678              50.00    -6800.00
01679             -22.00    -6600.00
01680             -34.80    -7200.00
01681               8.40    -7400.00
01682              15.60    -7800.00
01683              18.80    -8400.00
01684             -50.00    -8200.00
01685              37.60    -9000.00
01686              30.80    -9000.00
01687             -50.00    -9400.00
01688               7.20   -10000.00
01689              34.40    -9800.00
01690             -14.00   -10400.00
01691             -34.40   -10400.00
01692              43.60   -11000.00
01693               2.80   -11200.00
01694             -39.20   -11600.00
01695              18.80   -12000.00
01696              14.00   -12200.00
01697             -17.20   -12400.00
01698             -12.00   -12400.00
01699              25.20   -13000.00
01700              -2.80   -13200.00
01701             -18.40   -13600.00
01702               9.20   -13600.00
01703              10.40   -13800.00
01704             -15.60   -14000.00
01705              -4.00   -14400.00
01706              19.60   -14600.00
01707              -8.80   -14800.00
01708              -8.80   -15200.00
01709               8.80   -15200.00
01710               2.40   -15400.00
01711             -12.00   -15600.00
01712               0.80   -16000.00
01713              10.40   -16000.00
01714              -7.20   -16200.00
01715              -4.40   -16400.00
01716               9.20   -16800.00
01717              -3.20   -16800.00
01718              -8.80   -17000.00
01719               6.80   -17200.00
01720               2.00   -17200.00
01721              -6.80   -17400.00
01722              -0.40   -17600.00
01723               5.20   -17800.00
01724              -4.40   -17600.00
01725              -4.40   -17800.00
01726               5.20   -18000.00
01727              -2.00   -18200.00
01728              -4.00   -18000.00
01729               2.40   -18200.00
01730               0.80   -18400.00
01731              -4.00   -18600.00
01732              -2.00   -18400.00
01733               2.80   -18600.00
01734              -2.40   -18600.00
01735              -3.20   -18600.00
01736               2.00   -18800.00
01737              -0.40   -18800.00
01738              -2.40   -18800.00
01739               0.40   -18800.00
01740               0.80   -18800.00
01741              -2.00   -18800.00
01742              -1.20   -18800.00
01743               1.60   -18800.00
01744              -1.20   -18800.00
01745              -1.60   -18800.00
01746               0.80   -18800.00
01747              -0.40   -18800.00
01748              -1.20   -18800.00
01749              -1.20   -18600.00
01750               0.80   -18800.00
01751              -0.40   -18600.00
01752              -0.80   -18600.00
01753               0.40   -18400.00
01754              -0.80   -18400.00
01755              -0.80   -18400.00
01756              -0.40   -18000.00
01757              -0.40   -18200.00
01758              -0.40   -17800.00
01759              -1.20   -17800.00
01760               0.40   -17600.00
01761               0.40   -17600.00
01762              -1.60   -17400.00
01763              -0.80   -17200.00
01764               0.40   -17200.00
01765               0.00   -17000.00
01766              -0.80   -16800.00
01767              -0.40   -16600.00
01768               0.40   -16400.00
01769              -0.80   -16400.00
01770              -0.80   -16200.00
01771               0.40   -16000.00
01772              -0.80   -15800.00
01773              -1.20   -15600.00
01774               0.40   -15400.00
01775               0.40   -15400.00
01776              -1.20   -15000.00
01777               0.40   -14800.00
01778               0.00   -14600.00
01779              -1.20   -14400.00
01780               0.40   -14000.00
01781              -0.40   -13800.00
01782              -1.60   -13600.00
01783               0.40   -13400.00
01784              -0.80   -13200.00
01785              -2.00   -12800.00
01786               0.80   -12600.00
01787              -0.80   -12400.00
01788              -2.00   -12000.00
01789               0.40   -11600.00
01790              -0.80   -11600.00
01791              -2.40   -11000.00
01792               0.40   -10800.00
01793               0.40   -10600.00
01794              -2.00   -10400.00
01795               0.00   -10000.00
01796              -0.40    -9800.00
01797              -1.20    -9600.00
01798              -0.40    -9000.00
01799              -0.80    -8800.00
01800              -0.80    -8400.00
01801              -0.80    -8200.00
01802              -1.20    -8000.00
01803               0.00    -7600.00
01804              -0.40    -7200.00
01805              -1.20    -7000.00
01806              -0.40    -6600.00
01807              -0.40    -6400.00
01808              -1.20    -6000.00
01809              -0.40    -5600.00
01810               0.80    -5200.00
01811              -1.20    -4800.00
01812              -0.80    -4400.00
01813              -0.40    -4200.00
01814              -0.80    -4000.00
01815              -1.20    -3600.00
01816               0.40    -3200.00
01817              -0.40    -2800.00
01818              -0.40    -2400.00
01819              -0.40    -2200.00
01820              -0.40    -1800.00
01821              -0.80    -1400.00
01822              -0.40    -1000.00
01823              -0.40     -600.00
01824               0.00     -400.00
01825               0.40        0.00
01826              -0.40      400.00
01827               2.00      800.00
01828               2.80      800.00
01829              -2.40     1200.00
01830               0.40     1800.00
01831               3.60     2000.00
01832               0.40     2200.00
01833              -2.00     2400.00
01834               5.60     2800.00
01835              16.40     3600.00
01836              14.80     4000.00
01837             -38.80     4400.00
01838             -20.40     4600.00
01839              31.20     4800.00
01840               0.80     5000.00
01841             -46.80     5200.00
01842              16.40     5600.00
01843              50.00     6200.00
01844             -50.00     6200.00
01845             -19.60     6800.00
01846              50.00     6800.00
01847             -40.40     7200.00
01848             -31.20     7600.00
01849              33.60     7800.00
01850              14.80     8400.00
01851             -28.00     8800.00
01852             -12.40     8800.00
01853              47.20     9200.00
01854             -19.60     9400.00
01855             -36.00    10000.00
01856              34.80    10000.00
01857              12.40    10400.00
01858             -34.40    10800.00
01859               4.00    11000.00
01860              35.60    11200.00
01861             -25.20    11600.00
01862             -15.20    11800.00
01863              24.40    12200.00
01864              -1.20    12600.00
01865             -19.20    12600.00
01866               9.20    12800.00
01867              15.60    13200.00
01868             -17.60    13400.00
01869              -3.60    13800.00
01870              14.80    13800.00
01871              -5.20    14200.00
01872             -12.00    14600.00
01873              11.60    14800.00
01874               7.60    14800.00
01875             -14.00    15200.00
01876               2.80    15400.00
01877               8.40    15600.00
01878              -7.60    15800.00
01879              -5.60    16000.00
01880               9.20    16000.00
01881               0.40    16400.00
01882              -7.60    16400.00
01883               4.40    16600.00
01884               4.00    16800.00
01885              -7.20    16800.00
01886               0.40    17200.00
01887               6.80    17200.00
01888              -4.00    17400.00
01889              -2.40    17600.00
01890               4.80    17600.00
01891               0.80    17600.00
01892              -5.20    17600.00
01893               2.00    18000.00
01894               4.00    18000.00
01895              -4.00    18200.00
01896               0.40    18400.00
01897               3.20    18400.00
01898              -1.60    18400.00
01899              -1.60    18400.00
01900               2.40    18600.00
01901               0.40    18600.00
01902              -2.00    18800.00
01903               0.80    18800.00
01904               2.00    18600.00
01905              -0.80    18800.00
01906              -0.80    18800.00
01907               0.80    18800.00
01908               0.40    18800.00
01909              -1.20    18800.00
01910               0.40    18600.00
01911               0.80    18800.00
01912              -0.80    18800.00
01913              -0.40    18800.00
01914               0.80    18800.00
01915              -0.40    18600.00
01916              -0.80    18600.00
01917              -0.80    18400.00
01918               0.80    18600.00
01919              -0.40    18400.00
01920              -1.20    18400.00
01921               0.40    18200.00
01922               0.40    18200.00
01923              -1.20    18000.00
01924              -0.40    18000.00
01925               0.80    18000.00
01926              -0.80    17600.00
01927              -0.40    17600.00
01928               0.80    17400.00
01929              -0.40    17400.00
01930              -1.20    17200.00
01931               0.80    17200.00
01932              -0.80    16800.00
01933              -1.20    16800.00
01934               0.40    16600.00
01935              -0.40    16400.00
01936              -0.80    16400.00
01937              -0.40    16000.00
01938               0.40    15800.00
01939               0.40    15800.00
01940              -0.40    15600.00
01941               0.40    15200.00
01942              -0.40    15200.00
01943              -0.80    14800.00
01944               0.40    14600.00
01945              -0.40    14400.00
01946              -0.40    14200.00
01947              -0.40    14000.00
01948               0.00    13800.00
01949              -0.40    13400.00
01950              -0.40    13200.00
01951              -0.40    13000.00
01952               0.40    12600.00
01953               0.00    12600.00
01954              -0.40    12400.00
01955               0.40    12000.00
01956               0.00    11600.00
01957              -0.40    11400.00
01958               0.40    11000.00
01959              -0.40    10800.00
01960              -0.80    10400.00
01961               0.40    10200.00
01962              -0.40     9800.00
01963              -0.40     9600.00
01964              -0.40     9200.00
01965              -0.40     9000.00
01966               0.40     8600.00
01967              -0.80     8400.00
01968               0.00     8000.00
01969               0.40     7800.00
01970              -0.80     7600.00
01971              -0.80     7200.00
01972               0.40     6800.00
01973              -1.20     6400.00
01974              -0.80     6000.00
01975              -0.40     6000.00
01976              -1.20     5400.00
01977              -0.80     5000.00
01978              -0.40     4800.00
01979              -0.80     4200.00
01980              -1.20     4000.00
01981               0.40     3600.00
01982              -0.40     3200.00
01983              -1.20     3000.00
01984              -0.80     2600.00
01985              -0.40     2200.00
01986              -0.40     2000.00
01987              -0.80     1600.00
01988              -0.80     1200.00
01989              -0.40      800.00
01990              -0.80      600.00
01991              -0.80        0.00
01992              -0.40     -200.00
01993               0.40     -400.00
01994               2.40     -800.00
01995               0.80    -1000.00
01996              -2.40    -1400.00
01997              -0.40    -1600.00
01998               1.20    -2000.00
01999              -2.00    -2200.00
02000               2.40    -2400.00
02001              20.00    -3200.00
02002              20.40    -4000.00
02003             -50.00    -4000.00
02004             -15.20    -4600.00
02005              43.60    -4800.00
02006             -14.00    -5000.00
02007             -50.00    -4800.00
02008              50.00    -5800.00
02009               7.20    -5800.00
02010             -50.00    -5800.00
02011              50.00    -6800.00
02012               0.40    -6800.00
02013             -46.80    -7200.00
02014              10.00    -7600.00
02015              10.80    -7600.00
02016              27.60    -8400.00
02017             -50.00    -8200.00
02018              18.80    -8800.00
02019              48.00    -9200.00
02020             -50.00    -9400.00
02021              -4.00   -10000.00
02022              36.00    -9800.00
02023              -4.40   -10400.00
02024             -40.80   -10600.00
02025              34.40   -10800.00
02026              18.00   -11200.00
02027             -42.80   -11400.00
02028              12.00   -12000.00
02029              18.40   -12200.00
02030             -13.60   -12400.00
02031             -17.20   -12800.00
02032              23.20   -13000.00
02033               4.00   -13000.00
02034             -21.20   -13200.00
02035               5.60   -13600.00
02036              12.40   -13800.00
02037             -12.40   -14000.00
02038              -9.60   -14400.00
02039              19.60   -14600.00
02040              -4.40   -14800.00
02041             -12.00   -15200.00
02042               7.20   -15400.00
02043               4.40   -15400.00
02044             -11.20   -15800.00
02045              -1.60   -16000.00
02046              10.80   -16000.00
02047              -5.60   -16200.00
02048              -6.00   -16400.00
02049               7.20   -16600.00
02050              -0.80   -16800.00
02051              -9.20   -16800.00
02052               3.60   -17000.00
02053               3.60   -17200.00
02054              -5.60   -17200.00
02055              -2.00   -17400.00
02056               5.60   -17600.00
02057              -3.20   -17800.00
02058              -5.60   -17800.00
02059               5.60   -18000.00
02060              -1.20   -18000.00
02061              -4.40   -18000.00
02062               2.80   -18200.00
02063               0.80   -18400.00
02064              -4.00   -18400.00
02065              -1.20   -18400.00
02066               2.00   -18600.00
02067              -2.00   -18600.00
02068              -2.40   -18800.00
02069               1.20   -18800.00
02070              -0.40   -18800.00
02071              -2.40   -18800.00
02072               0.40   -18800.00
02073               0.40   -18800.00
02074              -1.20   -18600.00
02075              -1.20   -18800.00
02076               0.80   -18800.00
02077              -0.40   -18800.00
02078              -2.00   -18800.00
02079               0.40   -18800.00
02080               0.40   -18600.00
02081              -1.20   -18800.00
02082              -1.20   -18600.00
02083               0.80   -18600.00
02084               0.40   -18600.00
02085              -2.00   -18600.00
02086               0.40   -18400.00
02087               0.40   -18400.00
02088              -1.20   -18400.00
02089              -0.40   -18000.00
02090               0.40   -18000.00
02091              -0.40   -17800.00
02092              -1.20   -17800.00
02093               0.40   -17600.00
02094               0.80   -17600.00
02095              -1.60   -17400.00
02096              -0.80   -17200.00
02097               0.40   -17200.00
02098              -0.40   -17000.00
02099              -0.80   -16800.00
02100              -0.40   -16800.00
02101               0.00   -16600.00
02102              -0.80   -16400.00
02103              -0.80   -16200.00
02104               0.00   -16000.00
02105              -1.20   -16000.00
02106              -0.80   -15600.00
02107              -0.40   -15400.00
02108              -0.80   -15200.00
02109              -0.80   -15200.00
02110              -0.80   -14600.00
02111               0.00   -14600.00
02112              -1.20   -14400.00
02113              -0.80   -14000.00
02114              -0.40   -13800.00
02115              -1.20   -13800.00
02116              -0.40   -13400.00
02117              -0.40   -13000.00
02118              -1.20   -12800.00
02119              -0.40   -12600.00
02120              -0.80   -12400.00
02121              -0.80   -12200.00
02122              -0.80   -11800.00
02123              -0.80   -11600.00
02124              -0.80   -11000.00
02125              -0.80   -10800.00
02126               0.40   -10600.00
02127              -0.80   -10400.00
02128              -0.80   -10000.00
02129               0.00    -9800.00
02130              -0.80    -9600.00
02131              -0.40    -9200.00
02132              -0.40    -8800.00
02133              -0.80    -8600.00
02134              -0.80    -8200.00
02135              -1.20    -8000.00
02136              -0.40    -7600.00
02137              -0.40    -7400.00
02138              -0.80    -6800.00
02139               0.40    -6600.00
02140              -0.40    -6400.00
02141              -0.40    -6000.00
02142              -0.40    -5600.00
02143               0.00    -5200.00
02144              -0.80    -5000.00
02145              -0.80    -4400.00
02146              -0.40    -4200.00
02147              -0.80    -4000.00
02148              -0.80    -3600.00
02149               0.40    -3200.00
02150              -0.80    -2800.00
02151              -0.40    -2400.00
02152              -0.40    -2200.00
02153               0.40    -2000.00
02154              -0.40    -1600.00
02155              -0.40    -1200.00
02156              -0.40     -800.00
02157               0.40     -400.00
02158               0.40        0.00
02159              -0.40      200.00
02160               2.00      600.00
02161               3.60      800.00
02162              -2.40     1200.00
02163               0.40     1400.00
02164               2.40     2000.00
02165              -0.40     2200.00
02166              -0.80     2400.00
02167               4.00     2800.00
02168              13.20     3200.00
02169              22.00     4000.00
02170             -33.60     4400.00
02171             -30.00     4400.00
02172              29.60     4800.00
02173               8.80     5000.00
02174             -45.20     5200.00
02175               0.80     5600.00
02176              50.00     6200.00
02177             -43.60     6000.00
02178             -42.80     6800.00
02179              50.00     6800.00
02180             -22.80     7200.00
02181             -42.80     7800.00
02182              29.60     7800.00
02183              19.60     8400.00
02184             -21.60     8600.00
02185             -22.80     8800.00
02186              46.00     9200.00
02187              -5.60     9400.00
02188             -44.00     9800.00
02189              27.60    10000.00
02190              21.60    10400.00
02191             -31.60    10800.00
02192              -5.60    11000.00
02193              36.40    11200.00
02194             -16.00    11600.00
02195             -22.80    12000.00
02196              21.20    12200.00
02197               6.00    12600.00
02198             -20.00    12800.00
02199               3.60    13000.00
02200              19.60    13200.00
02201             -13.60    13400.00
02202              -8.80    13600.00
02203              15.20    13800.00
02204              -1.20    14200.00
02205             -14.00    14400.00
02206               8.80    14600.00
02207              11.60    14800.00
02208             -13.20    15200.00
02209              -0.80    15200.00
02210              10.80    15600.00
02211              -5.60    15800.00
02212              -7.60    16000.00
02213               8.80    16000.00
02214               2.80    16200.00
02215              -7.60    16400.00
02216               3.60    16600.00
02217               5.20    16800.00
02218              -6.00    16800.00
02219              -1.60    17000.00
02220               7.20    17200.00
02221              -2.40    17400.00
02222              -3.60    17400.00
02223               4.40    17600.00
02224               2.00    18000.00
02225              -5.60    17800.00
02226               0.80    17800.00
02227               4.00    18000.00
02228              -3.20    18200.00
02229              -0.80    18200.00
02230               3.60    18400.00
02231              -0.80    18400.00
02232              -2.00    18600.00
02233               1.20    18400.00
02234               0.80    18600.00
02235              -1.20    18800.00
02236              -0.40    18800.00
02237               1.60    18800.00
02238              -0.80    18800.00
02239              -2.00    18800.00
02240               0.40    18800.00
02241               0.80    18800.00
02242              -0.80    18800.00
02243              -0.80    18800.00
02244               1.20    18800.00
02245              -1.20    18800.00
02246              -0.80    18800.00
02247               1.20    18800.00
02248              -0.40    18800.00
02249              -0.80    18600.00
02250               0.00    18600.00
02251               0.80    18600.00
02252              -0.40    18400.00
02253              -1.20    18400.00
02254               0.40    18200.00
02255               0.40    18200.00
02256              -1.20    18200.00
02257              -0.40    18000.00
02258               0.80    18000.00
02259              -0.40    17600.00
02260              -0.40    17600.00
02261               0.80    17400.00
02262              -0.80    17400.00
02263              -0.80    17400.00
02264               1.20    17200.00
02265              -0.40    17000.00
02266              -0.40    16800.00
02267               0.00    16600.00
02268              -0.40    16400.00
02269              -0.80    16200.00
02270              -0.40    16000.00
02271              -0.40    16000.00
02272               0.00    15800.00
02273               0.40    15600.00
02274               0.40    15200.00
02275               0.40    15200.00
02276              -0.40    15000.00
02277               0.00    14800.00
02278               0.40    14400.00
02279              -0.40    14400.00
02280              -0.40    14200.00
02281              -0.40    13800.00
02282               0.40    13400.00
02283              -0.40    13200.00
02284               0.40    13000.00
02285              -0.40    12800.00
02286              -0.40    12600.00
02287               0.40    12200.00
02288               0.40    12000.00
02289              -0.80    11800.00
02290               0.00    11400.00
02291               0.40    11000.00
02292              -0.80    10800.00
02293              -0.40    10400.00
02294               0.80    10200.00
02295              -0.40    10000.00
02296              -0.40     9600.00
02297               0.40     9400.00
02298              -0.40     9200.00
02299              -0.80     8600.00
02300               0.40     8400.00
02301              -0.40     8000.00
02302              -0.40     7800.00
02303               0.40     7400.00
02304              -0.40     7200.00
02305              -0.80     6800.00
02306              -0.40     6400.00
02307              -0.80     6200.00
02308              -0.80     5800.00
02309              -0.40     5600.00
02310              -0.40     5200.00
02311              -0.40     4800.00
02312              -0.80     4400.00
02313              -0.80     4000.00
02314              -0.80     3800.00
02315              -0.40     3400.00
02316              -0.80     3200.00
02317              -0.40     2800.00
02318              -0.80     2200.00
02319              -0.80     2000.00
02320              -0.40     1600.00
02321              -0.40     1400.00
02322              -0.80      800.00
02323              -0.80      600.00
02324              -0.40      400.00
02325               0.40        0.00
02326               0.40     -400.00
02327               2.00     -800.00
02328               2.00    -1000.00
02329              -2.80    -1400.00
02330              -0.80    -1600.00
02331               2.00    -2000.00
02332              -0.80    -2200.00
02333               0.80    -2600.00
02334              16.40    -3000.00
02335              28.80    -3800.00
02336             -45.60    -4200.00
02337             -29.20    -4400.00
02338              39.60    -4800.00
02339              -0.40    -5000.00
02340             -50.00    -4600.00
02341              50.00    -5600.00
02342              40.80    -6000.00
02343             -50.00    -5600.00
02344              50.00    -6800.00
02345              24.80    -6600.00
02346             -50.00    -7000.00
02347               8.80    -7800.00
02348               6.40    -7400.00
02349              31.60    -8400.00
02350             -47.20    -8200.00
02351              -1.20    -8800.00
02352              50.00    -9200.00
02353             -48.80    -9200.00
02354             -16.40    -9800.00
02355              36.40    -9800.00
02356               4.40   -10200.00
02357             -42.80   -10400.00
02358              22.80   -10800.00
02359              31.60   -11200.00
02360             -43.60   -11400.00
02361               3.60   -12000.00
02362              22.00   -12000.00
02363              -9.20   -12400.00
02364             -20.40   -12600.00
02365              18.80   -12800.00
02366              11.60   -13000.00
02367             -22.00   -13200.00
02368               2.40   -13800.00
02369              13.60   -13800.00
02370              -8.80   -14200.00
02371             -14.00   -14400.00
02372              18.40   -14600.00
02373               0.80   -14600.00
02374             -14.00   -15200.00
02375               5.60   -15200.00
02376               6.80   -15400.00
02377             -10.00   -15600.00
02378              -5.20   -15800.00
02379              11.60   -16000.00
02380              -3.60   -16000.00
02381              -7.60   -16400.00
02382               6.80   -16600.00
02383               1.20   -16800.00
02384             -10.00   -16800.00
02385               2.40   -17000.00
02386               4.40   -17200.00
02387              -4.80   -17200.00
02388              -2.80   -17400.00
02389               5.20   -17600.00
02390              -0.80   -17600.00
02391              -7.20   -17800.00
02392               4.40   -17800.00
02393               0.80   -18000.00
02394              -4.80   -18000.00
02395               2.00   -18200.00
02396               2.00   -18400.00
02397              -2.40   -18400.00
02398              -2.40   -18400.00
02399               2.00   -18600.00
02400              -0.80   -18600.00
02401              -3.60   -18600.00
02402               0.80   -18600.00
02403               1.20   -18800.00
02404              -1.20   -18800.00
02405              -0.80   -18600.00
02406               1.20   -18800.00
02407              -0.80   -18600.00
02408              -2.40   -18600.00
02409               1.20   -18600.00
02410               0.40   -18800.00
02411              -2.40   -18800.00
02412              -0.40   -18800.00
02413               0.80   -18800.00
02414              -0.80   -18800.00
02415              -2.00   -18800.00
02416               0.00   -18600.00
02417               0.80   -18600.00
02418              -1.20   -18400.00
02419               0.00   -18400.00
02420               0.40   -18400.00
02421              -0.80   -18200.00
02422              -0.80   -18000.00
02423               0.00   -18000.00
02424              -0.40   -18000.00
02425              -1.20   -17800.00
02426              -0.80   -17400.00
02427               0.80   -17600.00
02428              -1.20   -17400.00
02429              -0.80   -17200.00
02430               0.40   -17200.00
02431              -0.40   -17000.00
02432              -1.20   -16800.00
02433              -0.80   -16600.00
02434              -0.40   -16800.00
02435              -1.20   -16400.00
02436              -0.40   -16200.00
02437              -0.40   -16200.00
02438              -1.20   -15800.00
02439              -0.80   -15600.00
02440              -0.40   -15400.00
02441              -0.80   -15200.00
02442              -1.20   -15000.00
02443              -1.20   -14800.00
02444               0.40   -14600.00
02445              -1.20   -14400.00
02446              -0.80   -14400.00
02447               0.40   -13800.00
02448              -0.80   -13800.00
02449              -0.80   -13600.00
02450              -0.40   -13200.00
02451              -0.40   -13000.00
02452              -1.20   -12600.00
02453              -1.20   -12400.00
02454               0.00   -12200.00
02455              -1.20   -12000.00
02456              -1.20   -11600.00
02457              -0.80   -11400.00
02458              -0.40   -11000.00
02459              -0.40   -10800.00
02460              -0.80   -10400.00
02461               0.40   -10000.00
02462              -0.40    -9800.00
02463              -0.80    -9600.00
02464               0.40    -9200.00
02465              -0.80    -9000.00
02466              -1.20    -8600.00
02467              -0.40    -8200.00
02468              -0.40    -8000.00
02469              -0.40    -7600.00
02470              -0.40    -7200.00
02471              -0.80    -7000.00
02472               0.40    -6600.00
02473               0.00    -6400.00
02474              -1.20    -6000.00
02475               0.40    -5600.00
02476               0.80    -5200.00
02477              -1.20    -5000.00
02478               0.00    -4600.00
02479               0.40    -4200.00
02480              -1.60    -3800.00
02481              -0.40    -3600.00
02482               0.80    -3200.00
02483              -1.20    -2800.00
02484              -0.40    -2600.00
02485               0.80    -2200.00
02486               0.00    -1800.00
02487              -0.80    -1600.00
02488               0.40    -1000.00
02489              -0.80     -800.00
02490              -0.40     -400.00
02491               0.40        0.00
02492               0.00      200.00
02493               0.80      600.00
02494               4.00      800.00
02495              -2.00     1200.00
02496              -2.00     1400.00
02497               2.40     1800.00
02498               0.80     2000.00
02499              -2.40     2200.00
02500               3.60     2800.00
02501              12.00     3200.00
02502              21.60     3800.00
02503             -24.80     4200.00
02504             -36.40     4600.00
02505              21.20     4800.00
02506              19.60     5000.00
02507             -42.40     5200.00
02508             -14.00     5400.00
02509              50.00     6200.00
02510             -18.80     6000.00
02511             -50.00     6800.00
02512              50.00     6800.00
02513              -0.40     7000.00
02514             -50.00     7600.00
02515              22.80     7800.00
02516              24.40     8400.00
02517             -16.40     8600.00
02518             -29.60     8800.00
02519              40.40     9200.00
02520               9.20     9400.00
02521             -48.40     9800.00
02522              18.40    10000.00
02523              31.60    10200.00
02524             -28.00    10800.00
02525             -15.20    11000.00
02526              37.20    11200.00
02527              -7.20    11600.00
02528             -28.40    11800.00
02529              20.00    12000.00
02530              10.40    12400.00
02531             -19.20    12600.00
02532              -0.80    12800.00
02533              20.00    13200.00
02534              -9.20    13400.00
02535             -12.40    13600.00
02536              14.80    13800.00
02537               2.00    14200.00
02538             -14.00    14200.00
02539               5.20    14800.00
02540              13.20    14800.00
02541             -11.60    15000.00
02542              -3.60    15200.00
02543              10.80    15600.00
02544              -3.60    15600.00
02545              -7.60    15800.00
02546               6.80    16000.00
02547               4.40    16200.00
02548              -7.20    16400.00
02549               0.80    16600.00
02550               6.00    16800.00
02551              -5.20    16800.00
02552              -3.60    17000.00
02553               6.80    17200.00
02554               0.00    17400.00
02555              -4.40    17600.00
02556               3.20    17400.00
02557               3.60    17800.00
02558              -4.40    17800.00
02559              -0.80    17800.00
02560               4.40    18000.00
02561              -2.40    18200.00
02562              -2.40    18200.00
02563               3.60    18400.00
02564              -0.40    18400.00
02565              -2.80    18600.00
02566               0.80    18400.00
02567               1.20    18600.00
02568              -1.60    18600.00
02569              -0.80    18800.00
02570               2.00    18800.00
02571              -0.40    18600.00
02572              -1.20    18800.00
02573               0.40    18800.00
02574               0.80    18800.00
02575              -1.20    18800.00
02576              -0.40    18800.00
02577               1.60    18800.00
02578              -1.20    18800.00
02579              -1.20    18800.00
02580               1.20    18800.00
02581               0.40    18800.00
02582              -1.20    18800.00
02583               0.40    18600.00
02584               0.80    18400.00
02585              -0.80    18400.00
02586              -0.40    18400.00
02587               0.00    18400.00
02588               0.40    18200.00
02589              -0.40    18000.00
02590               0.00    18000.00
02591              -0.40    18000.00
02592               0.00    17800.00
02593               0.00    17600.00
02594               0.40    17600.00
02595               0.80    17200.00
02596              -0.40    17400.00
02597               0.40    17000.00
02598              -0.40    17200.00
02599              -0.40    16800.00
02600               0.40    16600.00
02601               0.00    16400.00
02602              -0.40    16400.00
02603               0.40    16000.00
02604              -0.80    16000.00
02605               0.40    15800.00
02606               0.40    15600.00
02607              -0.40    15400.00
02608               0.80    15000.00
02609              -1.20    15000.00
02610              -0.40    14800.00
02611               0.80    14600.00
02612              -2.00    14400.00
02613               0.40    14000.00
02614               0.80    13600.00
02615              -1.20    13600.00
02616              -0.40    13400.00
02617               1.20    13200.00
02618              -0.80    12800.00
02619              -0.40    12600.00
02620               1.20    12400.00
02621              -0.40    12000.00
02622              -0.40    11600.00
02623               0.00    11400.00
02624              -0.80    11200.00
02625              -0.80    10800.00
02626              -0.40    10600.00
02627              -0.40    10400.00
02628              -0.80    10000.00
02629              -0.40     9600.00
02630              -0.40     9400.00
02631              -1.20     9200.00
02632               0.40     8600.00
02633              -0.40     8400.00
02634              -0.40     8000.00
02635              -0.40     8000.00
02636               0.00     7600.00
02637              -0.40     7200.00
02638              -2.00     6800.00
02639               0.00     6600.00
02640               1.20     6200.00
02641              -0.80     6000.00
02642              -1.20     5600.00
02643               0.80     5400.00
02644              -0.40     4800.00
02645              -2.00     4600.00
02646               0.00     4000.00
02647               0.80     3800.00
02648              -1.20     3600.00
02649              -0.80     3000.00
02650               0.80     2800.00
02651              -0.80     2400.00
02652              -1.20     2200.00
02653               0.00     1800.00
02654               0.00     1400.00
02655               0.00     1000.00
02656              -0.80      600.00
02657              -0.80      200.00
02658               0.40        0.00
02659              -0.40     -200.00
02660               0.80     -800.00
02661               4.00    -1000.00
02662              -2.00    -1200.00
02663              -2.00    -1600.00
02664               2.40    -1800.00
02665               0.40    -2400.00
02666              -1.20    -2400.00
02667              12.80    -2800.00
02668              34.00    -3800.00
02669             -35.60    -4200.00
02670             -42.40    -4600.00
02671              34.00    -4600.00
02672              13.20    -5000.00
02673             -50.00    -4800.00
02674              40.40    -5000.00
02675              50.00    -6000.00
02676             -50.00    -5600.00
02677              38.80    -6600.00
02678              48.40    -6600.00
02679             -50.00    -7200.00
02680               5.20    -7600.00
02681               4.00    -7400.00
02682              31.60    -8200.00
02683             -33.60    -8200.00
02684             -20.40    -8600.00
02685              50.00    -9200.00
02686             -36.40    -9000.00
02687             -28.40    -9800.00
02688              34.00   -10000.00
02689              13.60   -10200.00
02690             -41.20   -10600.00
02691               8.80   -10600.00
02692              42.00   -11200.00
02693             -39.60   -11400.00
02694              -6.80   -12000.00
02695              24.40   -12000.00
02696              -4.40   -12400.00
02697             -22.00   -12600.00
02698              12.40   -12800.00
02699              18.00   -13200.00
02700             -20.40   -13200.00
02701              -2.40   -13600.00
02702              14.40   -13800.00
02703              -4.40   -14000.00
02704             -18.00   -14200.00
02705              15.20   -14600.00
02706               6.00   -14800.00
02707             -15.20   -14800.00
02708               2.80   -15200.00
02709               8.40   -15400.00
02710              -7.60   -15600.00
02711              -7.60   -16000.00
02712              10.40   -15800.00
02713               0.40   -16200.00
02714              -9.20   -16400.00
02715               5.20   -16400.00
02716               4.40   -16600.00
02717             -10.00   -16800.00
02718               0.00   -17000.00
02719               6.00   -17000.00
02720              -4.00   -17200.00
02721              -4.00   -17400.00
02722               4.40   -17600.00
02723               0.80   -17600.00
02724              -7.60   -17800.00
02725               2.80   -18000.00
02726               2.80   -18000.00
02727              -5.20   -18000.00
02728               0.80   -18400.00
02729               2.80   -18400.00
02730              -2.40   -18400.00
02731              -3.60   -18400.00
02732               2.00   -18600.00
02733               0.40   -18600.00
02734              -4.00   -18800.00
02735               0.40   -18600.00
02736               2.00   -18800.00
02737              -2.40   -18600.00
02738              -1.20   -18800.00
02739               1.20   -18800.00
02740              -0.40   -18800.00
02741              -2.40   -18800.00
02742               1.20   -18800.00
02743               0.80   -18800.00
02744              -2.40   -18800.00
02745              -0.40   -18800.00
02746               0.80   -18800.00
02747              -1.20   -18600.00
02748              -1.60   -18800.00
02749              -0.40   -18600.00
02750               0.80   -18600.00
02751              -1.20   -18600.00
02752              -0.40   -18400.00
02753               0.40   -18400.00
02754              -0.80   -18400.00
02755              -0.80   -18200.00
02756               0.00   -18000.00
02757               0.00   -18000.00
02758              -1.20   -17800.00
02759              -0.80   -17600.00
02760               0.40   -17600.00
02761              -1.20   -17400.00
02762              -1.20   -17200.00
02763              -0.40   -17200.00
02764              -0.40   -17200.00
02765              -0.80   -16800.00
02766              -0.40   -16800.00
02767              -0.40   -16600.00
02768              -1.20   -16400.00
02769              -0.80   -16200.00
02770               0.00   -16200.00
02771              -1.20   -15800.00
02772              -0.80   -15800.00
02773              -0.40   -15400.00
02774              -0.80   -15200.00
02775              -0.80   -15000.00
02776              -1.20   -14800.00
02777              -0.40   -14600.00
02778              -0.40   -14400.00
02779              -0.80   -14400.00
02780              -0.40   -14000.00
02781              -0.40   -13600.00
02782              -0.80   -13600.00
02783              -0.40   -13200.00
02784              -0.40   -13000.00
02785              -0.40   -12800.00
02786              -0.80   -12400.00
02787              -0.40   -12200.00
02788              -0.40   -12000.00
02789              -0.80   -11600.00
02790              -0.40   -11400.00
02791              -0.40   -10800.00
02792              -0.40   -10800.00
02793              -0.80   -10600.00
02794               0.00   -10000.00
02795              -0.40    -9800.00
02796              -0.80    -9600.00
02797               0.40    -9200.00
02798              -0.80    -9000.00
02799              -0.80    -8800.00
02800               0.40    -8400.00
02801              -0.40    -8200.00
02802              -0.40    -7600.00
02803              -0.40    -7400.00
02804              -0.80    -7000.00
02805              -0.40    -6600.00
02806               0.40    -6400.00
02807              -0.40    -6000.00
02808              -0.80    -5800.00
02809               0.40    -5600.00
02810              -0.40    -5000.00
02811              -0.80    -4600.00
02812              -0.40    -4200.00
02813              -0.80    -4000.00
02814              -0.40    -3600.00
02815               0.40    -3400.00
02816              -0.40    -3000.00
02817              -0.40    -2600.00
02818               0.40    -2200.00
02819              -0.40    -1800.00
02820              -0.40    -1600.00
02821              -0.40    -1200.00
02822              -0.80    -1000.00
02823              -0.80     -400.00
02824               0.40     -200.00
02825               0.00      200.00
02826               0.40      600.00
02827               4.00      600.00
02828              -1.20      800.00
02829              -2.00     1400.00
02830               2.00     1800.00
02831               2.00     2000.00
02832              -2.00     2200.00
02833               2.40     2600.00
02834              10.40     3000.00
02835              22.80     3800.00
02836             -15.60     4000.00
02837             -41.20     4600.00
02838              13.60     4800.00
02839              26.00     5000.00
02840             -36.00     5200.00
02841             -26.00     5600.00
02842              50.00     6200.00
02843               7.20     6000.00
02844             -50.00     6600.00
02845              50.00     7000.00
02846              21.20     7000.00
02847             -50.00     7600.00
02848              14.00     7600.00
02849              28.40     8200.00
02850              -8.80     8600.00
02851             -33.20     8800.00
02852              30.80     9000.00
02853              23.20     9400.00
02854             -49.20     9600.00
02855               6.80    10000.00
02856              38.00    10200.00
02857             -22.00    10800.00
02858             -24.00    11000.00
02859              34.00    11200.00
02860               4.40    11400.00
02861             -32.40    11800.00
02862              14.40    12000.00
02863              16.40    12400.00
02864             -18.00    12600.00
02865              -5.60    12800.00
02866              21.20    13200.00
02867              -4.00    13400.00
02868             -16.40    13600.00
02869              12.40    13600.00
02870               6.00    14200.00
02871             -14.00    14400.00
02872               0.80    14800.00
02873              15.60    14800.00
02874              -7.60    15000.00
02875              -7.20    15200.00
02876              10.80    15400.00
02877              -0.80    15600.00
02878              -9.20    15800.00
02879               4.00    16000.00
02880               7.20    16200.00
02881              -6.80    16400.00
02882              -1.20    16400.00
02883               7.20    16800.00
02884              -3.20    16800.00
02885              -5.60    17000.00
02886               5.60    17200.00
02887               2.00    17400.00
02888              -5.60    17400.00
02889               2.40    17600.00
02890               4.00    17600.00
02891              -4.40    17600.00
02892              -2.40    18000.00
02893               5.20    18000.00
02894              -1.60    18200.00
02895              -3.60    18200.00
02896               3.60    18400.00
02897               0.40    18400.00
02898              -3.60    18400.00
02899               0.80    18600.00
02900               2.00    18600.00
02901              -2.40    18800.00
02902              -0.80    18800.00
02903               2.00    18800.00
02904              -0.40    18800.00
02905              -2.00    18800.00
02906              -0.40    18800.00
02907               0.80    18800.00
02908              -1.20    18800.00
02909              -0.80    18800.00
02910               0.80    18800.00
02911               0.40    18800.00
02912              -1.20    18800.00
02913               1.20    18800.00
02914               0.00    18800.00
02915              -0.80    18800.00
02916               0.80    18600.00
02917              -0.40    18600.00
02918              -0.40    18400.00
02919               0.40    18400.00
02920              -0.40    18400.00
02921              -0.40    18200.00
02922               0.80    18200.00
02923              -0.80    18000.00
02924              -0.40    18000.00
02925               0.80    17800.00
02926               0.80    17600.00
02927              -0.80    17600.00
02928               0.80    17400.00
02929               0.40    17200.00
02930              -2.00    17200.00
02931               0.40    17200.00
02932               2.00    16800.00
02933              -0.80    16600.00
02934              -1.20    16400.00
02935               1.60    16400.00
02936              -0.40    16000.00
02937              -1.20    16000.00
02938               1.20    15800.00
02939               0.40    15600.00
02940              -0.80    15400.00
02941               0.80    15200.00
02942               0.40    15000.00
02943              -0.80    14800.00
02944               0.40    14600.00
02945               0.40    14400.00
02946              -1.20    14000.00
02947               0.40    13800.00
02948               0.40    13600.00
02949              -0.80    13400.00
02950               0.00    13200.00
02951               0.40    12800.00
02952              -0.80    12400.00
02953              -0.80    12400.00
02954              -0.40    12000.00
02955              -0.40    11800.00
02956              -0.40    11400.00
02957              -0.80    11200.00
02958              -0.40    11000.00
02959               0.00    10600.00
02960              -0.80    10400.00
02961              -0.80    10000.00
02962               0.00     9600.00
02963              -0.40     9400.00
02964              -1.60     9000.00
02965               0.40     8800.00
02966               0.40     8600.00
02967              -1.20     8200.00
02968               0.00     8000.00
02969              -0.40     7600.00
02970              -0.80     7200.00
02971               0.40     7000.00
02972              -0.80     6600.00
02973              -0.40     6200.00
02974              -0.40     6000.00
02975              -0.80     5600.00
02976              -0.40     5200.00
02977              -0.40     4800.00
02978              -0.40     4600.00
02979              -0.80     4200.00
02980              -0.40     3800.00
02981               0.40     3600.00
02982              -0.40     3200.00
02983              -1.20     2800.00
02984               0.40     2400.00
02985              -0.40     2000.00
02986              -1.20     1800.00
02987               0.00     1400.00
02988               0.40     1200.00
02989              -0.80      800.00
02990              -0.40      400.00
02991               0.40        0.00
02992               0.40     -200.00
02993               1.20     -600.00
02994               3.60     -800.00
02995              -2.00    -1200.00
02996              -2.00    -1600.00
02997               2.40    -1800.00
02998               0.40    -2200.00
02999              -1.20    -2400.00
03000              10.40    -2800.00
03001              34.40    -3600.00
03002             -23.60    -4200.00
03003             -50.00    -4400.00
03004              26.00    -4400.00
03005              25.20    -4800.00
03006             -50.00    -4800.00
03007              15.20    -5000.00
03008              50.00    -6000.00
03009             -50.00    -5600.00
03010              10.40    -6400.00
03011              50.00    -6800.00
03012             -50.00    -6800.00
03013              -2.40    -7600.00
03014               3.20    -7400.00
03015              29.60    -8000.00
03016             -17.20    -8400.00
03017             -38.00    -8400.00
03018              50.00    -9200.00
03019             -20.00    -9200.00
03020             -40.40    -9800.00
03021              29.20    -9800.00
03022              20.80   -10200.00
03023             -36.40   -10400.00
03024              -5.20   -10600.00
03025              48.40   -11200.00
03026             -31.60   -11400.00
03027             -17.20   -11800.00
03028              24.80   -12000.00
03029               0.80   -12200.00
03030             -22.00   -12400.00
03031               5.20   -12800.00
03032              22.40   -13000.00
03033             -18.00   -13200.00
03034              -7.60   -13600.00
03035              14.00   -13800.00
03036               0.40   -14000.00
03037             -19.60   -14200.00
03038              10.80   -14600.00
03039              10.80   -14800.00
03040             -15.60   -14800.00
03041              -0.40   -15400.00
03042               9.20   -15400.00
03043              -5.20   -15600.00
03044             -10.00   -15800.00
03045               8.80   -16000.00
03046               3.20   -16200.00
03047              -9.20   -16200.00
03048               2.40   -16800.00
03049               6.80   -16800.00
03050              -8.80   -16800.00
03051              -2.40   -17000.00
03052               7.20   -17200.00
03053              -2.80   -17200.00
03054              -4.00   -17400.00
03055               4.00   -17600.00
03056               2.00   -17600.00
03057              -6.80   -17800.00
03058               1.60   -17800.00
03059               2.80   -18200.00
03060              -4.80   -18400.00
03061               0.80   -18200.00
03062               2.40   -18400.00
03063              -1.20   -18400.00
03064              -2.40   -18400.00
03065               1.20   -18600.00
03066               1.20   -18600.00
03067              -2.80   -18600.00
03068              -0.80   -18600.00
03069               2.00   -18800.00
03070              -1.20   -18800.00
03071              -2.00   -18800.00
03072               0.80   -18800.00
03073               0.40   -18800.00
03074              -2.40   -18800.00
03075               0.40   -18800.00
03076               1.20   -18800.00
03077              -2.40   -18800.00
03078              -0.80   -18800.00
03079               1.20   -18800.00
03080              -0.80   -18800.00
03081              -2.00   -18600.00
03082              -0.40   -18600.00
03083               0.40   -18600.00
03084              -1.60   -18400.00
03085              -0.40   -18400.00
03086              -0.40   -18400.00
03087              -1.20   -18400.00
03088              -0.40   -18200.00
03089              -0.80   -18200.00
03090              -0.80   -17800.00
03091               0.00   -17800.00
03092              -2.00   -17800.00
03093               0.00   -17600.00
03094              -0.40   -17400.00
03095              -2.00   -17400.00
03096              -0.40   -17200.00
03097               0.80   -17000.00
03098              -1.60   -17000.00
03099              -1.20   -16800.00
03100               0.40   -16600.00
03101              -1.20   -16800.00
03102              -1.20   -16200.00
03103               0.40   -16000.00
03104              -0.40   -16000.00
03105              -1.20   -15600.00
03106               0.00   -15600.00
03107              -0.40   -15400.00
03108              -1.20   -15200.00
03109              -0.80   -14800.00
03110               0.40   -14800.00
03111              -0.80   -14400.00
03112              -1.20   -14000.00
03113               0.80   -13800.00
03114              -1.20   -13800.00
03115              -0.80   -13400.00
03116               0.40   -13200.00
03117              -0.80   -13000.00
03118              -1.20   -12800.00
03119              -0.40   -12400.00
03120              -0.40   -12200.00
03121              -0.80   -12000.00
03122              -0.40   -11600.00
03123              -0.80   -11400.00
03124              -0.80   -10800.00
03125               0.40   -10800.00
03126              -0.40   -10400.00
03127              -0.80   -10000.00
03128               0.40   -10000.00
03129              -0.80    -9600.00
03130              -0.40    -9200.00
03131              -0.40    -9000.00
03132              -0.40    -8800.00
03133              -0.80    -8400.00
03134              -0.40    -8000.00
03135              -0.40    -7600.00
03136              -0.40    -7400.00
03137              -1.20    -7000.00
03138               0.40    -6800.00
03139               0.40    -6400.00
03140              -0.80    -6000.00
03141              -0.80    -5800.00
03142               0.40    -5400.00
03143               0.40    -5000.00
03144              -1.20    -4800.00
03145               0.00    -4400.00
03146              -0.80    -4000.00
03147              -0.80    -3600.00
03148              -0.80    -3400.00
03149              -0.40    -3000.00
03150              -1.20    -2600.00
03151              -0.40    -2400.00
03152               0.00    -2000.00
03153              -0.40    -1600.00
03154              -0.80    -1400.00
03155              -1.20    -1000.00
03156              -0.40     -600.00
03157               0.40     -200.00
03158               0.00      200.00
03159               0.40      400.00
03160               3.20      800.00
03161              -0.40     1000.00
03162              -2.80     1400.00
03163               1.60     1400.00
03164               2.00     2000.00
03165              -1.60     2200.00
03166               0.80     2600.00
03167               9.20     3000.00
03168              21.20     3600.00
03169              -6.00     4000.00
03170             -43.60     4400.00
03171               4.40     4800.00
03172              30.80     5000.00
03173             -26.80     5200.00
03174             -34.80     5400.00
03175              50.00     6000.00
03176              31.60     6000.00
03177             -50.00     6600.00
03178              42.40     7000.00
03179              42.40     7000.00
03180             -50.00     7800.00
03181               3.60     7800.00
03182              32.00     8200.00
03183              -2.00     8600.00
03184             -34.40     8800.00
03185              20.00     9000.00
03186              34.00     9200.00
03187             -45.60     9600.00
03188              -5.20    10000.00
03189              40.80    10200.00
03190             -14.00    10800.00
03191             -29.60    11000.00
03192              27.60    11200.00
03193              15.60    11400.00
03194             -34.00    11800.00
03195               7.20    12000.00
03196              19.60    12400.00
03197             -14.00    12600.00
03198             -10.40    12800.00
03199              19.60    13000.00
03200               2.40    13200.00
03201             -18.80    13400.00
03202               9.20    14000.00
03203               9.60    14000.00
03204             -12.40    14400.00
03205              -3.60    14600.00
03206              16.40    14800.00
03207              -4.00    15000.00
03208             -10.80    15200.00
03209              10.00    15400.00
03210               2.00    15800.00
03211              -9.20    15800.00
03212               2.00    16000.00
03213               8.00    16200.00
03214              -5.60    16400.00
03215              -3.60    16600.00
03216               6.80    16800.00
03217              -1.20    16800.00
03218              -6.80    17000.00
03219               4.40    17200.00
03220               3.60    17200.00
03221              -5.60    17400.00
03222               0.80    17600.00
03223               5.20    17600.00
03224              -2.40    17600.00
03225              -4.00    17800.00
03226               4.40    18000.00
03227              -0.40    18000.00
03228              -4.00    18200.00
03229               2.40    18200.00
03230               0.80    18400.00
03231              -2.00    18400.00
03232              -0.80    18600.00
03233               2.00    18600.00
03234              -0.40    18600.00
03235              -2.00    18600.00
03236               1.60    18800.00
03237               0.80    18600.00
03238              -2.00    18800.00
03239              -0.80    18800.00
03240               1.20    18800.00
03241              -0.80    18800.00
03242              -1.20    18800.00
03243               1.20    18800.00
03244               0.40    18600.00
03245              -1.20    18800.00
03246               0.80    18800.00
03247               0.40    18800.00
03248              -1.20    18600.00
03249               0.40    18600.00
03250               0.80    18600.00
03251              -0.40    18400.00
03252              -0.80    18400.00
03253               0.40    18400.00
03254              -0.40    18200.00
03255              -0.40    18200.00
03256               0.40    18200.00
03257               0.40    17800.00
03258               0.40    17800.00
03259               0.40    17600.00
03260               0.40    17600.00
03261              -0.40    17400.00
03262              -1.20    17200.00
03263              -0.40    17200.00
03264               1.20    16800.00
03265              -0.80    16800.00
03266               0.40    16800.00
03267               0.80    16400.00
03268              -0.40    16400.00
03269              -0.80    16200.00
03270               0.80    16000.00
03271              -0.40    15800.00
03272              -0.40    15600.00
03273               0.40    15200.00
03274               0.40    15200.00
03275              -0.40    15000.00
03276              -0.40    14800.00
03277               0.40    14600.00
03278              -0.40    14400.00
03279              -0.80    14000.00
03280               0.00    14000.00
03281               0.40    13600.00
03282              -0.40    13200.00
03283              -0.80    13200.00
03284               0.40    12800.00
03285              -0.80    12800.00
03286              -0.40    12400.00
03287               0.00    12200.00
03288              -0.40    12000.00
03289              -0.80    11600.00
03290              -0.40    11200.00
03291               0.00    11000.00
03292              -0.80    10400.00
03293              -0.80    10400.00
03294              -0.40    10000.00
03295              -0.80     9800.00
03296              -0.40     9400.00
03297              -0.40     9200.00
03298              -0.80     8800.00
03299              -0.40     8600.00
03300               0.00     8200.00
03301              -0.80     8000.00
03302              -0.40     7600.00
03303              -0.80     7400.00
03304              -0.40     7200.00
03305              -0.40     6600.00
03306              -0.80     6400.00
03307              -0.40     6000.00
03308              -0.40     5600.00
03309              -0.40     5200.00
03310              -0.40     4800.00
03311              -0.40     4600.00
03312               0.40     4400.00
03313              -0.40     3800.00
03314              -0.40     3600.00
03315               0.00     3000.00
03316              -0.40     3000.00
03317              -0.40     2400.00
03318              -0.40     2200.00
03319              -0.40     1800.00
03320              -0.80     1600.00
03321              -0.40     1200.00
03322              -0.40      800.00
03323              -0.40      400.00
03324              -0.40        0.00
03325               0.40     -400.00
03326               0.40     -600.00
03327               3.60     -800.00
03328              -1.20    -1200.00
03329              -2.00    -1600.00
03330               1.20    -1800.00
03331               0.80    -2200.00
03332              -2.00    -2400.00
03333               7.20    -2600.00
03334              32.40    -3600.00
03335             -11.60    -4200.00
03336             -50.00    -4400.00
03337              16.80    -4600.00
03338              34.80    -4800.00
03339             -46.40    -4800.00
03340              -8.80    -5000.00
03341              50.00    -6000.00
03342             -50.00    -5800.00
03343             -21.20    -6400.00
03344              50.00    -6800.00
03345             -49.20    -6800.00
03346             -14.00    -7600.00
03347               4.80    -7400.00
03348              24.80    -8000.00
03349              -2.00    -8400.00
03350             -50.00    -8400.00
03351              50.00    -9200.00
03352              -1.20    -9000.00
03353             -49.60    -9600.00
03354              22.80    -9800.00
03355              26.80   -10000.00
03356             -29.20   -10600.00
03357             -18.40   -10400.00
03358              50.00   -11200.00
03359             -20.40   -11200.00
03360             -27.60   -11600.00
03361              24.40   -12000.00
03362               6.80   -12200.00
03363             -21.60   -12400.00
03364              -2.00   -12800.00
03365              25.20   -13000.00
03366             -13.60   -13200.00
03367             -12.40   -13600.00
03368              13.60   -13800.00
03369               4.00   -14000.00
03370             -18.80   -14200.00
03371               5.20   -14400.00
03372              15.60   -14600.00
03373             -14.00   -14800.00
03374              -3.60   -15200.00
03375              10.40   -15200.00
03376              -2.40   -15600.00
03377             -12.00   -15800.00
03378               6.80   -16000.00
03379               6.00   -16000.00
03380              -9.60   -16400.00
03381               0.80   -16400.00
03382               8.40   -16600.00
03383              -7.60   -16800.00
03384              -5.20   -17000.00
03385               7.20   -17000.00
03386              -1.20   -17200.00
03387              -5.60   -17200.00
03388               2.00   -17400.00
03389               4.40   -17600.00
03390              -6.40   -17800.00
03391              -1.20   -17800.00
03392               5.60   -18000.00
03393              -4.40   -18200.00
03394              -2.00   -18400.00
03395               3.60   -18400.00
03396              -0.80   -18400.00
03397              -4.00   -18600.00
03398               0.40   -18400.00
03399               2.40   -18600.00
03400              -2.40   -18600.00
03401              -2.00   -18600.00
03402               2.40   -18800.00
03403              -0.80   -18600.00
03404              -2.80   -18800.00
03405               0.40   -18800.00
03406               0.80   -18800.00
03407              -2.40   -18800.00
03408              -0.80   -18800.00
03409               2.00   -18800.00
03410              -2.00   -18800.00
03411              -2.00   -18800.00
03412               0.80   -18600.00
03413              -0.40   -18600.00
03414              -2.00   -18800.00
03415              -0.80   -18600.00
03416               0.80   -18600.00
03417              -1.20   -18600.00
03418              -1.20   -18400.00
03419               0.00   -18400.00
03420              -0.80   -18200.00
03421              -1.20   -18200.00
03422              -0.40   -18000.00
03423              -0.40   -18000.00
03424              -1.20   -17800.00
03425              -1.20   -17600.00
03426              -0.40   -17600.00
03427              -0.40   -17400.00
03428              -1.20   -17200.00
03429              -0.80   -17400.00
03430              -0.40   -17200.00
03431              -0.80   -17000.00
03432              -1.20   -16800.00
03433              -0.40   -16800.00
03434              -0.40   -16400.00
03435              -1.20   -16400.00
03436               0.40   -16000.00
03437               0.40   -16000.00
03438              -1.60   -15800.00
03439              -0.40   -15600.00
03440               0.40   -15200.00
03441              -1.20   -15000.00
03442              -1.20   -14800.00
03443               0.40   -14600.00
03444               0.40   -14400.00
03445              -0.80   -14200.00
03446               0.40   -13800.00
03447              -0.40   -13800.00
03448              -1.20   -13200.00
03449              -0.40   -13200.00
03450               0.40   -13000.00
03451              -1.20   -12800.00
03452              -0.80   -12400.00
03453              -0.40   -12200.00
03454              -0.40   -12000.00
03455              -0.80   -11800.00
03456               0.00   -11400.00
03457              -0.80   -11000.00
03458              -0.40   -10800.00
03459               0.40   -10400.00
03460              -0.80   -10400.00
03461              -0.80   -10000.00
03462               0.40    -9600.00
03463              -0.80    -9200.00
03464               0.40    -9000.00
03465               0.40    -8800.00
03466              -0.80    -8600.00
03467              -0.40    -8200.00
03468              -0.40    -7800.00
03469              -1.20    -7600.00
03470               0.00    -7200.00
03471              -0.40    -6800.00
03472              -0.40    -6600.00
03473              -0.80    -6000.00
03474               0.00    -5800.00
03475              -1.20    -5600.00
03476               0.40    -5000.00
03477              -1.20    -4600.00
03478              -0.80    -4400.00
03479              -0.40    -4000.00
03480              -0.80    -3600.00
03481              -0.40    -3600.00
03482              -0.40    -3200.00
03483              -0.80    -2600.00
03484               0.40    -2400.00
03485              -0.40    -2000.00
03486              -0.40    -1600.00
03487              -0.40    -1200.00
03488              -0.80    -1000.00
03489              -0.40     -800.00
03490              -0.40     -200.00
03491              -0.40        0.00
03492               0.40      400.00
03493               2.40      800.00
03494               0.80      800.00
03495              -2.40     1400.00
03496               0.80     1600.00
03497               2.40     2000.00
03498              -0.80     2200.00
03499              -0.80     2400.00
03500               7.60     3000.00
03501              19.60     3600.00
03502               3.60     4000.00
03503             -43.60     4600.00
03504              -5.20     4400.00
03505              32.80     5000.00
03506             -16.40     5200.00
03507             -42.00     5200.00
03508              42.40     6000.00
03509              50.00     6200.00
03510             -50.00     6200.00
03511              20.40     6800.00
03512              50.00     7000.00
03513             -50.00     7400.00
03514              -8.80     7800.00
03515              34.40     8200.00
03516               4.80     8400.00
03517             -34.00     8800.00
03518               7.20     9200.00
03519              42.40     9200.00
03520             -38.00     9600.00
03521             -18.00    10000.00
03522              42.00    10200.00
03523              -5.20    10400.00
03524             -33.60    11000.00
03525              20.80    11000.00
03526              25.20    11400.00
03527             -32.80    11600.00
03528              -0.80    12000.00
03529              23.20    12400.00
03530             -10.00    12600.00
03531             -14.00    12800.00
03532              16.80    13000.00
03533               7.20    13200.00
03534             -19.60    13600.00
03535               4.40    13600.00
03536              12.00    14000.00
03537             -10.00    14200.00
03538              -7.60    14600.00
03539              15.20    14800.00
03540               0.00    14800.00
03541             -13.20    15200.00
03542               7.60    15200.00
03543               5.20    15600.00
03544             -10.00    15800.00
03545              -0.80    16000.00
03546              10.00    16400.00
03547              -4.00    16400.00
03548              -5.20    16600.00
03549               6.80    16600.00
03550              -0.80    16800.00
03551              -7.60    17000.00
03552               2.80    17200.00
03553               4.40    17200.00
03554              -4.40    17400.00
03555               0.40    17400.00
03556               5.60    17800.00
03557              -1.20    17600.00
03558              -4.40    18000.00
03559               2.80    18000.00
03560               0.40    18000.00
03561              -5.60    18200.00
03562               0.80    18200.00
03563               2.00    18400.00
03564              -2.00    18400.00
03565               0.80    18600.00
03566               3.60    18800.00
03567               0.80    18800.00
03568              -2.00    18800.00
03569              -0.40    18800.00
03570              -0.40    18800.00
03571              -2.80    18600.00
03572              -1.20    18600.00
03573               2.00    18800.00
03574               1.20    18800.00
03575               0.40    18800.00
03576               2.40    18800.00
03577               0.80    18800.00
03578              -2.00    18800.00
03579              -1.20    18800.00
03580              -0.80    18800.00
03581              -1.20    18800.00
03582               0.40    18800.00
03583               2.40    18600.00
03584               2.00    18400.00
03585               0.00    18200.00
03586               0.40    18400.00
03587              -1.20    18200.00
03588              -2.00    18000.00
03589              -0.80    18000.00
03590               0.40    18000.00
03591               0.40    17800.00
03592               0.80    17600.00
03593               1.60    17600.00
03594               0.40    17400.00
03595              -1.20    17200.00
03596              -0.80    17200.00
03597               0.40    17000.00
03598              -2.00    17000.00
03599               0.40    16800.00
03600               0.80    16600.00
03601               0.00    16400.00
03602               0.40    16000.00
03603               0.40    16000.00
03604              -0.80    15800.00
03605              -0.40    15600.00
03606              -0.80    15400.00
03607              -0.40    15200.00
03608              -0.40    15000.00
03609              -0.40    14800.00
03610               0.40    14400.00
03611               0.40    14400.00
03612              -0.80    14200.00
03613              -0.80    14000.00
03614               0.40    13600.00
03615              -1.20    13400.00
03616              -1.20    13200.00
03617               0.40    13000.00
03618              -0.80    12600.00
03619              -0.80    12400.00
03620               0.80    12200.00
03621               0.40    11800.00
03622              -1.20    11800.00
03623               0.00    11200.00
03624              -0.40    11000.00
03625              -2.00    10800.00
03626              -0.80    10400.00
03627               0.40    10200.00
03628              -1.20     9800.00
03629               0.40     9600.00
03630               0.80     9200.00
03631              -0.40     9000.00
03632              -0.40     8600.00
03633               0.40     8400.00
03634              -0.80     8000.00
03635              -0.80     7800.00
03636               0.40     7200.00
03637               0.00     7000.00
03638              -0.40     6800.00
03639               0.40     6400.00
03640              -0.40     6000.00
03641              -0.80     5800.00
03642              -0.40     5400.00
03643              -1.20     4800.00
03644              -0.40     4600.00
03645               0.40     4400.00
03646              -0.40     3800.00
03647               0.40     3600.00
03648               0.40     3200.00
03649              -0.40     2800.00
03650              -0.80     2400.00
03651              -0.80     2200.00
03652              -0.80     2000.00
03653               0.40     1600.00
03654              -0.40     1200.00
03655               0.40      800.00
03656               0.00      400.00
03657              -0.40      200.00
03658               0.40     -200.00
03659              -0.40     -400.00
03660               2.80     -800.00
03661              -0.40    -1000.00
03662              -2.40    -1600.00
03663               0.80    -1600.00
03664               2.80    -2000.00
03665              -2.40    -2400.00
03666               4.40    -2600.00
03667              28.80    -3400.00
03668               0.80    -4000.00
03669             -50.00    -4200.00
03670               6.00    -4600.00
03671              40.80    -4800.00
03672             -34.80    -5000.00
03673             -31.20    -4600.00
03674              50.00    -5800.00
03675             -50.00    -5600.00
03676             -49.20    -6000.00
03677              50.00    -6800.00
03678             -34.40    -6600.00
03679             -26.40    -7600.00
03680               5.60    -7400.00
03681              19.60    -7800.00
03682              13.60    -8400.00
03683             -50.00    -8200.00
03684              47.20    -9000.00
03685              20.40    -9200.00
03686             -50.00    -9600.00
03687              12.80   -10000.00
03688              32.80   -10000.00
03689             -20.40   -10400.00
03690             -30.00   -10600.00
03691              48.00   -11000.00
03692              -6.00   -11400.00
03693             -36.40   -11600.00
03694              21.60   -12000.00
03695              12.40   -12200.00
03696             -20.00   -12400.00
03697              -8.00   -12600.00
03698              26.80   -12800.00
03699              -7.60   -13200.00
03700             -16.80   -13400.00
03701              11.60   -13800.00
03702               8.00   -14000.00
03703             -18.40   -14200.00
03704               0.40   -14400.00
03705              18.80   -14800.00
03706             -12.00   -14800.00
03707              -6.80   -15200.00
03708              10.40   -15400.00
03709               0.00   -15400.00
03710             -12.40   -15600.00
03711               4.40   -16000.00
03712               8.80   -16200.00
03713              -8.80   -16200.00
03714              -1.20   -16400.00
03715               8.80   -16600.00
03716              -5.60   -16800.00
03717              -7.20   -16800.00
03718               6.80   -17000.00
03719               0.80   -17200.00
03720              -6.00   -17200.00
03721               1.20   -17400.00
03722               5.20   -17600.00
03723              -6.00   -17800.00
03724              -2.80   -17800.00
03725               6.00   -18000.00
03726              -3.20   -18000.00
03727              -2.40   -18400.00
03728               3.60   -18200.00
03729              -0.40   -18400.00
03730              -4.00   -18400.00
03731               0.40   -18600.00
03732               2.00   -18600.00
03733              -2.40   -18600.00
03734              -2.00   -18600.00
03735               2.00   -18800.00
03736              -0.80   -18600.00
03737              -2.40   -18800.00
03738               0.40   -18600.00
03739               0.40   -18800.00
03740              -2.00   -18800.00
03741              -1.20   -18800.00
03742               1.20   -18800.00
03743              -2.00   -18800.00
03744              -1.20   -18800.00
03745               0.40   -18800.00
03746              -0.80   -18800.00
03747              -1.60   -18800.00
03748              -1.20   -18600.00
03749              -0.40   -18600.00
03750              -0.80   -18600.00
03751              -1.20   -18600.00
03752              -0.40   -18400.00
03753              -0.80   -18400.00
03754              -1.20   -18000.00
03755              -0.80   -18200.00
03756               0.80   -17800.00
03757              -1.20   -18000.00
03758              -1.60   -17800.00
03759               0.40   -17600.00
03760              -0.40   -17400.00
03761              -2.00   -17400.00
03762               0.00   -17200.00
03763               0.40   -17200.00
03764              -1.20   -17000.00
03765              -0.40   -16800.00
03766               0.40   -16800.00
03767              -0.80   -16400.00
03768              -1.20   -16200.00
03769               0.40   -16000.00
03770              -0.80   -16000.00
03771              -1.20   -15800.00
03772              -0.40   -15600.00
03773              -0.40   -15400.00
03774              -0.80   -15200.00
03775              -0.80   -14800.00
03776              -0.80   -14600.00
03777               0.40   -14400.00
03778              -0.40   -14400.00
03779              -0.80   -14000.00
03780              -1.20   -13800.00
03781               0.40   -13600.00
03782               0.40   -13200.00
03783              -1.60   -13000.00
03784              -0.40   -12800.00
03785              -0.40   -12600.00
03786              -1.20   -12400.00
03787              -1.20   -12000.00
03788               0.80   -11800.00
03789              -0.40   -11400.00
03790              -1.20   -11000.00
03791               0.40   -10800.00
03792               0.40   -10600.00
03793              -1.20   -10200.00
03794              -0.80   -10000.00
03795              -0.40    -9800.00
03796               0.00    -9400.00
03797              -0.40    -9000.00
03798              -2.00    -8800.00
03799              -0.80    -8400.00
03800               0.00    -8200.00
03801              -1.20    -8000.00
03802              -0.80    -7400.00
03803               0.80    -7200.00
03804              -0.80    -6800.00
03805              -1.20    -6400.00
03806              -0.80    -6200.00
03807              -0.40    -6000.00
03808              -1.20    -5400.00
03809               0.40    -5200.00
03810              -0.80    -4800.00
03811              -0.40    -4400.00
03812              -1.20    -4000.00
03813              -0.80    -3600.00
03814              -0.40    -3400.00
03815              -0.40    -3000.00
03816              -1.20    -2800.00
03817               0.40    -2400.00
03818              -0.40    -2000.00
03819              -0.40    -1600.00
03820               0.00    -1400.00
03821              -0.40    -1000.00
03822              -0.80     -800.00
03823               0.40     -400.00
03824               0.40        0.00
03825               0.00      400.00
03826               2.40      800.00
03827               1.60      800.00
03828              -2.80     1400.00
03829               0.80     1600.00
03830               2.00     2000.00
03831              -0.40     2200.00
03832              -0.80     2400.00
03833               6.00     2800.00
03834              18.00     3600.00
03835              11.20     4000.00
03836             -40.80     4400.00
03837             -15.20     4600.00
03838              33.20     4800.00
03839              -6.00     5200.00
03840             -45.60     5200.00
03841              28.00     5800.00
03842              50.00     6000.00
03843             -50.00     6200.00
03844              -2.40     7000.00
03845              50.00     6800.00
03846             -49.20     7400.00
03847             -21.20     7800.00
03848              34.00     8200.00
03849              10.80     8400.00
03850             -30.00     8600.00
03851              -4.40     8800.00
03852              45.60     9200.00
03853             -26.40     9400.00
03854             -28.40    10000.00
03855              37.20    10200.00
03856               6.00    10400.00
03857             -34.40    10800.00
03858              11.60    11000.00
03859              32.40    11400.00
03860             -29.20    11600.00
03861              -8.80    12000.00
03862              23.60    12000.00
03863              -4.80    12600.00
03864             -16.80    12800.00
03865              13.20    12800.00
03866              12.00    13200.00
03867             -18.40    13400.00
03868              -0.40    14000.00
03869              13.20    13800.00
03870              -7.20    14200.00
03871             -10.40    14400.00
03872              12.40    14800.00
03873               5.20    14800.00
03874             -14.00    15000.00
03875               4.40    15400.00
03876               7.60    15600.00
03877              -7.60    15800.00
03878              -4.00    15800.00
03879               9.20    16200.00
03880              -0.80    16400.00
03881              -6.80    16400.00
03882               4.40    16600.00
03883               2.80    16800.00
03884              -7.60    16800.00
03885               0.80    17200.00
03886               6.00    17200.00
03887              -4.00    17400.00
03888              -2.40    17600.00
03889               5.20    17600.00
03890               0.40    17600.00
03891              -5.60    17800.00
03892               2.40    18000.00
03893               3.60    18200.00
03894              -4.40    18200.00
03895               0.80    18200.00
03896               2.80    18400.00
03897              -2.00    18400.00
03898              -1.20    18600.00
03899               2.40    18400.00
03900               0.40    18400.00
03901              -2.40    18600.00
03902               0.80    18600.00
03903               2.00    18800.00
03904              -1.20    18800.00
03905              -1.20    18800.00
03906               1.60    18800.00
03907              -0.40    18800.00
03908              -1.20    18800.00
03909               0.80    18800.00
03910               1.20    18800.00
03911              -1.20    18800.00
03912               0.40    18800.00
03913               1.60    18800.00
03914              -0.40    18800.00
03915              -0.40    18600.00
03916               0.40    18800.00
03917               0.40    18400.00
03918              -0.80    18400.00
03919              -0.40    18200.00
03920               0.40    18200.00
03921               0.40    18200.00
03922              -0.40    18000.00
03923               0.40    17800.00
03924               0.80    18000.00
03925              -0.80    17800.00
03926              -0.40    17400.00
03927               0.40    17400.00
03928              -0.80    17200.00
03929              -0.80    17200.00
03930               1.20    17200.00
03931              -0.80    16800.00
03932              -1.20    16800.00
03933               0.40    16600.00
03934              -0.40    16400.00
03935              -0.80    16400.00
03936               0.00    16000.00
03937               0.40    15800.00
03938              -0.40    15600.00
03939              -0.40    15400.00
03940               0.40    15400.00
03941              -0.40    15200.00
03942              -0.80    14800.00
03943              -0.40    14400.00
03944               0.40    14400.00
03945              -0.40    14200.00
03946              -0.40    14000.00
03947              -0.40    13600.00
03948               0.00    13600.00
03949              -0.40    13000.00
03950              -0.40    13200.00
03951              -0.40    12800.00
03952              -0.40    12600.00
03953              -0.80    12200.00
03954               0.00    12000.00
03955              -0.40    11600.00
03956              -0.40    11200.00
03957              -0.40    11000.00
03958               0.40    10800.00
03959              -0.40    10400.00
03960              -0.80    10200.00
03961              -0.40     9800.00
03962               0.00     9600.00
03963              -0.80     9200.00
03964              -0.40     9000.00
03965               0.40     8600.00
03966              -0.40     8400.00
03967              -0.80     8000.00
03968               0.40     7800.00
03969              -0.40     7600.00
03970              -1.20     7000.00
03971               0.40     7000.00
03972              -0.40     6400.00
03973              -0.80     6200.00
03974              -0.80     6000.00
03975              -0.40     5400.00
03976               0.00     4800.00
03977               0.40     4800.00
03978              -1.20     4400.00
03979               0.80     3800.00
03980              -0.40     3600.00
03981              -1.20     3200.00
03982               0.80     3000.00
03983               0.40     2600.00
03984              -1.20     2400.00
03985               0.40     2000.00
03986               0.80     1600.00
03987              -1.60     1400.00
03988               0.40      800.00
03989               0.40      600.00
03990              -1.20        0.00
03991               0.40        0.00
03992               0.80     -400.00
03993               2.00     -800.00
03994               0.80    -1000.00
03995              -1.60    -1200.00
03996              -0.80    -1800.00
03997               1.60    -2000.00
03998              -2.00    -2400.00
03999               1.20    -2600.00
04000              23.60    -3200.00
04001              15.20    -4000.00
04002             -50.00    -4400.00
04003              -7.20    -4600.00
04004              46.00    -4800.00
04005             -24.80    -4800.00
04006             -48.80    -4600.00
04007              50.00    -5600.00
04008             -17.20    -5600.00
04009             -50.00    -6000.00
04010              50.00    -6800.00
04011             -15.60    -6800.00
04012             -40.40    -7400.00
04013              10.00    -7600.00
04014              13.60    -7600.00
04015              22.00    -8400.00
04016             -50.00    -8200.00
04017              31.60    -8800.00
04018              37.20    -9200.00
04019             -50.00    -9200.00
04020               4.00   -10000.00
04021              35.20    -9800.00
04022             -10.40   -10400.00
04023             -37.20   -10600.00
04024              40.80   -11200.00
04025               8.40   -11200.00
04026             -41.20   -11400.00
04027              16.40   -12000.00
04028              16.40   -12000.00
04029             -16.80   -12400.00
04030             -14.00   -12600.00
04031              25.20   -13000.00
04032              -0.80   -13200.00
04033             -19.60   -13400.00
04034               8.80   -13600.00
04035              11.20   -14000.00
04036             -14.80   -14000.00
04037              -6.00   -14400.00
04038              19.60   -14600.00
04039              -7.20   -14800.00
04040             -10.00   -15200.00
04041               8.80   -15200.00
04042               3.20   -15400.00
04043             -12.00   -15800.00
04044               0.80   -15600.00
04045              10.80   -16000.00
04046              -7.20   -16200.00
04047              -4.00   -16400.00
04048               8.80   -16400.00
04049              -4.00   -16800.00
04050              -7.60   -16800.00
04051               5.60   -17000.00
04052               0.40   -17000.00
04053              -3.60   -17200.00
04054               0.40   -17200.00
04055               2.80   -17600.00
04056              -1.20   -17800.00
04057              -5.20   -17800.00
04058               2.80   -17800.00
04059               0.80   -18000.00
04060              -5.20   -18000.00
04061               1.20   -18200.00
04062               2.40   -18400.00
04063              -3.60   -18400.00
04064              -3.60   -18400.00
04065               3.60   -18600.00
04066              -1.20   -18600.00
04067              -4.80   -18800.00
04068               2.80   -18600.00
04069               0.40   -18800.00
04070              -3.60   -18800.00
04071               0.40   -18800.00
04072               0.80   -18800.00
04073              -1.60   -18800.00
04074              -2.80   -18800.00
04075               2.00   -18800.00
04076              -0.40   -18800.00
04077              -4.00   -18800.00
04078               0.80   -18800.00
04079               0.80   -18800.00
04080              -3.20   -18600.00
04081              -1.20   -18600.00
04082               1.60   -18600.00
04083              -2.00   -18600.00
04084              -1.20   -18600.00
04085               2.00   -18400.00
04086              -1.20   -18400.00
04087              -1.20   -18400.00
04088               0.00   -18000.00
04089              -0.80   -18000.00
04090              -0.80   -18000.00
04091              -0.80   -17600.00
04092              -0.40   -17600.00
04093              -0.80   -17600.00
04094              -1.20   -17200.00
04095              -0.80   -17200.00
04096              -0.80   -17200.00
04097               0.40   -17000.00
04098              -0.40   -16800.00
04099              -0.40   -16800.00
04100               0.40   -16600.00
04101              -1.20   -16400.00
04102              -0.40   -16200.00
04103               0.40   -16000.00
04104              -0.80   -15800.00
04105              -0.40   -15600.00
04106               0.40   -15400.00
04107              -1.20   -15200.00
04108              -1.20   -15200.00
04109              -0.80   -14600.00
04110               0.00   -14400.00
04111              -0.40   -14400.00
04112              -0.40   -14000.00
04113              -0.40   -13800.00
04114              -0.80   -13600.00
04115              -0.80   -13200.00
04116               0.40   -13000.00
04117              -0.80   -12800.00
04118              -0.80   -12600.00
04119               0.40   -12200.00
04120              -0.40   -12000.00
04121              -1.20   -12000.00
04122              -0.40   -11400.00
04123              -0.80   -11400.00
04124              -0.80   -10800.00
04125               0.00   -10600.00
04126              -0.40   -10200.00
04127              -0.80   -10000.00
04128              -0.80    -9800.00
04129              -0.40    -9400.00
04130              -0.80    -9000.00
04131              -1.20    -8800.00
04132              -0.40    -8600.00
04133              -0.40    -8200.00
04134              -1.20    -7800.00
04135              -0.80    -7600.00
04136              -0.40    -7200.00
04137              -1.20    -6800.00
04138              -0.80    -6600.00
04139               0.40    -6400.00
04140              -1.20    -6000.00
04141              -1.20    -5600.00
04142               0.80    -5000.00
04143              -1.20    -5000.00
04144              -0.80    -4600.00
04145              -0.40    -4200.00
04146              -1.20    -3800.00
04147              -0.80    -3400.00
04148               0.40    -3000.00
04149              -0.80    -2800.00
04150              -0.40    -2600.00
04151              -0.40    -2000.00
04152              -0.40    -1800.00
04153               0.00    -1400.00
04154              -0.40    -1000.00
04155              -0.80     -800.00
04156               0.40     -400.00
04157               0.00        0.00
04158              -0.40      400.00
04159               2.00      600.00
04160               3.20      800.00
04161              -2.40     1200.00
04162               0.40     1600.00
04163               2.80     2000.00
04164               0.40     2200.00
04165              -2.00     2200.00
04166               5.20     2800.00
04167              15.20     3200.00
04168              16.80     4000.00
04169             -36.40     4400.00
04170             -24.40     4600.00
04171              30.00     4800.00
04172               5.20     5200.00
04173             -46.80     5200.00
04174              10.40     5600.00
04175              50.00     6200.00
04176             -50.00     6200.00
04177             -28.40     6800.00
04178              50.00     7000.00
04179             -34.00     7200.00
04180             -35.60     7800.00
04181              32.80     8000.00
04182              16.80     8400.00
04183             -26.40     8600.00
04184             -15.60     8800.00
04185              46.80     9200.00
04186             -13.60     9400.00
04187             -38.80     9800.00
04188              31.20    10000.00
04189              16.80    10400.00
04190             -34.00    10800.00
04191               0.40    11000.00
04192              37.20    11200.00
04193             -22.00    11600.00
04194             -18.40    12000.00
04195              23.60    12000.00
04196               1.20    12600.00
04197             -20.00    12800.00
04198               7.60    13000.00
04199              16.80    13200.00
04200             -16.80    13400.00
04201              -5.20    13600.00
04202              14.80    13600.00
04203              -3.60    14200.00
04204             -13.20    14400.00
04205              10.80    14800.00
04206               8.40    14800.00
04207             -13.60    15200.00
04208               2.00    15400.00
04209               9.20    15600.00
04210              -7.20    15600.00
04211              -6.00    15800.00
04212               8.80    16000.00
04213               0.80    16400.00
04214              -7.20    16400.00
04215               3.60    16600.00
04216               4.00    16600.00
04217              -6.80    16800.00
04218              -1.20    17000.00
04219               6.80    17200.00
04220              -2.80    17200.00
04221              -2.80    17400.00
04222               4.40    17600.00
04223               1.20    17600.00
04224              -5.20    17800.00
04225               1.20    18000.00
04226               3.60    18200.00
04227              -3.60    18200.00
04228               0.00    18400.00
04229               3.60    18400.00
04230              -1.20    18400.00
04231              -1.60    18400.00
04232               2.00    18600.00
04233               0.80    18400.00
04234              -2.00    18800.00
04235               0.40    18800.00
04236               2.00    18800.00
04237              -0.80    18800.00
04238              -1.20    18800.00
04239               0.80    18800.00
04240               0.40    18800.00
04241              -1.20    18800.00
04242               0.40    18800.00
04243               1.20    18800.00
04244              -1.20    18800.00
04245               0.00    18800.00
04246               1.20    18800.00
04247              -0.80    18800.00
04248              -0.80    18800.00
04249               0.80    18800.00
04250               0.40    18400.00
04251              -0.80    18400.00
04252               0.00    18400.00
04253               0.80    18200.00
04254              -0.80    18200.00
04255              -0.40    18000.00
04256               0.00    18000.00
04257              -0.40    17600.00
04258              -0.40    17600.00
04259               0.40    17600.00
04260               0.40    17400.00
04261               0.40    17400.00
04262              -0.80    17400.00
04263               0.00    17000.00
04264              -0.40    16800.00
04265              -0.80    16600.00
04266               0.00    16600.00
04267               0.00    16400.00
04268              -0.40    16400.00
04269               0.00    16000.00
04270              -0.40    16000.00
04271              -0.40    15600.00
04272              -0.40    15600.00
04273               0.00    15200.00
04274              -0.80    15000.00
04275              -0.40    15000.00
04276              -0.40    14600.00
04277              -0.40    14600.00
04278               0.00    14200.00
04279              -0.80    14000.00
04280              -0.40    13600.00
04281               0.40    13400.00
04282              -0.40    13400.00
04283              -0.40    12800.00
04284              -0.40    12600.00
04285               0.40    12600.00
04286              -0.40    12200.00
04287              -0.40    11800.00
04288              -0.40    11600.00
04289              -0.40    11200.00
04290              -0.40    11200.00
04291              -0.40    10800.00
04292               0.00    10400.00
04293              -0.80    10400.00
04294              -0.40     9800.00
04295               0.40     9600.00
04296              -0.40     9400.00
04297              -0.40     9000.00
04298               0.40     8800.00
04299               0.00     8400.00
04300              -0.40     8000.00
04301              -0.40     8000.00
04302              -0.40     7200.00
04303              -0.40     7200.00
04304              -0.40     6800.00
04305               0.00     6400.00
04306              -0.80     6000.00
04307              -0.80     5800.00
04308              -0.40     5400.00
04309              -0.40     5200.00
04310              -0.80     4800.00
04311              -0.40     4600.00
04312              -0.40     4000.00
04313              -0.40     3600.00
04314               0.00     3200.00
04315              -0.40     3000.00
04316              -0.40     2800.00
04317              -0.40     2400.00
04318              -0.80     2000.00
04319              -0.40     1600.00
04320              -0.80     1400.00
04321              -1.20      800.00
04322              -0.40      600.00
04323              -0.40      200.00
04324              -0.40        0.00
04325               0.40     -400.00
04326               2.40     -800.00
04327               1.20    -1000.00
04328              -2.80    -1600.00
04329              -0.40    -1600.00
04330               1.20    -1800.00
04331              -1.60    -2400.00
04332               2.00    -2600.00
04333              18.40    -3200.00
04334              24.00    -4000.00
04335             -50.00    -4200.00
04336             -20.40    -4400.00
04337              42.00    -4800.00
04338              -8.80    -5000.00
04339             -50.00    -4600.00
04340              50.00    -5600.00
04341              20.00    -6000.00
04342             -50.00    -5800.00
04343              50.00    -6800.00
04344               9.20    -6600.00
04345             -50.00    -7200.00
04346              10.00    -7800.00
04347               8.80    -7400.00
04348              29.60    -8400.00
04349             -50.00    -8200.00
04350              11.20    -9000.00
04351              50.00    -9200.00
04352             -50.00    -9200.00
04353              -8.40    -9800.00
04354              36.40    -9800.00
04355              -0.80   -10400.00
04356             -42.40   -10600.00
04357              30.40   -10800.00
04358              23.20   -11200.00
04359             -43.60   -11400.00
04360               8.80   -12000.00
04361              20.00   -12000.00
04362             -12.00   -12400.00
04363             -18.40   -12400.00
04364              21.60   -12800.00
04365               7.20   -13000.00
04366             -21.60   -13400.00
04367               5.20   -13600.00
04368              13.20   -13800.00
04369             -10.80   -14200.00
04370             -11.60   -14200.00
04371              19.60   -14600.00
04372              -2.40   -14800.00
04373             -13.20   -15000.00
04374               7.20   -15200.00
04375               5.60   -15400.00
04376             -10.40   -15600.00
04377              -2.80   -16000.00
04378              11.60   -16000.00
04379              -4.40   -16200.00
04380              -6.80   -16400.00
04381               7.60   -16600.00
04382               0.40   -16800.00
04383              -9.60   -16800.00
04384               3.60   -17000.00
04385               4.00   -17200.00
04386              -5.20   -17200.00
04387              -2.40   -17600.00
04388               5.60   -17600.00
04389              -2.00   -17800.00
04390              -6.00   -17800.00
04391               5.20   -17800.00
04392              -0.40   -18000.00
04393              -4.40   -18000.00
04394               2.00   -18200.00
04395               1.60   -18400.00
04396              -3.60   -18600.00
04397              -2.40   -18600.00
04398               2.00   -18600.00
04399              -1.20   -18600.00
04400              -3.60   -18800.00
04401               1.20   -18600.00
04402               1.20   -18800.00
04403              -2.40   -18800.00
04404              -0.80   -18600.00
04405               1.20   -18800.00
04406              -1.20   -18800.00
04407              -2.00   -18800.00
04408               1.20   -18800.00
04409              -0.40   -18800.00
04410              -2.40   -18800.00
04411               0.40   -18600.00
04412               0.40   -18600.00
04413              -1.20   -18800.00
04414              -1.20   -18400.00
04415               0.40   -18600.00
04416               0.40   -18600.00
04417              -1.20   -18600.00
04418              -0.40   -18400.00
04419              -0.40   -18400.00
04420              -0.80   -18200.00
04421              -0.80   -18000.00
04422               0.00   -18000.00
04423              -0.40   -17800.00
04424              -1.20   -17800.00
04425               0.40   -17600.00
04426               0.40   -17600.00
04427              -1.20   -17400.00
04428              -0.80   -17200.00
04429               0.00   -17200.00
04430              -0.80   -17000.00
04431              -0.40   -16800.00
04432              -0.40   -16600.00
04433              -0.40   -16600.00
04434              -0.80   -16400.00
04435              -0.40   -16000.00
04436              -0.40   -16200.00
04437              -0.40   -15800.00
04438              -0.80   -15600.00
04439              -0.40   -15400.00
04440              -0.40   -15200.00
04441              -0.80   -14800.00
04442              -0.80   -14800.00
04443               0.40   -14600.00
04444              -0.40   -14400.00
04445              -0.80   -14000.00
04446              -0.40   -14000.00
04447              -0.80   -13600.00
04448              -0.80   -13200.00
04449              -0.80   -13200.00
04450              -0.80   -12800.00
04451              -0.40   -12600.00
04452              -0.80   -12400.00
04453              -0.40   -12000.00
04454              -0.80   -12000.00
04455              -0.80   -11600.00
04456              -0.80   -11200.00
04457              -0.80   -11000.00
04458              -0.40   -10600.00
04459              -0.80   -10400.00
04460              -0.80   -10000.00
04461              -0.80    -9800.00
04462              -1.20    -9400.00
04463              -0.40    -9200.00
04464              -0.80    -8800.00
04465              -0.80    -8600.00
04466              -0.80    -8200.00
04467              -0.80    -8000.00
04468              -0.40    -7600.00
04469              -1.20    -7400.00
04470              -1.20    -7000.00
04471               0.40    -6600.00
04472              -0.40    -6200.00
04473              -0.80    -6000.00
04474              -0.80    -5600.00
04475               0.00    -5200.00
04476              -0.80    -4800.00
04477              -0.80    -4600.00
04478              -0.40    -4200.00
04479              -1.20    -4000.00
04480              -0.80    -3600.00
04481               0.40    -3200.00
04482              -0.80    -3000.00
04483              -0.80    -2600.00
04484               0.40    -2200.00
04485              -0.40    -1800.00
04486              -0.40    -1600.00
04487              -0.40    -1200.00
04488              -0.80     -800.00
04489              -0.40     -400.00
04490               0.40        0.00
04491              -0.40      200.00
04492               1.60      600.00
04493               3.60      800.00
04494              -2.00     1200.00
04495              -1.20     1400.00
04496               2.40     2000.00
04497               0.80     2000.00
04498              -2.40     2400.00
04499               4.40     2800.00
04500              13.60     3200.00
04501              21.20     4000.00
04502             -29.60     4000.00
04503             -32.40     4600.00
04504              25.20     4800.00
04505              14.80     5200.00
04506             -44.40     5200.00
04507              -5.60     5400.00
04508              50.00     6200.00
04509             -34.00     6000.00
04510             -50.00     6800.00
04511              50.00     6800.00
04512             -13.60     7200.00
04513             -47.20     7600.00
04514              27.60     7800.00
04515              21.60     8400.00
04516             -20.40     8600.00
04517             -24.80     8800.00
04518              44.00     9200.00
04519               0.40     9400.00
04520             -46.00     9600.00
04521              24.00    10000.00
04522              26.40    10400.00
04523             -31.20    10800.00
04524              -9.20    11000.00
04525              37.60    11200.00
04526             -13.60    11600.00
04527             -24.80    12000.00
04528              22.00    12000.00
04529               6.80    12400.00
04530             -20.00    12600.00
04531               2.40    13000.00
04532              19.60    13200.00
04533             -12.40    13400.00
04534              -9.20    13600.00
04535              14.80    13800.00
04536               0.40    14000.00
04537             -14.00    14400.00
04538               6.80    14600.00
04539              11.60    14800.00
04540             -12.00    15200.00
04541              -2.40    15200.00
04542              10.40    15400.00
04543              -4.40    15800.00
04544              -7.60    15800.00
04545               6.80    16000.00
04546               3.60    16400.00
04547              -7.20    16600.00
04548               2.00    16600.00
04549               6.00    16600.00
04550              -5.20    16800.00
04551              -2.80    17200.00
04552               6.00    17200.00
04553              -1.20    17400.00
04554              -4.00    17400.00
04555               3.60    17600.00
04556               2.40    17600.00
04557              -4.40    17600.00
04558              -0.40    17800.00
04559               4.00    18000.00
04560              -2.80    18200.00
04561              -1.20    18200.00
04562               3.60    18400.00
04563              -0.80    18400.00
04564              -1.60    18400.00
04565               1.20    18400.00
04566               0.80    18600.00
04567              -1.20    18800.00
04568              -0.40    18600.00
04569               2.00    18600.00
04570               0.40    18600.00
04571              -1.20    18800.00
04572               0.80    18800.00
04573               1.20    18800.00
04574              -1.20    18800.00
04575              -0.40    18800.00
04576               1.20    18800.00
04577              -0.40    18800.00
04578              -1.20    18800.00
04579               0.80    18800.00
04580               0.40    18800.00
04581              -1.20    18600.00
04582               0.00    18400.00
04583               0.80    18400.00
04584              -0.40    18400.00
04585              -1.20    18400.00
04586               0.40    18400.00
04587               0.40    18200.00
04588              -0.80    18200.00
04589              -0.40    18000.00
04590               0.00    18000.00
04591               0.00    17600.00
04592               0.40    17600.00
04593               0.40    17400.00
04594               0.40    17600.00
04595              -1.20    17200.00
04596               0.00    17200.00
04597              -0.40    17000.00
04598              -0.80    16800.00
04599              -0.40    16600.00
04600               0.40    16400.00
04601              -0.80    16400.00
04602              -0.40    16200.00
04603               0.40    16000.00
04604              -0.40    15800.00
04605              -0.40    15600.00
04606               0.40    15400.00
04607               0.00    15200.00
04608              -0.40    15000.00
04609              -0.40    14800.00
04610              -0.40    14400.00
04611               0.00    14200.00
04612              -0.80    14000.00
04613              -0.40    13600.00
04614               0.40    13600.00
04615               0.40    13400.00
04616              -0.40    13000.00
04617               0.40    12800.00
04618               0.40    12600.00
04619              -0.40    12200.00
04620               0.40    12000.00
04621              -0.40    11600.00
04622              -0.40    11200.00
04623               0.40    11200.00
04624               0.00    10800.00
04625              -0.80    10400.00
04626               0.00    10400.00
04627              -0.40    10000.00
04628               0.00     9600.00
04629               0.40     9400.00
04630              -0.80     9200.00
04631               0.00     8800.00
04632               0.40     8600.00
04633              -0.80     8000.00
04634               0.00     7800.00
04635               0.00     7600.00
04636              -0.40     7200.00
04637              -0.40     6800.00
04638               0.40     6400.00
04639              -0.40     6200.00
04640              -0.40     6000.00
04641               0.40     5600.00
04642               0.00     5200.00
04643              -0.40     4800.00
04644               0.00     4400.00
04645              -0.40     4000.00
04646              -0.80     3800.00
04647              -0.40     3400.00
04648              -0.40     3200.00
04649              -0.40     2800.00
04650              -0.80     2400.00
04651              -0.80     2000.00
04652              -0.40     1800.00
04653              -0.80     1200.00
04654              -1.20      800.00
04655              -0.80      600.00
04656               0.00      400.00
04657              -0.80        0.00
04658               0.40     -400.00
04659               1.60     -600.00
04660               2.00    -1000.00
04661              -2.40    -1400.00
04662              -1.20    -1600.00
04663               0.80    -1800.00
04664              -0.80    -2200.00
04665               0.80    -2400.00
04666              14.00    -2800.00
04667              30.80    -3800.00
04668             -40.40    -4200.00
04669             -34.40    -4400.00
04670              36.40    -4600.00
04671               5.60    -5000.00
04672             -50.00    -4800.00
04673              50.00    -5200.00
04674              50.00    -6000.00
04675             -50.00    -5600.00
04676              50.00    -6600.00
04677              34.00    -6800.00
04678             -50.00    -7000.00
04679               7.20    -7600.00
04680               5.20    -7400.00
04681              32.40    -8200.00
04682             -42.00    -8200.00
04683              -8.80    -8800.00
04684              50.00    -9200.00
04685             -44.40    -9200.00
04686             -20.40    -9800.00
04687              35.60    -9800.00
04688               7.60   -10400.00
04689             -42.40   -10600.00
04690              17.60   -10600.00
04691              35.60   -11200.00
04692             -42.40   -11200.00
04693              -0.40   -11800.00
04694              23.20   -12200.00
04695              -7.60   -12200.00
04696             -21.20   -12400.00
04697              16.80   -12800.00
04698              13.60   -13000.00
04699             -21.60   -13200.00
04700               0.80   -13600.00
04701              14.00   -13800.00
04702              -6.80   -14000.00
04703             -15.20   -14000.00
04704              17.20   -14600.00
04705               2.40   -14600.00
04706             -14.80   -15000.00
04707               4.80   -15200.00
04708               6.80   -15400.00
04709              -8.80   -15600.00
04710              -6.00   -15600.00
04711              10.80   -16200.00
04712              -2.00   -16200.00
04713              -8.40   -16400.00
04714               6.40   -16400.00
04715               2.80   -16800.00
04716             -10.80   -16800.00
04717               2.00   -17000.00
04718               5.20   -17000.00
04719              -4.40   -17200.00
04720              -2.80   -17200.00
04721               5.20   -17600.00
04722              -0.80   -17600.00
04723              -6.80   -17800.00
04724               3.60   -18000.00
04725               1.20   -18000.00
04726              -5.60   -18000.00
04727               1.20   -18200.00
04728               2.00   -18400.00
04729              -2.80   -18400.00
04730              -2.80   -18400.00
04731               2.40   -18600.00
04732              -0.40   -18600.00
04733              -4.00   -18600.00
04734               0.80   -18600.00
04735               1.20   -18600.00
04736              -2.40   -18800.00
04737              -0.80   -18600.00
04738               1.20   -18800.00
04739              -1.20   -18800.00
04740              -2.40   -18800.00
04741               0.80   -18800.00
04742               0.40   -18800.00
04743              -2.80   -18800.00
04744               0.40   -18600.00
04745               0.40   -18800.00
04746              -1.20   -18600.00
04747              -0.80   -18600.00
04748               0.40   -18600.00
04749               0.00   -18400.00
04750              -1.20   -18400.00
04751               0.40   -18400.00
04752               0.40   -18400.00
04753              -1.20   -18400.00
04754              -0.80   -18000.00
04755               0.00   -18000.00
04756              -1.20   -17800.00
04757              -0.80   -17800.00
04758               0.40   -17600.00
04759               0.40   -17400.00
04760              -0.80   -17600.00
04761              -0.40   -17200.00
04762              -0.40   -17200.00
04763              -0.40   -17000.00
04764               0.40   -17000.00
04765              -1.20   -16600.00
04766              -0.80   -16600.00
04767              -0.40   -16400.00
04768              -1.20   -16200.00
04769               0.00   -16000.00
04770              -0.40   -15800.00
04771              -0.80   -15600.00
04772              -0.40   -15400.00
04773              -0.40   -15200.00
04774              -0.80   -15000.00
04775              -0.80   -14800.00
04776              -0.40   -14600.00
04777              -0.40   -14400.00
04778              -0.80   -14000.00
04779              -0.80   -14000.00
04780              -0.40   -13600.00
04781              -0.40   -13600.00
04782              -1.20   -13200.00
04783              -0.80   -12800.00
04784              -0.40   -12600.00
04785              -0.80   -12400.00
04786              -0.80   -12000.00
04787              -0.40   -12000.00
04788              -0.80   -11600.00
04789              -1.20   -11400.00
04790              -0.40   -11000.00
04791              -0.40   -10600.00
04792              -0.40   -10400.00
04793              -1.20   -10200.00
04794              -0.80    -9800.00
04795              -0.40    -9600.00
04796              -0.80    -9200.00
04797              -0.80    -8800.00
04798              -0.40    -8600.00
04799              -1.20    -8200.00
04800              -1.20    -8000.00
04801              -0.40    -7600.00
04802              -0.80    -7200.00
04803              -0.80    -6800.00
04804               0.00    -6600.00
04805               0.00    -6200.00
04806               0.00    -6000.00
04807              -0.80    -5800.00
04808              -0.40    -5400.00
04809              -0.80    -5000.00
04810              -0.40    -4600.00
04811              -1.20    -4200.00
04812              -0.80    -4000.00
04813               0.40    -3600.00
04814              -0.40    -3400.00
04815              -0.80    -2800.00
04816               0.80    -2600.00
04817              -0.40    -2400.00
04818              -1.20    -2000.00
04819               0.80    -1600.00
04820              -0.40    -1200.00
04821              -1.20     -800.00
04822               0.80     -600.00
04823               0.40        0.00
04824              -0.80        0.00
04825               1.20      600.00
04826               4.00      800.00
04827              -1.60     1200.00
04828              -1.20     1400.00
04829               2.40     2000.00
04830               1.20     2000.00
04831              -2.00     2200.00
04832               3.60     2800.00
04833              11.20     3200.00
04834              23.20     4000.00
04835             -20.40     4200.00
04836             -38.80     4400.00
04837              18.40     4800.00
04838              22.80     4800.00
04839             -39.60     5200.00
04840             -19.60     5400.00
04841              50.00     6200.00
04842              -7.60     6000.00
04843             -50.00     6600.00
04844              50.00     6800.00
04845               9.20     7000.00
04846             -50.00     7800.00
04847              20.00     7800.00
04848              26.80     8200.00
04849             -14.00     8600.00
04850             -31.20     8800.00
04851              37.20     9200.00
04852              14.80     9200.00
04853             -49.20     9800.00
04854              14.00    10000.00
04855              34.00    10400.00
04856             -26.00    10800.00
04857             -18.80    11000.00
04858              36.00    11200.00
04859              -2.40    11600.00
04860             -30.40    11800.00
04861              18.00    12000.00
04862              12.40    12400.00
04863             -19.60    12600.00
04864              -2.40    12800.00
04865              21.20    13000.00
04866              -7.60    13400.00
04867             -14.00    13600.00
04868              14.40    14000.00
04869               3.60    14000.00
04870             -14.80    14400.00
04871               3.60    14800.00
04872              14.80    14800.00
04873             -10.00    15000.00
04874              -6.00    15200.00
04875              12.00    15400.00
04876              -2.80    15800.00
04877              -9.20    15800.00
04878               6.80    16000.00
04879               6.40    16200.00
04880              -8.40    16400.00
04881               0.80    16600.00
04882               7.60    16800.00
04883              -5.60    16600.00
04884              -3.60    17000.00
04885               7.20    17200.00
04886              -0.80    17400.00
04887              -4.40    17400.00
04888               3.60    17400.00
04889               3.20    17600.00
04890              -4.40    18000.00
04891              -1.20    18000.00
04892               4.00    18000.00
04893              -2.00    18200.00
04894              -2.00    18400.00
04895               3.60    18400.00
04896               0.40    18400.00
04897              -2.00    18400.00
04898               1.20    18600.00
04899               1.20    18600.00
04900              -2.00    18600.00
04901              -0.80    18800.00
04902               2.80    18800.00
04903              -0.40    18800.00
04904              -2.00    18800.00
04905               1.20    18600.00
04906               1.20    18800.00
04907              -2.00    18800.00
04908              -0.40    18600.00
04909               2.00    18800.00
04910              -1.20    18800.00
04911              -1.20    18800.00
04912               2.00    18800.00
04913              -0.40    18800.00
04914              -1.20    18600.00
04915               0.80    18800.00
04916               0.40    18600.00
04917              -0.80    18400.00
04918              -0.40    18200.00
04919               0.80    18200.00
04920              -0.80    18000.00
04921              -0.40    18000.00
04922               0.40    17800.00
04923               0.00    18000.00
04924              -0.40    17600.00
04925               0.00    17600.00
04926               0.80    17600.00
04927              -0.40    17200.00
04928              -0.80    17200.00
04929               0.40    17200.00
04930               0.40    16800.00
04931              -1.20    16800.00
04932               0.40    16600.00
04933               0.40    16600.00
04934              -0.80    16400.00
04935              -0.40    16000.00
04936               0.80    16000.00
04937              -0.40    15800.00
04938              -0.80    15600.00
04939               0.40    15400.00
04940              -0.40    15200.00
04941              -0.80    15000.00
04942              -0.40    14800.00
04943               0.00    14400.00
04944               0.40    14400.00
04945              -0.40    14000.00
04946              -0.40    13600.00
04947               0.80    13600.00
04948              -0.40    13200.00
04949              -0.40    13200.00
04950               0.40    12800.00
04951              -0.40    12600.00
04952              -0.40    12200.00
04953               0.00    12000.00
04954              -0.40    11800.00
04955              -0.80    11200.00
04956              -0.40    11200.00
04957               0.40    10800.00
04958              -0.80    10600.00
04959              -0.40    10400.00
04960               0.40    10000.00
04961              -0.40     9600.00
04962               0.00     9400.00
04963               0.00     9200.00
04964               0.40     8800.00
04965              -0.80     8600.00
04966               0.40     8400.00
04967              -0.40     7800.00
04968              -0.40     7600.00
04969              -0.40     7000.00
04970              -0.40     6800.00
04971              -1.20     6400.00
04972              -0.40     6200.00
04973              -0.40     6000.00
04974               0.40     5600.00
04975              -0.80     5200.00
04976              -0.40     4800.00
04977               0.00     4400.00
04978              -2.00     4000.00
04979              -0.40     3800.00
04980               0.40     3400.00
04981              -0.40     3000.00
04982              -1.20     2800.00
04983              -0.40     2400.00
04984              -1.20     2000.00
04985              -0.80     1800.00
04986              -1.20     1600.00
04987              -0.80     1000.00
04988               1.20      600.00
04989              -0.40      400.00
04990              -2.00     -200.00
04991               0.80     -200.00
04992               1.20     -600.00
04993               1.20    -1000.00
04994              -2.00    -1200.00
04995               0.40    -1600.00
04996               0.80    -1800.00
04997              -0.80    -2000.00
04998               0.00    -2400.00
04999              11.60    -2800.00
05000              32.80    -3600.00
