Unit:(mV)
                     CH1         CH2
Frequency              ? 260.752 kHz
00001              -2.00    -3000.00
00002              -2.00    -3000.00
00003               4.00    -2800.00
00004               6.00    -2600.00
00005               0.00    -2400.00
00006              -2.00    -2200.00
00007              -2.00    -2000.00
00008              -2.00    -2000.00
00009               2.00    -1600.00
00010              -2.00    -1400.00
00011               0.00    -1200.00
00012               4.00    -1000.00
00013              -2.00     -800.00
00014              -6.00     -600.00
00015              -8.00     -600.00
00016              -6.00     -200.00
00017               0.00        0.00
00018               6.00      200.00
00019               2.00      200.00
00020               6.00      400.00
00021              30.00      800.00
00022              22.00      800.00
00023              -6.00     1000.00
00024             -16.00     1200.00
00025              -2.00     1400.00
00026              22.00     1600.00
00027              96.00     1600.00
00028             246.00     2200.00
00029              86.00     2400.00
00030            -254.00     2400.00
00031            -254.00     2600.00
00032             -26.00     2800.00
00033             246.00     2800.00
00034             246.00     3200.00
00035            -254.00     3200.00
00036            -254.00     3200.00
00037             246.00     3800.00
00038             166.00     3800.00
00039              38.00     4000.00
00040              40.00     4400.00
00041            -254.00     4200.00
00042             184.00     4400.00
00043             120.00     4800.00
00044            -178.00     5000.00
00045             -34.00     5000.00
00046              -6.00     5600.00
00047             108.00     5600.00
00048              -2.00     5600.00
00049             -18.00     6000.00
00050            -106.00     5800.00
00051              -8.00     6200.00
00052             146.00     6400.00
00053            -104.00     6400.00
00054              -2.00     6800.00
00055              -6.00     6800.00
00056              -8.00     7000.00
00057              34.00     7200.00
00058             -56.00     7600.00
00059             -26.00     7600.00
00060              24.00     7600.00
00061              32.00     7800.00
00062             -56.00     8000.00
00063             -10.00     8200.00
00064             -16.00     8200.00
00065              -8.00     8400.00
00066              22.00     8800.00
00067             -26.00     8800.00
00068             -38.00     8800.00
00069               0.00     9000.00
00070              14.00     9200.00
00071             -18.00     9200.00
00072               2.00     9600.00
00073             -48.00     9600.00
00074             -16.00     9600.00
00075              14.00     9800.00
00076             -10.00    10000.00
00077              -6.00    10000.00
00078             -16.00    10000.00
00079             -42.00    10400.00
00080             -22.00    10200.00
00081              18.00    10400.00
00082              -8.00    10400.00
00083             -16.00    10400.00
00084             -38.00    10600.00
00085             -44.00    10800.00
00086              -6.00    10800.00
00087               8.00    10800.00
00088             -18.00    10800.00
00089             -18.00    11200.00
00090             -26.00    11200.00
00091             -28.00    11400.00
00092             -10.00    11400.00
00093             -30.00    11400.00
00094             -34.00    11400.00
00095              -8.00    11800.00
00096              -8.00    11800.00
00097             -20.00    11800.00
00098             -30.00    11800.00
00099             -38.00    11800.00
00100             -30.00    11800.00
00101              -8.00    12000.00
00102             -20.00    11800.00
00103             -30.00    12000.00
00104             -32.00    12000.00
00105             -38.00    12000.00
00106             -18.00    12000.00
00107             -22.00    12200.00
00108             -38.00    12000.00
00109             -32.00    12000.00
00110             -22.00    12200.00
00111             -18.00    12000.00
00112             -22.00    12000.00
00113             -42.00    12200.00
00114             -48.00    12200.00
00115             -30.00    12200.00
00116             -22.00    12200.00
00117             -30.00    12000.00
00118             -40.00    12200.00
00119             -48.00    12200.00
00120             -34.00    12200.00
00121             -24.00    12000.00
00122             -26.00    12000.00
00123             -32.00    12000.00
00124             -42.00    12000.00
00125             -48.00    12000.00
00126             -40.00    12000.00
00127             -32.00    12000.00
00128             -24.00    11800.00
00129             -26.00    12000.00
00130             -38.00    11800.00
00131             -42.00    11600.00
00132             -38.00    11600.00
00133             -32.00    11600.00
00134             -24.00    11400.00
00135             -26.00    11400.00
00136             -26.00    11400.00
00137             -32.00    11400.00
00138             -40.00    11200.00
00139             -32.00    11400.00
00140             -24.00    11200.00
00141             -16.00    10800.00
00142             -18.00    10800.00
00143             -26.00    10800.00
00144             -32.00    10600.00
00145             -26.00    10600.00
00146             -26.00    10400.00
00147             -26.00    10400.00
00148             -18.00    10400.00
00149             -18.00    10200.00
00150             -18.00    10000.00
00151             -18.00     9800.00
00152             -26.00     9800.00
00153             -26.00     9800.00
00154             -18.00     9600.00
00155             -14.00     9400.00
00156             -10.00     9400.00
00157             -16.00     9200.00
00158             -24.00     9200.00
00159             -24.00     9000.00
00160             -18.00     9000.00
00161             -14.00     8400.00
00162             -10.00     8600.00
00163             -16.00     8400.00
00164             -18.00     8400.00
00165             -16.00     8200.00
00166             -10.00     8000.00
00167             -12.00     8000.00
00168             -10.00     7800.00
00169             -16.00     7400.00
00170             -16.00     7400.00
00171             -10.00     7200.00
00172             -14.00     7200.00
00173             -10.00     6800.00
00174             -12.00     6800.00
00175              -8.00     6800.00
00176             -10.00     6400.00
00177             -10.00     6400.00
00178             -14.00     6000.00
00179             -10.00     6000.00
00180             -14.00     5800.00
00181              -8.00     5600.00
00182               0.00     5200.00
00183              -6.00     5200.00
00184             -10.00     5000.00
00185             -18.00     4800.00
00186             -16.00     4800.00
00187              -2.00     4400.00
00188               0.00     4400.00
00189               0.00     4200.00
00190              -6.00     4000.00
00191             -14.00     3800.00
00192             -16.00     3400.00
00193             -10.00     3400.00
00194              -2.00     3200.00
00195               6.00     3000.00
00196              -2.00     3000.00
00197             -14.00     2600.00
00198             -14.00     2400.00
00199              -8.00     2200.00
00200              -2.00     2000.00
00201               0.00     2000.00
00202              -2.00     1800.00
00203              -2.00     1600.00
00204              -6.00     1400.00
00205             -10.00     1200.00
00206              -8.00      800.00
00207              -6.00      600.00
00208              -2.00      600.00
00209               0.00      400.00
00210               0.00      200.00
00211               0.00        0.00
00212              16.00     -200.00
00213              30.00     -400.00
00214               2.00     -600.00
00215             -22.00     -800.00
00216             -16.00     -800.00
00217              14.00    -1200.00
00218              22.00    -1400.00
00219              56.00    -1400.00
00220             230.00    -1600.00
00221             202.00    -2200.00
00222            -254.00    -2400.00
00223            -254.00    -2400.00
00224             -80.00    -2600.00
00225             182.00    -2600.00
00226             246.00    -2600.00
00227             246.00    -3200.00
00228            -254.00    -3200.00
00229            -230.00    -3200.00
00230             246.00    -3800.00
00231              58.00    -3600.00
00232              34.00    -4000.00
00233            -138.00    -4400.00
00234             -56.00    -4200.00
00235             176.00    -4800.00
00236             -18.00    -4600.00
00237             -96.00    -5200.00
00238            -106.00    -5000.00
00239             102.00    -5200.00
00240             134.00    -5600.00
00241             -72.00    -5400.00
00242             -38.00    -6000.00
00243             -68.00    -5800.00
00244              80.00    -6000.00
00245              94.00    -6400.00
00246             -70.00    -6200.00
00247             -30.00    -6800.00
00248               2.00    -6600.00
00249              50.00    -6800.00
00250             -10.00    -7200.00
00251             -16.00    -7200.00
00252               4.00    -7600.00
00253              14.00    -7400.00
00254              44.00    -7800.00
00255             -34.00    -7800.00
00256              -6.00    -8000.00
00257              32.00    -8200.00
00258               4.00    -8200.00
00259               0.00    -8600.00
00260              -2.00    -8400.00
00261               2.00    -8800.00
00262              30.00    -8800.00
00263              16.00    -8800.00
00264             -10.00    -9200.00
00265               0.00    -9200.00
00266              14.00    -9400.00
00267               8.00    -9400.00
00268              16.00    -9600.00
00269              10.00    -9600.00
00270               4.00    -9800.00
00271              10.00   -10000.00
00272               0.00   -10000.00
00273               6.00   -10000.00
00274              30.00   -10000.00
00275              16.00   -10200.00
00276               0.00   -10400.00
00277              -2.00   -10600.00
00278               2.00   -10400.00
00279              16.00   -10800.00
00280              24.00   -10800.00
00281              12.00   -10800.00
00282               8.00   -11000.00
00283              16.00   -11000.00
00284               8.00   -11000.00
00285              14.00   -11200.00
00286              16.00   -11200.00
00287              14.00   -11200.00
00288              22.00   -11200.00
00289              20.00   -11200.00
00290               8.00   -11400.00
00291              10.00   -11600.00
00292              16.00   -11600.00
00293              16.00   -11600.00
00294              30.00   -11600.00
00295              28.00   -11600.00
00296              16.00   -11800.00
00297              14.00   -11800.00
00298              16.00   -11800.00
00299              18.00   -11800.00
00300              30.00   -11800.00
00301              24.00   -11800.00
00302              22.00   -11800.00
00303              22.00   -11800.00
00304              18.00   -11800.00
00305              18.00   -11800.00
00306              30.00   -11800.00
00307              30.00   -11800.00
00308              30.00   -11600.00
00309              30.00   -11800.00
00310              22.00   -11800.00
00311              22.00   -11800.00
00312              30.00   -11800.00
00313              30.00   -11800.00
00314              32.00   -11800.00
00315              38.00   -11800.00
00316              30.00   -11600.00
00317              22.00   -11600.00
00318              16.00   -11600.00
00319              30.00   -11400.00
00320              48.00   -11600.00
00321              36.00   -11400.00
00322              18.00   -11400.00
00323              16.00   -11200.00
00324              26.00   -11200.00
00325              32.00   -11200.00
00326              24.00   -11000.00
00327              24.00   -11200.00
00328              34.00   -11000.00
00329              32.00   -11000.00
00330              16.00   -10800.00
00331               8.00   -10800.00
00332              14.00   -10800.00
00333              24.00   -10600.00
00334              38.00   -10600.00
00335              26.00   -10400.00
00336              14.00   -10400.00
00337              -2.00   -10200.00
00338               2.00   -10200.00
00339              24.00   -10000.00
00340              32.00    -9800.00
00341              22.00    -9800.00
00342               8.00    -9800.00
00343               0.00    -9600.00
00344               6.00    -9600.00
00345              14.00    -9400.00
00346              14.00    -9200.00
00347              16.00    -9200.00
00348              14.00    -9200.00
00349               8.00    -8800.00
00350               6.00    -8800.00
00351               0.00    -8800.00
00352               6.00    -8600.00
00353              14.00    -8400.00
00354              12.00    -8400.00
00355               8.00    -8000.00
00356               6.00    -7800.00
00357               2.00    -7800.00
00358               2.00    -7800.00
00359               6.00    -7400.00
00360               2.00    -7200.00
00361               6.00    -7200.00
00362               8.00    -7000.00
00363              12.00    -7000.00
00364              14.00    -6800.00
00365               6.00    -6800.00
00366               0.00    -6400.00
00367              -2.00    -6200.00
00368              -2.00    -6200.00
00369               6.00    -6000.00
00370               0.00    -5800.00
00371              -2.00    -5600.00
00372               2.00    -5400.00
00373               6.00    -5200.00
00374              16.00    -4800.00
00375              16.00    -4800.00
00376               2.00    -4800.00
00377              -6.00    -4600.00
00378              -6.00    -4400.00
00379              -8.00    -4000.00
00380               0.00    -4000.00
00381               4.00    -3800.00
00382               2.00    -3600.00
00383               8.00    -3400.00
00384               6.00    -3200.00
00385               2.00    -3000.00
00386               4.00    -2800.00
00387              -2.00    -2800.00
00388              -6.00    -2600.00
00389              -4.00    -2200.00
00390              -2.00    -2200.00
00391              -2.00    -2000.00
00392               0.00    -1600.00
00393              -2.00    -1400.00
00394               2.00    -1400.00
00395              14.00    -1000.00
00396               2.00    -1000.00
00397              -6.00     -800.00
00398              -6.00     -600.00
00399              -8.00     -400.00
00400              -2.00     -200.00
00401              -2.00      200.00
00402              -2.00      200.00
00403               6.00      400.00
00404              24.00      600.00
00405              38.00      800.00
00406              14.00     1000.00
00407             -18.00     1200.00
00408             -18.00     1200.00
00409               6.00     1600.00
00410              32.00     1600.00
00411             222.00     1800.00
00412             246.00     2400.00
00413            -254.00     2400.00
00414            -254.00     2400.00
00415            -232.00     2600.00
00416             154.00     2800.00
00417             246.00     3200.00
00418             246.00     3400.00
00419            -254.00     3200.00
00420            -146.00     3600.00
00421             246.00     4000.00
00422             -26.00     4000.00
00423             138.00     4400.00
00424            -208.00     4400.00
00425            -110.00     4400.00
00426             246.00     4600.00
00427            -112.00     5000.00
00428            -106.00     5400.00
00429             -22.00     5200.00
00430              64.00     5600.00
00431              70.00     5600.00
00432             -42.00     5800.00
00433             -40.00     6000.00
00434            -114.00     6000.00
00435             144.00     6600.00
00436              18.00     6400.00
00437             -98.00     6600.00
00438              30.00     6800.00
00439             -44.00     6800.00
00440              40.00     7200.00
00441             -16.00     7200.00
00442             -50.00     7400.00
00443              -2.00     7600.00
00444              46.00     7800.00
00445             -10.00     7800.00
00446             -48.00     8000.00
00447               2.00     8400.00
00448             -28.00     8400.00
00449              18.00     8400.00
00450              -2.00     8600.00
00451             -40.00     8800.00
00452             -22.00     9000.00
00453              24.00     9200.00
00454             -10.00     9200.00
00455             -10.00     9200.00
00456             -22.00     9600.00
00457             -46.00     9600.00
00458              16.00     9600.00
00459              -2.00     9800.00
00460             -14.00    10000.00
00461             -10.00    10200.00
00462             -24.00    10000.00
00463             -36.00    10200.00
00464               6.00    10400.00
00465               0.00    10400.00
00466             -16.00    10600.00
00467             -14.00    10800.00
00468             -40.00    10600.00
00469             -24.00    10800.00
00470               2.00    11000.00
00471              -8.00    11000.00
00472             -18.00    11200.00
00473             -14.00    11000.00
00474             -32.00    11200.00
00475             -20.00    11400.00
00476             -16.00    11400.00
00477             -32.00    11400.00
00478             -16.00    11800.00
00479             -10.00    11600.00
00480             -26.00    11800.00
00481             -26.00    11800.00
00482             -26.00    11800.00
00483             -30.00    11800.00
00484             -18.00    12000.00
00485             -16.00    12000.00
00486             -28.00    12000.00
00487             -24.00    12000.00
00488             -34.00    12000.00
00489             -34.00    12000.00
00490             -18.00    12000.00
00491             -24.00    12000.00
00492             -30.00    12200.00
00493             -34.00    12000.00
00494             -38.00    12200.00
00495             -32.00    12200.00
00496             -26.00    12200.00
00497             -34.00    12000.00
00498             -32.00    12000.00
00499             -26.00    12200.00
00500             -32.00    12000.00
00501             -38.00    12200.00
00502             -42.00    12000.00
00503             -38.00    12000.00
00504             -30.00    12200.00
00505             -26.00    12000.00
00506             -32.00    12000.00
00507             -34.00    12000.00
00508             -42.00    12000.00
00509             -48.00    12000.00
00510             -40.00    12000.00
00511             -26.00    11800.00
00512             -24.00    12000.00
00513             -32.00    11800.00
00514             -38.00    11800.00
00515             -42.00    11600.00
00516             -34.00    11800.00
00517             -28.00    11400.00
00518             -26.00    11800.00
00519             -24.00    11400.00
00520             -26.00    11400.00
00521             -32.00    11400.00
00522             -34.00    11200.00
00523             -30.00    11200.00
00524             -24.00    11000.00
00525             -18.00    10800.00
00526             -24.00    10800.00
00527             -26.00    10800.00
00528             -22.00    10600.00
00529             -26.00    10400.00
00530             -26.00    10400.00
00531             -22.00    10400.00
00532             -16.00    10400.00
00533             -16.00    10200.00
00534             -18.00    10000.00
00535             -26.00     9800.00
00536             -22.00     9800.00
00537             -18.00     9600.00
00538             -18.00     9600.00
00539             -16.00     9200.00
00540             -14.00     9200.00
00541             -16.00     9200.00
00542             -16.00     9000.00
00543             -18.00     9000.00
00544             -16.00     8800.00
00545             -10.00     8600.00
00546             -16.00     8400.00
00547             -16.00     8200.00
00548             -16.00     8200.00
00549             -14.00     8000.00
00550             -12.00     8000.00
00551             -12.00     7600.00
00552             -14.00     7600.00
00553             -10.00     7400.00
00554             -10.00     7400.00
00555             -16.00     7200.00
00556             -14.00     7000.00
00557             -14.00     6800.00
00558              -8.00     6600.00
00559              -8.00     6600.00
00560             -10.00     6400.00
00561             -16.00     6000.00
00562             -14.00     6000.00
00563             -10.00     6000.00
00564              -6.00     5600.00
00565              -6.00     5600.00
00566              -6.00     5200.00
00567              -8.00     5200.00
00568             -10.00     5000.00
00569             -16.00     4800.00
00570             -14.00     4400.00
00571              -8.00     4400.00
00572               0.00     4200.00
00573               2.00     4000.00
00574              -6.00     3800.00
00575             -18.00     3600.00
00576             -16.00     3400.00
00577              -6.00     3200.00
00578               8.00     3000.00
00579               2.00     2800.00
00580             -10.00     2800.00
00581             -16.00     2600.00
00582             -10.00     2400.00
00583              -2.00     2200.00
00584              -2.00     2000.00
00585              -2.00     1600.00
00586              -2.00     1600.00
00587              -6.00     1400.00
00588              -8.00     1200.00
00589              -8.00     1000.00
00590              -2.00      800.00
00591               0.00      800.00
00592              -2.00      400.00
00593              -2.00      400.00
00594               0.00        0.00
00595               6.00        0.00
00596              26.00     -200.00
00597              24.00     -400.00
00598              -6.00     -600.00
00599             -24.00     -800.00
00600              -6.00    -1000.00
00601              18.00    -1000.00
00602              32.00    -1200.00
00603             130.00    -1600.00
00604             246.00    -2000.00
00605             -48.00    -2400.00
00606            -254.00    -2400.00
00607            -254.00    -2600.00
00608             110.00    -2600.00
00609             222.00    -2600.00
00610             246.00    -2800.00
00611             -62.00    -3200.00
00612            -254.00    -3000.00
00613             144.00    -3600.00
00614             216.00    -3800.00
00615              16.00    -3600.00
00616             -24.00    -4400.00
00617            -160.00    -4000.00
00618             112.00    -4600.00
00619              96.00    -4600.00
00620             -82.00    -4800.00
00621            -106.00    -5000.00
00622             -30.00    -5000.00
00623             188.00    -5400.00
00624               4.00    -5600.00
00625             -68.00    -5600.00
00626             -54.00    -6000.00
00627             -24.00    -5800.00
00628             138.00    -6400.00
00629              -8.00    -6200.00
00630             -62.00    -6400.00
00631             -14.00    -6800.00
00632              34.00    -6800.00
00633              30.00    -7200.00
00634             -26.00    -7000.00
00635               4.00    -7400.00
00636              -2.00    -7400.00
00637              38.00    -7600.00
00638               6.00    -7800.00
00639             -38.00    -7800.00
00640              26.00    -8200.00
00641              16.00    -8200.00
00642              -2.00    -8400.00
00643               0.00    -8600.00
00644              -2.00    -8600.00
00645              18.00    -8800.00
00646              22.00    -8800.00
00647              -2.00    -9200.00
00648              -8.00    -9200.00
00649              14.00    -9200.00
00650              12.00    -9200.00
00651               6.00    -9400.00
00652              16.00    -9600.00
00653               4.00    -9600.00
00654               6.00    -9800.00
00655               8.00    -9800.00
00656               0.00   -10000.00
00657              24.00   -10200.00
00658              30.00   -10200.00
00659               2.00   -10400.00
00660               0.00   -10400.00
00661               2.00   -10400.00
00662               8.00   -10800.00
00663              26.00   -10800.00
00664              22.00   -10800.00
00665               8.00   -10800.00
00666              14.00   -11000.00
00667               8.00   -11000.00
00668               6.00   -11200.00
00669              16.00   -11200.00
00670              18.00   -11200.00
00671              16.00   -11200.00
00672              24.00   -11200.00
00673              12.00   -11400.00
00674               8.00   -11600.00
00675              18.00   -11600.00
00676              14.00   -11600.00
00677              16.00   -11600.00
00678              32.00   -11600.00
00679              18.00   -11600.00
00680              14.00   -11800.00
00681              16.00   -11800.00
00682              14.00   -11800.00
00683              24.00   -11800.00
00684              30.00   -11800.00
00685              22.00   -11600.00
00686              22.00   -11800.00
00687              22.00   -11800.00
00688              16.00   -11800.00
00689              30.00   -11800.00
00690              32.00   -11600.00
00691              26.00   -11800.00
00692              24.00   -11800.00
00693              22.00   -11800.00
00694              26.00   -11600.00
00695              32.00   -11800.00
00696              32.00   -11600.00
00697              30.00   -11600.00
00698              34.00   -11600.00
00699              32.00   -11600.00
00700              30.00   -11600.00
00701              30.00   -11800.00
00702              22.00   -11600.00
00703              24.00   -11600.00
00704              32.00   -11600.00
00705              32.00   -11400.00
00706              38.00   -11600.00
00707              30.00   -11200.00
00708              20.00   -11200.00
00709              18.00   -11000.00
00710              26.00   -11200.00
00711              36.00   -11000.00
00712              32.00   -11000.00
00713              18.00   -11000.00
00714              16.00   -10800.00
00715              18.00   -10800.00
00716              24.00   -10600.00
00717              24.00   -10600.00
00718              18.00   -10400.00
00719              22.00   -10400.00
00720              18.00   -10400.00
00721              10.00   -10200.00
00722              14.00   -10200.00
00723              18.00   -10000.00
00724              20.00   -10000.00
00725              20.00    -9800.00
00726               8.00    -9600.00
00727               6.00    -9600.00
00728              10.00    -9400.00
00729              14.00    -9200.00
00730              18.00    -9200.00
00731              20.00    -9000.00
00732              10.00    -9000.00
00733               6.00    -8800.00
00734               0.00    -8800.00
00735               6.00    -8600.00
00736              16.00    -8400.00
00737              16.00    -8400.00
00738               2.00    -8200.00
00739               0.00    -8000.00
00740               2.00    -8000.00
00741              10.00    -7600.00
00742              14.00    -7400.00
00743               8.00    -7400.00
00744               2.00    -7200.00
00745               6.00    -7000.00
00746               0.00    -7000.00
00747               6.00    -6800.00
00748               6.00    -6800.00
00749               6.00    -6400.00
00750               6.00    -6400.00
00751               0.00    -6200.00
00752               0.00    -6000.00
00753               6.00    -5800.00
00754               0.00    -5600.00
00755              -2.00    -5400.00
00756               0.00    -5200.00
00757               2.00    -5200.00
00758               6.00    -5000.00
00759               6.00    -4800.00
00760               0.00    -4600.00
00761              -2.00    -4400.00
00762              -2.00    -4200.00
00763              -2.00    -4000.00
00764               6.00    -4000.00
00765               8.00    -3600.00
00766               0.00    -3600.00
00767              -8.00    -3200.00
00768              -8.00    -3200.00
00769               0.00    -3000.00
00770               8.00    -2800.00
00771               2.00    -2600.00
00772              -2.00    -2400.00
00773              -4.00    -2200.00
00774              -6.00    -2000.00
00775               0.00    -1800.00
00776               2.00    -1600.00
00777               2.00    -1400.00
00778               2.00    -1000.00
00779              -2.00    -1000.00
00780              -6.00     -800.00
00781              -4.00     -600.00
00782               0.00     -400.00
00783               0.00     -400.00
00784              -2.00        0.00
00785               0.00        0.00
00786               2.00      200.00
00787               6.00      600.00
00788              30.00      800.00
00789              26.00      800.00
00790              -8.00     1000.00
00791             -18.00     1200.00
00792               0.00     1400.00
00793              18.00     1600.00
00794              98.00     1800.00
00795             246.00     2000.00
00796              72.00     2400.00
00797            -254.00     2400.00
00798            -254.00     2600.00
00799             -24.00     2800.00
00800             246.00     2800.00
00801             246.00     3400.00
00802            -254.00     3200.00
00803            -254.00     3200.00
00804             246.00     3800.00
00805             158.00     3800.00
00806              46.00     4000.00
00807              32.00     4400.00
00808            -254.00     4400.00
00809             192.00     4600.00
00810             112.00     4800.00
00811            -184.00     5200.00
00812             -34.00     5400.00
00813               0.00     5400.00
00814             114.00     5600.00
00815             -10.00     5600.00
00816             -30.00     6000.00
00817            -104.00     5800.00
00818               6.00     6200.00
00819             148.00     6400.00
00820            -114.00     6400.00
00821             -12.00     6800.00
00822             -14.00     6800.00
00823              -2.00     6800.00
00824              46.00     7200.00
00825             -52.00     7400.00
00826             -32.00     7600.00
00827              16.00     7600.00
00828              26.00     8000.00
00829             -50.00     7800.00
00830              -2.00     8200.00
00831             -14.00     8200.00
00832              -8.00     8400.00
00833              16.00     8800.00
00834             -34.00     8800.00
00835             -34.00     9000.00
00836              14.00     9000.00
00837              14.00     9200.00
00838             -22.00     9200.00
00839              -2.00     9600.00
00840             -48.00     9600.00
00841             -14.00     9600.00
00842               8.00     9800.00
00843             -12.00    10000.00
00844              -2.00    10000.00
00845             -20.00    10000.00
00846             -42.00    10200.00
00847             -16.00    10200.00
00848              18.00    10400.00
00849             -10.00    10600.00
00850             -12.00    10400.00
00851             -34.00    10800.00
00852             -40.00    10800.00
00853              -6.00    10800.00
00854               0.00    11000.00
00855             -16.00    11200.00
00856             -10.00    11200.00
00857             -24.00    11400.00
00858             -26.00    11400.00
00859             -14.00    11400.00
00860             -26.00    11400.00
00861             -22.00    11400.00
00862              -6.00    11600.00
00863             -16.00    11800.00
00864             -26.00    11800.00
00865             -26.00    11800.00
00866             -32.00    11800.00
00867             -26.00    11800.00
00868             -14.00    12000.00
00869             -16.00    12000.00
00870             -18.00    12000.00
00871             -30.00    12000.00
00872             -40.00    12000.00
00873             -30.00    12200.00
00874             -24.00    12000.00
00875             -24.00    12200.00
00876             -22.00    12000.00
00877             -26.00    12000.00
00878             -34.00    12200.00
00879             -40.00    12000.00
00880             -38.00    12200.00
00881             -32.00    12200.00
00882             -24.00    12000.00
00883             -24.00    12200.00
00884             -34.00    12000.00
00885             -42.00    12200.00
00886             -40.00    12200.00
00887             -38.00    12000.00
00888             -32.00    12000.00
00889             -26.00    12200.00
00890             -34.00    12000.00
00891             -40.00    12000.00
00892             -42.00    12000.00
00893             -44.00    12000.00
00894             -34.00    12000.00
00895             -30.00    11800.00
00896             -26.00    11800.00
00897             -30.00    11800.00
00898             -40.00    11800.00
00899             -40.00    11600.00
00900             -34.00    11600.00
00901             -28.00    11600.00
00902             -24.00    11400.00
00903             -26.00    11400.00
00904             -32.00    11400.00
00905             -32.00    11200.00
00906             -30.00    11200.00
00907             -26.00    11000.00
00908             -22.00    10800.00
00909             -24.00    10800.00
00910             -24.00    10800.00
00911             -22.00    10800.00
00912             -24.00    10600.00
00913             -26.00    10600.00
00914             -22.00    10400.00
00915             -16.00    10400.00
00916             -16.00    10400.00
00917             -16.00    10000.00
00918             -20.00    10000.00
00919             -24.00     9800.00
00920             -22.00     9600.00
00921             -16.00     9600.00
00922             -12.00     9600.00
00923             -10.00     9400.00
00924             -16.00     9200.00
00925             -22.00     9200.00
00926             -18.00     9200.00
00927             -16.00     9000.00
00928             -12.00     8800.00
00929             -10.00     8600.00
00930             -14.00     8400.00
00931             -18.00     8400.00
00932             -16.00     8200.00
00933             -18.00     8000.00
00934             -10.00     7800.00
00935              -8.00     7800.00
00936             -10.00     7600.00
00937             -10.00     7400.00
00938             -12.00     7200.00
00939             -14.00     7200.00
00940             -10.00     6800.00
00941             -12.00     6800.00
00942             -12.00     6600.00
00943             -10.00     6400.00
00944              -8.00     6400.00
00945             -10.00     6000.00
00946             -14.00     6000.00
00947             -14.00     5600.00
00948              -8.00     5800.00
00949              -8.00     5400.00
00950             -10.00     5200.00
00951             -14.00     5000.00
00952             -10.00     4800.00
00953             -10.00     4600.00
00954              -8.00     4400.00
00955              -6.00     4400.00
00956              -2.00     4200.00
00957              -6.00     4000.00
00958              -8.00     3800.00
00959             -14.00     3600.00
00960             -10.00     3400.00
00961              -4.00     3200.00
00962              -4.00     3000.00
00963              -6.00     2800.00
00964              -8.00     2600.00
00965             -10.00     2400.00
00966              -6.00     2200.00
00967              -2.00     2000.00
00968              -2.00     2000.00
00969              -2.00     1600.00
00970              -2.00     1600.00
00971              -8.00     1400.00
00972              -6.00     1200.00
00973              -8.00     1000.00
00974              -2.00      800.00
00975               0.00      600.00
00976               0.00      200.00
00977               0.00      200.00
00978              -2.00        0.00
00979              10.00     -200.00
00980              32.00     -400.00
00981              14.00     -600.00
00982             -22.00     -800.00
00983             -18.00     -800.00
00984               8.00    -1200.00
00985              22.00    -1400.00
00986              64.00    -1400.00
00987             238.00    -1600.00
00988             202.00    -2200.00
00989            -254.00    -2200.00
00990            -254.00    -2400.00
00991             -80.00    -2800.00
00992             182.00    -2600.00
00993             246.00    -2800.00
00994             246.00    -3200.00
00995            -254.00    -3200.00
00996            -218.00    -3200.00
00997             246.00    -4000.00
00998              50.00    -3600.00
00999              34.00    -4200.00
01000            -134.00    -4200.00
01001             -48.00    -4000.00
01002             176.00    -4800.00
01003             -20.00    -4600.00
01004             -94.00    -5200.00
01005             -98.00    -5000.00
01006             102.00    -5200.00
01007             126.00    -5600.00
01008             -78.00    -5400.00
01009             -36.00    -6000.00
01010             -64.00    -5800.00
01011              80.00    -6200.00
01012              82.00    -6400.00
01013             -74.00    -6200.00
01014             -26.00    -6800.00
01015               6.00    -6600.00
01016              48.00    -7000.00
01017             -18.00    -7000.00
01018             -22.00    -7200.00
01019               2.00    -7600.00
01020              16.00    -7400.00
01021              50.00    -7800.00
01022             -32.00    -7800.00
01023             -14.00    -8000.00
01024              16.00    -8200.00
01025              -2.00    -8200.00
01026              14.00    -8600.00
01027              12.00    -8400.00
01028              -2.00    -8800.00
01029               8.00    -8800.00
01030               8.00    -9000.00
01031               0.00    -9200.00
01032              16.00    -9200.00
01033              14.00    -9200.00
01034              -6.00    -9400.00
01035              14.00    -9600.00
01036              18.00    -9600.00
01037              -2.00    -9600.00
01038               4.00   -10000.00
01039               0.00   -10000.00
01040              18.00   -10000.00
01041              48.00   -10200.00
01042              14.00   -10200.00
01043             -18.00   -10400.00
01044             -10.00   -10400.00
01045              18.00   -10400.00
01046              38.00   -10800.00
01047              34.00   -10800.00
01048              -6.00   -11000.00
01049             -16.00   -11000.00
01050              16.00   -11000.00
01051              32.00   -11000.00
01052              30.00   -11200.00
01053              14.00   -11200.00
01054              -2.00   -11200.00
01055              16.00   -11200.00
01056              26.00   -11400.00
01057              18.00   -11400.00
01058              16.00   -11600.00
01059              16.00   -11600.00
01060              14.00   -11600.00
01061              18.00   -11600.00
01062              24.00   -11600.00
01063              28.00   -11800.00
01064              38.00   -11800.00
01065              18.00   -11800.00
01066              -2.00   -11800.00
01067               6.00   -11800.00
01068              32.00   -11800.00
01069              46.00   -11800.00
01070              38.00   -12000.00
01071               8.00   -11800.00
01072               2.00   -12000.00
01073              30.00   -11800.00
01074              42.00   -11800.00
01075              38.00   -11800.00
01076              22.00   -11600.00
01077              18.00   -12000.00
01078              26.00   -11800.00
01079              30.00   -11600.00
01080              26.00   -11800.00
01081              32.00   -11600.00
01082              34.00   -11600.00
01083              32.00   -11600.00
01084              28.00   -11600.00
01085              22.00   -11600.00
01086              24.00   -11600.00
01087              38.00   -11400.00
01088              38.00   -11600.00
01089              32.00   -11400.00
01090              22.00   -11200.00
01091              16.00   -11200.00
01092              22.00   -11200.00
01093              28.00   -11200.00
01094              34.00   -11000.00
01095              30.00   -11200.00
01096              22.00   -11000.00
01097              16.00   -10800.00
01098              18.00   -10800.00
01099              20.00   -10800.00
01100              26.00   -10600.00
01101              24.00   -10400.00
01102              18.00   -10400.00
01103              16.00   -10400.00
01104              14.00   -10400.00
01105              14.00   -10000.00
01106              18.00   -10000.00
01107              16.00   -10000.00
01108              18.00    -9800.00
01109              14.00    -9600.00
01110              10.00    -9600.00
01111              12.00    -9600.00
01112              10.00    -9400.00
01113              10.00    -9200.00
01114              16.00    -9200.00
01115              14.00    -9000.00
01116              12.00    -8800.00
01117               6.00    -8800.00
01118               6.00    -8800.00
01119               8.00    -8600.00
01120              10.00    -8400.00
01121              10.00    -8400.00
01122               8.00    -8000.00
01123               8.00    -8000.00
01124               4.00    -7800.00
01125               0.00    -7600.00
01126               6.00    -7600.00
01127               4.00    -7200.00
01128               4.00    -7200.00
01129               6.00    -7000.00
01130               6.00    -7000.00
01131               2.00    -6800.00
01132               0.00    -6600.00
01133               2.00    -6400.00
01134               6.00    -6200.00
01135               6.00    -6000.00
01136              -2.00    -6000.00
01137               0.00    -5600.00
01138               2.00    -5600.00
01139               6.00    -5400.00
01140               2.00    -5200.00
01141              -6.00    -5000.00
01142              -2.00    -4800.00
01143               8.00    -4600.00
01144              10.00    -4600.00
01145              -6.00    -4400.00
01146             -14.00    -4400.00
01147              -8.00    -3800.00
01148              10.00    -3800.00
01149              14.00    -3600.00
01150               0.00    -3200.00
01151             -16.00    -3200.00
01152             -10.00    -3000.00
01153               6.00    -2800.00
01154              14.00    -2400.00
01155              -6.00    -2400.00
01156             -16.00    -2200.00
01157               0.00    -2000.00
01158              18.00    -2000.00
01159               8.00    -1600.00
01160             -18.00    -1400.00
01161             -22.00    -1400.00
01162               2.00    -1000.00
01163              22.00    -1000.00
01164              10.00     -800.00
01165             -14.00     -600.00
01166             -24.00     -400.00
01167             -12.00     -200.00
01168               8.00        0.00
01169              22.00      400.00
01170              10.00      400.00
01171              14.00      400.00
01172              24.00      800.00
01173               0.00      800.00
01174             -24.00     1000.00
01175             -10.00     1200.00
01176              22.00     1600.00
01177              54.00     1600.00
01178             224.00     2000.00
01179             246.00     2400.00
01180            -254.00     2200.00
01181            -254.00     2400.00
01182            -224.00     2800.00
01183             160.00     2800.00
01184             246.00     3200.00
01185             246.00     3200.00
01186            -254.00     3200.00
01187            -134.00     3600.00
01188             246.00     3800.00
01189             -30.00     4000.00
01190             134.00     4400.00
01191            -214.00     4400.00
01192            -104.00     4400.00
01193             246.00     4600.00
01194            -112.00     5000.00
01195            -110.00     5200.00
01196             -24.00     5400.00
01197              66.00     5600.00
01198              78.00     5400.00
01199             -38.00     5800.00
01200             -46.00     6000.00
01201            -122.00     6000.00
01202             138.00     6600.00
01203              24.00     6400.00
01204             -94.00     6400.00
01205              24.00     6800.00
01206             -42.00     6800.00
01207              42.00     7200.00
01208             -14.00     7400.00
01209             -50.00     7600.00
01210              -6.00     7400.00
01211              40.00     7800.00
01212             -18.00     8000.00
01213             -46.00     8000.00
01214               6.00     8200.00
01215             -30.00     8400.00
01216              16.00     8400.00
01217              -8.00     8600.00
01218             -38.00     8800.00
01219             -16.00     9000.00
01220              18.00     9200.00
01221             -18.00     9200.00
01222              -8.00     9400.00
01223             -16.00     9200.00
01224             -42.00     9600.00
01225              10.00     9600.00
01226              -6.00     9800.00
01227              -8.00     9800.00
01228              -8.00    10000.00
01229             -30.00    10200.00
01230             -38.00    10200.00
01231               6.00    10400.00
01232               6.00    10600.00
01233             -16.00    10400.00
01234             -14.00    10800.00
01235             -38.00    10800.00
01236             -26.00    10800.00
01237              -2.00    11000.00
01238             -10.00    11000.00
01239             -14.00    11200.00
01240             -10.00    11200.00
01241             -28.00    11200.00
01242             -22.00    11400.00
01243             -18.00    11400.00
01244             -32.00    11400.00
01245             -14.00    11800.00
01246              -6.00    11800.00
01247             -22.00    11800.00
01248             -26.00    11800.00
01249             -30.00    11800.00
01250             -32.00    11800.00
01251             -16.00    12000.00
01252             -14.00    12000.00
01253             -22.00    12000.00
01254             -24.00    12000.00
01255             -34.00    12000.00
01256             -36.00    12000.00
01257             -26.00    12000.00
01258             -24.00    12000.00
01259             -24.00    12000.00
01260             -24.00    12200.00
01261             -34.00    12200.00
01262             -40.00    12200.00
01263             -32.00    12200.00
01264             -32.00    12200.00
01265             -28.00    12200.00
01266             -26.00    12000.00
01267             -34.00    12000.00
01268             -36.00    12200.00
01269             -38.00    12000.00
01270             -42.00    12000.00
01271             -34.00    12000.00
01272             -30.00    12000.00
01273             -30.00    12000.00
01274             -34.00    12000.00
01275             -42.00    12000.00
01276             -46.00    12000.00
01277             -40.00    12000.00
01278             -32.00    11800.00
01279             -26.00    11800.00
01280             -30.00    11800.00
01281             -40.00    11800.00
01282             -42.00    11800.00
01283             -40.00    11600.00
01284             -30.00    11600.00
01285             -24.00    11600.00
01286             -24.00    11400.00
01287             -32.00    11400.00
01288             -34.00    11200.00
01289             -34.00    11200.00
01290             -30.00    11200.00
01291             -26.00    11000.00
01292             -18.00    11000.00
01293             -20.00    10800.00
01294             -24.00    10800.00
01295             -30.00    10600.00
01296             -30.00    10400.00
01297             -24.00    10400.00
01298             -18.00    10400.00
01299             -16.00    10400.00
01300             -18.00    10000.00
01301             -24.00    10000.00
01302             -24.00    10000.00
01303             -22.00     9800.00
01304             -18.00     9600.00
01305             -16.00     9600.00
01306             -14.00     9400.00
01307             -14.00     9400.00
01308             -18.00     9200.00
01309             -22.00     9000.00
01310             -18.00     9000.00
01311             -10.00     8800.00
01312              -8.00     8600.00
01313             -12.00     8600.00
01314             -16.00     8400.00
01315             -16.00     8200.00
01316             -16.00     8200.00
01317             -10.00     8000.00
01318              -8.00     7800.00
01319             -10.00     7600.00
01320             -14.00     7600.00
01321             -14.00     7400.00
01322             -12.00     7200.00
01323             -16.00     7000.00
01324             -10.00     6800.00
01325             -10.00     6600.00
01326             -10.00     6600.00
01327             -10.00     6400.00
01328             -14.00     6200.00
01329             -10.00     6000.00
01330             -12.00     5800.00
01331             -10.00     5800.00
01332             -10.00     5600.00
01333              -6.00     5400.00
01334              -6.00     5200.00
01335              -8.00     5200.00
01336             -16.00     4800.00
01337             -16.00     4400.00
01338              -4.00     4400.00
01339               6.00     4200.00
01340              -2.00     4000.00
01341             -16.00     3800.00
01342             -26.00     3600.00
01343             -16.00     3600.00
01344               4.00     3400.00
01345              14.00     3200.00
01346               2.00     2800.00
01347             -18.00     2600.00
01348             -26.00     2600.00
01349             -16.00     2400.00
01350               0.00     2200.00
01351               8.00     2000.00
01352               4.00     1800.00
01353              -8.00     1600.00
01354             -14.00     1400.00
01355             -12.00     1200.00
01356              -6.00     1000.00
01357              -6.00     1000.00
01358              -6.00      600.00
01359              -2.00      400.00
01360               2.00      400.00
01361              10.00      200.00
01362               8.00        0.00
01363              18.00     -200.00
01364              14.00     -400.00
01365             -14.00     -600.00
01366             -14.00     -800.00
01367              10.00    -1000.00
01368              22.00    -1200.00
01369              24.00    -1400.00
01370             118.00    -1400.00
01371             246.00    -1800.00
01372             -42.00    -2400.00
01373            -254.00    -2400.00
01374            -254.00    -2600.00
01375             100.00    -2600.00
01376             218.00    -2600.00
01377             246.00    -2800.00
01378             -64.00    -3200.00
01379            -254.00    -3000.00
01380             150.00    -3600.00
01381             214.00    -3600.00
01382              14.00    -3600.00
01383             -22.00    -4400.00
01384            -158.00    -4000.00
01385             118.00    -4600.00
01386              90.00    -4600.00
01387             -90.00    -4800.00
01388            -104.00    -5000.00
01389             -22.00    -4800.00
01390             190.00    -5400.00
01391               0.00    -5400.00
01392             -72.00    -5800.00
01393             -54.00    -6000.00
01394             -18.00    -5800.00
01395             134.00    -6400.00
01396             -10.00    -6200.00
01397             -56.00    -6400.00
01398             -10.00    -6800.00
01399              34.00    -6600.00
01400              24.00    -7200.00
01401             -34.00    -7000.00
01402               0.00    -7400.00
01403               2.00    -7600.00
01404              42.00    -7600.00
01405               6.00    -7800.00
01406             -42.00    -8000.00
01407              22.00    -8400.00
01408              14.00    -8400.00
01409              -6.00    -8400.00
01410               2.00    -8400.00
01411              -2.00    -8600.00
01412              14.00    -9000.00
01413              24.00    -8800.00
01414               0.00    -9200.00
01415              -8.00    -9200.00
01416              10.00    -9200.00
01417               8.00    -9400.00
01418              12.00    -9600.00
01419              20.00    -9600.00
01420               2.00    -9600.00
01421               6.00   -10000.00
01422               8.00   -10000.00
01423              -4.00   -10000.00
01424              22.00   -10200.00
01425              30.00   -10200.00
01426               8.00   -10400.00
01427               6.00   -10400.00
01428               0.00   -10600.00
01429               6.00   -10800.00
01430              22.00   -10800.00
01431              22.00   -10800.00
01432              10.00   -11000.00
01433              16.00   -11000.00
01434              14.00   -11000.00
01435               8.00   -11200.00
01436              16.00   -11200.00
01437              16.00   -11200.00
01438              22.00   -11200.00
01439              24.00   -11200.00
01440              12.00   -11400.00
01441               8.00   -11400.00
01442              18.00   -11600.00
01443              22.00   -11600.00
01444              22.00   -11600.00
01445              28.00   -11600.00
01446              18.00   -11600.00
01447              16.00   -11800.00
01448              20.00   -11600.00
01449              16.00   -11800.00
01450              22.00   -11600.00
01451              30.00   -11800.00
01452              22.00   -11800.00
01453              26.00   -11800.00
01454              24.00   -11800.00
01455              14.00   -11800.00
01456              24.00   -11800.00
01457              30.00   -11800.00
01458              30.00   -11800.00
01459              32.00   -11800.00
01460              26.00   -11600.00
01461              16.00   -11800.00
01462              24.00   -11600.00
01463              26.00   -11600.00
01464              34.00   -11600.00
01465              38.00   -11600.00
01466              32.00   -11800.00
01467              26.00   -11600.00
01468              24.00   -11600.00
01469              20.00   -11600.00
01470              26.00   -11600.00
01471              34.00   -11600.00
01472              34.00   -11400.00
01473              24.00   -11200.00
01474              22.00   -11400.00
01475              24.00   -11200.00
01476              24.00   -11200.00
01477              26.00   -11200.00
01478              26.00   -11000.00
01479              26.00   -11000.00
01480              26.00   -11000.00
01481              22.00   -11000.00
01482              14.00   -10800.00
01483              14.00   -10800.00
01484              22.00   -10800.00
01485              26.00   -10400.00
01486              24.00   -10400.00
01487              14.00   -10200.00
01488              14.00   -10200.00
01489              14.00   -10000.00
01490              14.00   -10000.00
01491              14.00    -9800.00
01492              16.00    -9800.00
01493              16.00    -9600.00
01494              14.00    -9600.00
01495               8.00    -9400.00
01496               8.00    -9400.00
01497              14.00    -9200.00
01498              16.00    -9200.00
01499              14.00    -8800.00
01500               8.00    -8800.00
01501               0.00    -8800.00
01502               0.00    -8600.00
01503              14.00    -8400.00
01504              16.00    -8200.00
01505              14.00    -8400.00
01506               6.00    -8000.00
01507               2.00    -8000.00
01508               4.00    -7600.00
01509              10.00    -7400.00
01510               8.00    -7400.00
01511               6.00    -7200.00
01512               6.00    -7200.00
01513               6.00    -6800.00
01514               8.00    -6800.00
01515               2.00    -6600.00
01516               0.00    -6400.00
01517               2.00    -6400.00
01518               6.00    -6200.00
01519               6.00    -6000.00
01520               0.00    -5800.00
01521              -2.00    -5600.00
01522               0.00    -5400.00
01523               6.00    -5400.00
01524               6.00    -5200.00
01525               6.00    -5000.00
01526              -2.00    -4800.00
01527              -2.00    -4600.00
01528               0.00    -4400.00
01529               0.00    -4400.00
01530               0.00    -4000.00
01531               2.00    -4000.00
01532               2.00    -3600.00
01533               0.00    -3600.00
01534              -2.00    -3400.00
01535              -6.00    -3200.00
01536              -2.00    -2800.00
01537               0.00    -2800.00
01538               2.00    -2400.00
01539               0.00    -2400.00
01540              -6.00    -2400.00
01541              -6.00    -2000.00
01542              -2.00    -1800.00
01543               0.00    -1600.00
01544               2.00    -1400.00
01545               2.00    -1000.00
01546              -2.00    -1000.00
01547              -6.00     -800.00
01548              -6.00     -600.00
01549              -6.00     -400.00
01550              -2.00     -200.00
01551               0.00        0.00
01552               0.00      200.00
01553               2.00      400.00
01554               8.00      400.00
01555              32.00      800.00
01556              22.00      800.00
01557             -10.00     1000.00
01558             -18.00     1200.00
01559               2.00     1400.00
01560              22.00     1600.00
01561             102.00     1800.00
01562             246.00     2400.00
01563              70.00     2400.00
01564            -254.00     2400.00
01565            -254.00     2600.00
01566             -16.00     2800.00
01567             246.00     3000.00
01568             246.00     3400.00
01569            -254.00     3200.00
01570            -254.00     3400.00
01571             246.00     3600.00
01572             152.00     4000.00
01573              42.00     4200.00
01574              38.00     4200.00
01575            -254.00     4400.00
01576             192.00     4600.00
01577             106.00     5000.00
01578            -182.00     5000.00
01579             -36.00     5000.00
01580               0.00     5600.00
01581             114.00     5400.00
01582              -8.00     5600.00
01583             -26.00     6000.00
01584            -110.00     5800.00
01585               4.00     6400.00
01586             148.00     6600.00
01587            -106.00     6400.00
01588              -6.00     6800.00
01589             -10.00     6800.00
01590              -4.00     7000.00
01591              34.00     7200.00
01592             -58.00     7600.00
01593             -26.00     7600.00
01594              24.00     7600.00
01595              32.00     8000.00
01596             -56.00     8000.00
01597              -8.00     8200.00
01598             -14.00     8400.00
01599             -10.00     8400.00
01600              16.00     8800.00
01601             -32.00     8600.00
01602             -34.00     8800.00
01603               4.00     9000.00
01604              10.00     9400.00
01605             -24.00     9000.00
01606               0.00     9600.00
01607             -48.00     9400.00
01608             -10.00     9600.00
01609               8.00    10000.00
01610             -10.00     9800.00
01611              -6.00    10000.00
01612             -22.00    10000.00
01613             -40.00    10000.00
01614             -16.00    10200.00
01615              16.00    10600.00
01616             -12.00    10400.00
01617             -12.00    10600.00
01618             -26.00    10800.00
01619             -40.00    10800.00
01620             -10.00    11000.00
01621              -2.00    11000.00
01622             -18.00    11200.00
01623             -10.00    11200.00
01624             -20.00    11200.00
01625             -26.00    11400.00
01626             -12.00    11400.00
01627             -24.00    11400.00
01628             -26.00    11400.00
01629             -10.00    11800.00
01630             -16.00    11800.00
01631             -26.00    11800.00
01632             -22.00    11800.00
01633             -30.00    12000.00
01634             -26.00    12000.00
01635             -14.00    12000.00
01636             -18.00    12000.00
01637             -18.00    12000.00
01638             -24.00    12000.00
01639             -38.00    12000.00
01640             -32.00    12000.00
01641             -24.00    12200.00
01642             -24.00    12000.00
01643             -18.00    12200.00
01644             -26.00    12200.00
01645             -40.00    12000.00
01646             -36.00    12200.00
01647             -32.00    12200.00
01648             -30.00    12200.00
01649             -26.00    12000.00
01650             -32.00    12000.00
01651             -34.00    12200.00
01652             -34.00    12200.00
01653             -42.00    12000.00
01654             -40.00    12000.00
01655             -32.00    12000.00
01656             -32.00    12000.00
01657             -32.00    12000.00
01658             -40.00    12000.00
01659             -48.00    12000.00
01660             -42.00    12000.00
01661             -32.00    11800.00
01662             -26.00    11800.00
01663             -30.00    11800.00
01664             -36.00    11800.00
01665             -42.00    11800.00
01666             -42.00    11600.00
01667             -38.00    11400.00
01668             -32.00    11400.00
01669             -26.00    11600.00
01670             -26.00    11400.00
01671             -32.00    11400.00
01672             -32.00    11200.00
01673             -34.00    11000.00
01674             -30.00    11000.00
01675             -18.00    11200.00
01676             -22.00    10800.00
01677             -26.00    10800.00
01678             -30.00    10600.00
01679             -28.00    10600.00
01680             -26.00    10600.00
01681             -18.00    10400.00
01682             -18.00    10200.00
01683             -18.00    10200.00
01684             -20.00    10000.00
01685             -24.00    10000.00
01686             -22.00     9800.00
01687             -18.00     9800.00
01688             -18.00     9600.00
01689             -14.00     9600.00
01690             -12.00     9400.00
01691             -16.00     9200.00
01692             -18.00     9200.00
01693             -18.00     9000.00
01694             -16.00     9000.00
01695             -12.00     8800.00
01696             -10.00     8400.00
01697             -10.00     8400.00
01698             -16.00     8400.00
01699             -22.00     8200.00
01700             -16.00     8000.00
01701              -8.00     8000.00
01702              -6.00     7600.00
01703             -10.00     7600.00
01704             -16.00     7600.00
01705             -14.00     7200.00
01706             -10.00     7200.00
01707              -8.00     7000.00
01708              -8.00     6800.00
01709             -10.00     6600.00
01710             -12.00     6400.00
01711             -16.00     6200.00
01712             -10.00     6000.00
01713              -8.00     6000.00
01714             -12.00     5800.00
01715             -12.00     5600.00
01716             -10.00     5400.00
01717              -8.00     5400.00
01718              -6.00     5000.00
01719             -10.00     5000.00
01720             -14.00     4600.00
01721             -14.00     4400.00
01722              -8.00     4200.00
01723              -2.00     4200.00
01724              -4.00     4000.00
01725             -10.00     3800.00
01726             -10.00     3600.00
01727             -10.00     3400.00
01728             -10.00     3200.00
01729              -6.00     3000.00
01730              -2.00     2800.00
01731              -6.00     2800.00
01732              -8.00     2400.00
01733             -12.00     2400.00
01734             -10.00     2000.00
01735              -4.00     1800.00
01736               2.00     1600.00
01737              -2.00     1600.00
01738             -10.00     1200.00
01739              -8.00     1000.00
01740              -6.00     1000.00
01741              -4.00     1000.00
01742              -2.00      600.00
01743               0.00      400.00
01744               2.00      200.00
01745               0.00        0.00
01746              10.00     -200.00
01747              30.00     -400.00
01748               8.00     -600.00
01749             -16.00     -800.00
01750             -16.00    -1000.00
01751               8.00    -1000.00
01752              18.00    -1200.00
01753              62.00    -1400.00
01754             238.00    -1600.00
01755             198.00    -2200.00
01756            -254.00    -2400.00
01757            -254.00    -2400.00
01758             -72.00    -2600.00
01759             184.00    -2600.00
01760             246.00    -2600.00
01761             246.00    -3200.00
01762            -254.00    -3200.00
01763            -210.00    -3200.00
01764             246.00    -3800.00
01765              50.00    -3600.00
01766              32.00    -4000.00
01767            -130.00    -4200.00
01768             -42.00    -4000.00
01769             178.00    -4600.00
01770             -24.00    -4600.00
01771             -96.00    -4800.00
01772             -98.00    -4800.00
01773             112.00    -5200.00
01774             130.00    -5400.00
01775             -78.00    -5400.00
01776             -42.00    -6000.00
01777             -66.00    -5800.00
01778              82.00    -6200.00
01779              88.00    -6400.00
01780             -68.00    -6200.00
01781             -26.00    -6800.00
01782               0.00    -6400.00
01783              48.00    -6800.00
01784             -10.00    -7200.00
01785             -16.00    -7200.00
01786               6.00    -7600.00
01787              14.00    -7400.00
01788              38.00    -7800.00
01789             -38.00    -7800.00
01790              -6.00    -8000.00
01791              30.00    -8200.00
01792               2.00    -8200.00
01793               0.00    -8600.00
01794              -2.00    -8400.00
01795               2.00    -8800.00
01796              22.00    -8800.00
01797              14.00    -9000.00
01798             -10.00    -9200.00
01799               2.00    -9200.00
01800              14.00    -9400.00
01801               6.00    -9400.00
01802               8.00    -9600.00
01803               8.00    -9800.00
01804               6.00    -9800.00
01805              16.00   -10000.00
01806              -2.00   -10000.00
01807               0.00   -10200.00
01808              28.00   -10200.00
01809              18.00   -10200.00
01810               8.00   -10400.00
01811               8.00   -10400.00
01812               8.00   -10800.00
01813              10.00   -10800.00
01814              12.00   -10800.00
01815               2.00   -10800.00
01816              10.00   -10800.00
01817              32.00   -11000.00
01818              24.00   -11000.00
01819               6.00   -11200.00
01820             -10.00   -11200.00
01821               2.00   -11200.00
01822              46.00   -11200.00
01823              48.00   -11200.00
01824               6.00   -11400.00
01825             -10.00   -11600.00
01826               6.00   -11600.00
01827              28.00   -11600.00
01828              38.00   -11600.00
01829              30.00   -11800.00
01830              16.00   -11800.00
01831              14.00   -11600.00
01832              10.00   -11600.00
01833              16.00   -11800.00
01834              32.00   -11800.00
01835              32.00   -11600.00
01836              22.00   -11800.00
01837              18.00   -11800.00
01838              14.00   -11800.00
01839              22.00   -11800.00
01840              38.00   -11800.00
01841              38.00   -11800.00
01842              30.00   -11800.00
01843              16.00   -11800.00
01844              14.00   -11800.00
01845              24.00   -11800.00
01846              34.00   -11600.00
01847              38.00   -11800.00
01848              38.00   -11600.00
01849              32.00   -11600.00
01850              26.00   -11600.00
01851              18.00   -11600.00
01852              20.00   -11600.00
01853              30.00   -11600.00
01854              40.00   -11600.00
01855              40.00   -11400.00
01856              24.00   -11200.00
01857              14.00   -11200.00
01858              14.00   -11200.00
01859              26.00   -11200.00
01860              32.00   -11200.00
01861              38.00   -11000.00
01862              24.00   -11000.00
01863              16.00   -11000.00
01864              10.00   -11000.00
01865              14.00   -10800.00
01866              22.00   -10800.00
01867              28.00   -10800.00
01868              24.00   -10400.00
01869              22.00   -10600.00
01870              10.00   -10200.00
01871               6.00   -10400.00
01872               8.00   -10000.00
01873              18.00   -10000.00
01874              24.00   -10000.00
01875              22.00   -10000.00
01876              12.00    -9800.00
01877               6.00    -9600.00
01878               4.00    -9600.00
01879               8.00    -9400.00
01880              14.00    -9200.00
01881              18.00    -9200.00
01882              18.00    -8800.00
01883              10.00    -8800.00
01884               2.00    -8800.00
01885              -2.00    -8800.00
01886               6.00    -8400.00
01887              14.00    -8400.00
01888              16.00    -8400.00
01889              10.00    -8000.00
01890               4.00    -8000.00
01891               0.00    -7800.00
01892               4.00    -7400.00
01893              10.00    -7400.00
01894               8.00    -7200.00
01895               6.00    -7200.00
01896               2.00    -7000.00
01897               6.00    -7000.00
01898               6.00    -6800.00
01899               4.00    -6600.00
01900               2.00    -6400.00
01901               0.00    -6200.00
01902               6.00    -6000.00
01903               6.00    -5800.00
01904               6.00    -5800.00
01905               0.00    -5400.00
01906               0.00    -5600.00
01907               2.00    -5200.00
01908               0.00    -5200.00
01909               2.00    -4800.00
01910               2.00    -4800.00
01911               0.00    -4600.00
01912               0.00    -4400.00
01913               0.00    -4000.00
01914              -2.00    -3800.00
01915               0.00    -3800.00
01916               0.00    -3600.00
01917               0.00    -3400.00
01918               0.00    -3200.00
01919              -2.00    -3000.00
01920              -2.00    -2800.00
01921               0.00    -2600.00
01922               2.00    -2600.00
01923               0.00    -2200.00
01924              -4.00    -2200.00
01925              -6.00    -2000.00
01926              -2.00    -1600.00
01927               0.00    -1600.00
01928               2.00    -1400.00
01929               0.00    -1200.00
01930              -6.00    -1000.00
01931              -8.00     -800.00
01932              -8.00     -600.00
01933              -2.00     -400.00
01934               0.00     -200.00
01935               2.00        0.00
01936               0.00      200.00
01937               0.00      400.00
01938              18.00      800.00
01939              34.00      800.00
01940               8.00     1000.00
01941             -18.00     1200.00
01942             -14.00     1200.00
01943              12.00     1400.00
01944              40.00     1600.00
01945             226.00     2000.00
01946             246.00     2400.00
01947            -254.00     2400.00
01948            -254.00     2600.00
01949            -230.00     2800.00
01950             162.00     2800.00
01951             246.00     3200.00
01952             246.00     3400.00
01953            -254.00     3200.00
01954            -134.00     3600.00
01955             246.00     4000.00
01956             -30.00     4000.00
01957             142.00     4400.00
01958            -208.00     4200.00
01959            -100.00     4400.00
01960             246.00     4800.00
01961            -116.00     5000.00
01962            -104.00     5200.00
01963             -16.00     5400.00
01964              66.00     5600.00
01965              66.00     5600.00
01966             -40.00     5800.00
01967             -32.00     6000.00
01968            -110.00     6000.00
01969             142.00     6400.00
01970               4.00     6400.00
01971             -98.00     6600.00
01972              32.00     7000.00
01973             -32.00     6800.00
01974              40.00     7200.00
01975             -24.00     7400.00
01976             -54.00     7400.00
01977              -2.00     7400.00
01978              50.00     8000.00
01979             -18.00     8000.00
01980             -50.00     8000.00
01981               0.00     8400.00
01982             -26.00     8400.00
01983              22.00     8400.00
01984              -4.00     8800.00
01985             -42.00     8800.00
01986             -24.00     8800.00
01987              24.00     9200.00
01988             -14.00     9200.00
01989             -10.00     9200.00
01990             -26.00     9600.00
01991             -48.00     9600.00
01992              18.00     9600.00
01993               0.00     9800.00
01994             -10.00    10000.00
01995             -18.00    10000.00
01996             -36.00    10000.00
01997             -40.00    10200.00
01998               8.00    10400.00
01999               2.00    10400.00
02000             -16.00    10600.00
02001             -10.00    10800.00
02002             -34.00    10800.00
02003             -26.00    10800.00
02004             -10.00    11000.00
02005             -24.00    10800.00
02006             -18.00    11200.00
02007              -4.00    11200.00
02008             -22.00    11400.00
02009             -16.00    11400.00
02010             -26.00    11400.00
02011             -34.00    11800.00
02012             -14.00    11600.00
02013              -6.00    11800.00
02014             -24.00    11600.00
02015             -30.00    11800.00
02016             -28.00    11800.00
02017             -26.00    12000.00
02018             -14.00    12000.00
02019             -18.00    12000.00
02020             -30.00    12000.00
02021             -26.00    12000.00
02022             -26.00    12000.00
02023             -26.00    12000.00
02024             -24.00    12000.00
02025             -32.00    12000.00
02026             -32.00    12200.00
02027             -22.00    12200.00
02028             -24.00    12200.00
02029             -32.00    12200.00
02030             -36.00    12200.00
02031             -38.00    12200.00
02032             -30.00    12200.00
02033             -22.00    12200.00
02034             -26.00    12200.00
02035             -34.00    12200.00
02036             -42.00    12000.00
02037             -42.00    12200.00
02038             -34.00    12200.00
02039             -26.00    12000.00
02040             -32.00    12000.00
02041             -36.00    12000.00
02042             -46.00    12200.00
02043             -46.00    12000.00
02044             -36.00    12000.00
02045             -30.00    12000.00
02046             -30.00    12000.00
02047             -30.00    11800.00
02048             -38.00    11800.00
02049             -42.00    11600.00
02050             -40.00    11800.00
02051             -34.00    11600.00
02052             -26.00    11600.00
02053             -26.00    11400.00
02054             -32.00    11800.00
02055             -38.00    11200.00
02056             -34.00    11000.00
02057             -30.00    11200.00
02058             -22.00    11000.00
02059             -22.00    11000.00
02060             -28.00    10800.00
02061             -32.00    10800.00
02062             -30.00    10600.00
02063             -24.00    10600.00
02064             -18.00    10400.00
02065             -18.00    10200.00
02066             -24.00    10000.00
02067             -24.00    10000.00
02068             -22.00    10200.00
02069             -18.00    10000.00
02070             -16.00     9800.00
02071             -18.00     9600.00
02072             -18.00     9600.00
02073             -16.00     9600.00
02074             -16.00     9200.00
02075             -18.00     9200.00
02076             -20.00     9000.00
02077             -18.00     9000.00
02078             -14.00     8800.00
02079              -8.00     8800.00
02080              -6.00     8400.00
02081             -16.00     8400.00
02082             -22.00     8200.00
02083             -22.00     8200.00
02084             -14.00     8000.00
02085              -6.00     7800.00
02086              -6.00     7600.00
02087             -10.00     7400.00
02088             -10.00     7400.00
02089             -16.00     7000.00
02090             -14.00     7200.00
02091             -10.00     7000.00
02092             -10.00     6600.00
02093              -8.00     6600.00
02094             -10.00     6400.00
02095             -10.00     6200.00
02096              -8.00     6000.00
02097             -10.00     5800.00
02098             -10.00     5600.00
02099             -10.00     5400.00
02100              -4.00     5400.00
02101              -8.00     5000.00
02102              -8.00     5000.00
02103             -10.00     4800.00
02104             -10.00     4600.00
02105             -10.00     4400.00
02106              -8.00     4200.00
02107              -4.00     4000.00
02108              -2.00     3800.00
02109              -6.00     3600.00
02110             -10.00     3400.00
02111             -14.00     3400.00
02112              -8.00     3200.00
02113              -2.00     3000.00
02114               0.00     2800.00
02115              -6.00     2600.00
02116             -10.00     2200.00
02117             -10.00     2000.00
02118              -8.00     2000.00
02119              -2.00     1800.00
02120               0.00     1600.00
02121              -6.00     1400.00
02122             -10.00     1200.00
02123             -10.00     1000.00
02124              -6.00      800.00
02125              -2.00      600.00
02126               0.00      400.00
02127              -2.00      200.00
02128              -2.00        0.00
02129               0.00     -200.00
02130              24.00     -200.00
02131              26.00     -400.00
02132              -6.00     -400.00
02133             -22.00     -800.00
02134              -6.00     -800.00
02135              18.00    -1200.00
02136              30.00    -1400.00
02137             130.00    -1600.00
02138             246.00    -2000.00
02139             -50.00    -2400.00
02140            -254.00    -2400.00
02141            -254.00    -2400.00
02142             110.00    -2600.00
02143             224.00    -2600.00
02144             246.00    -3000.00
02145             -66.00    -3400.00
02146            -254.00    -3000.00
02147             154.00    -3600.00
02148             214.00    -3800.00
02149              14.00    -3600.00
02150             -24.00    -4400.00
02151            -158.00    -3800.00
02152             118.00    -4600.00
02153              96.00    -4600.00
02154             -86.00    -4800.00
02155            -104.00    -5000.00
02156             -22.00    -5200.00
02157             192.00    -5600.00
02158              -2.00    -5200.00
02159             -70.00    -5600.00
02160             -54.00    -6000.00
02161             -16.00    -5800.00
02162             136.00    -6400.00
02163             -10.00    -6200.00
02164             -56.00    -6600.00
02165             -12.00    -6600.00
02166              34.00    -6800.00
02167              24.00    -7200.00
02168             -30.00    -7000.00
02169               4.00    -7400.00
02170               2.00    -7400.00
02171              38.00    -7600.00
02172               2.00    -7800.00
02173             -42.00    -8000.00
02174              24.00    -8400.00
02175              16.00    -8000.00
02176              -2.00    -8400.00
02177               4.00    -8400.00
02178              -2.00    -8600.00
02179              10.00    -8800.00
02180              18.00    -8800.00
02181              -2.00    -9200.00
02182              -4.00    -9200.00
02183              16.00    -9200.00
02184               8.00    -9400.00
02185               6.00    -9600.00
02186              16.00    -9600.00
02187               2.00    -9600.00
02188               2.00   -10000.00
02189               2.00   -10000.00
02190              -6.00   -10000.00
02191              30.00   -10200.00
02192              30.00   -10200.00
02193              -2.00   -10200.00
02194              -4.00   -10400.00
02195               2.00   -10600.00
02196              10.00   -10800.00
02197              24.00   -10800.00
02198              18.00   -10800.00
02199              10.00   -10800.00
02200              18.00   -11000.00
02201               8.00   -11000.00
02202               0.00   -11000.00
02203              10.00   -11200.00
02204              16.00   -11200.00
02205              30.00   -11200.00
02206              38.00   -11200.00
02207               8.00   -11600.00
02208             -10.00   -11600.00
02209               6.00   -11600.00
02210              24.00   -11600.00
02211              40.00   -11600.00
02212              30.00   -11600.00
02213              10.00   -11600.00
02214               8.00   -11800.00
02215              18.00   -11600.00
02216              16.00   -11800.00
02217              22.00   -11800.00
02218              32.00   -11800.00
02219              26.00   -11800.00
02220              26.00   -11600.00
02221              22.00   -11600.00
02222              16.00   -11800.00
02223              30.00   -11600.00
02224              32.00   -11800.00
02225              28.00   -11600.00
02226              30.00   -11800.00
02227              26.00   -11800.00
02228              24.00   -11800.00
02229              26.00   -11600.00
02230              24.00   -11600.00
02231              30.00   -11800.00
02232              32.00   -11600.00
02233              32.00   -11600.00
02234              32.00   -11600.00
02235              30.00   -11600.00
02236              22.00   -11600.00
02237              24.00   -11600.00
02238              30.00   -11400.00
02239              32.00   -11600.00
02240              32.00   -11600.00
02241              26.00   -11200.00
02242              16.00   -11200.00
02243              22.00   -11200.00
02244              26.00   -11200.00
02245              32.00   -11000.00
02246              24.00   -11000.00
02247              22.00   -11000.00
02248              16.00   -10800.00
02249              22.00   -10800.00
02250              22.00   -10800.00
02251              18.00   -10600.00
02252              16.00   -10400.00
02253              14.00   -10400.00
02254              16.00   -10200.00
02255              16.00   -10200.00
02256              16.00   -10000.00
02257              14.00   -10000.00
02258              14.00   -10000.00
02259              14.00    -9800.00
02260              14.00    -9800.00
02261              14.00    -9600.00
02262              10.00    -9600.00
02263              10.00    -9200.00
02264              10.00    -9200.00
02265              10.00    -9200.00
02266              14.00    -8800.00
02267              10.00    -9000.00
02268               4.00    -8800.00
02269               4.00    -8400.00
02270               8.00    -8400.00
02271              14.00    -8200.00
02272              10.00    -8200.00
02273               8.00    -8000.00
02274               0.00    -7800.00
02275               0.00    -7800.00
02276               8.00    -7400.00
02277              10.00    -7400.00
02278               8.00    -7200.00
02279               6.00    -7000.00
02280               2.00    -7000.00
02281               2.00    -6800.00
02282               6.00    -6600.00
02283               2.00    -6400.00
02284               6.00    -6400.00
02285               8.00    -6200.00
02286               6.00    -6000.00
02287               6.00    -6000.00
02288               0.00    -5600.00
02289              -2.00    -5400.00
02290               2.00    -5400.00
02291               8.00    -5200.00
02292               8.00    -4800.00
02293               2.00    -4800.00
02294              -4.00    -4600.00
02295              -6.00    -4400.00
02296               4.00    -4400.00
02297               6.00    -4000.00
02298               2.00    -3800.00
02299               0.00    -3800.00
02300               0.00    -3600.00
02301              -2.00    -3400.00
02302              -2.00    -3000.00
02303              -6.00    -3000.00
02304              -2.00    -2800.00
02305               6.00    -2600.00
02306               6.00    -2400.00
02307              -2.00    -2200.00
02308              -8.00    -2000.00
02309              -8.00    -1600.00
02310              -2.00    -1600.00
02311               2.00    -1400.00
02312               2.00    -1200.00
02313               0.00    -1000.00
02314              -6.00     -800.00
02315              -8.00     -600.00
02316              -2.00     -400.00
02317              -2.00     -400.00
02318               0.00        0.00
02319               0.00      200.00
02320               4.00      200.00
02321               6.00      600.00
02322              28.00      600.00
02323              18.00      800.00
02324             -10.00     1000.00
02325             -18.00     1000.00
02326               0.00     1200.00
02327              22.00     1600.00
02328              98.00     1800.00
02329             246.00     2200.00
02330              64.00     2400.00
02331            -254.00     2400.00
02332            -254.00     2600.00
02333             -16.00     2800.00
02334             246.00     2800.00
02335             246.00     3400.00
02336            -254.00     3200.00
02337            -254.00     3200.00
02338             246.00     3600.00
02339             150.00     3800.00
02340              40.00     4000.00
02341              30.00     4400.00
02342            -254.00     4400.00
02343             198.00     4600.00
02344             106.00     4800.00
02345            -176.00     5000.00
02346             -30.00     5400.00
02347               0.00     5600.00
02348             106.00     5600.00
02349             -16.00     5600.00
02350             -22.00     6000.00
02351            -106.00     5800.00
02352               8.00     6200.00
02353             150.00     6600.00
02354            -106.00     6400.00
02355              -6.00     6800.00
02356             -16.00     6800.00
02357              -8.00     7000.00
02358              38.00     7400.00
02359             -50.00     7600.00
02360             -24.00     7600.00
02361              22.00     7600.00
02362              26.00     7800.00
02363             -62.00     7800.00
02364             -10.00     8200.00
02365             -16.00     8400.00
02366              -4.00     8400.00
02367              20.00     8600.00
02368             -32.00     8800.00
02369             -38.00     8800.00
02370               6.00     9000.00
02371              10.00     9200.00
02372             -24.00     9200.00
02373               0.00     9600.00
02374             -48.00     9600.00
02375             -16.00     9600.00
02376              10.00     9800.00
02377             -14.00     9800.00
02378              -6.00    10000.00
02379             -20.00    10000.00
02380             -42.00    10000.00
02381             -18.00    10400.00
02382              10.00    10400.00
02383             -14.00    10400.00
02384             -14.00    10600.00
02385             -26.00    10800.00
02386             -38.00    10600.00
02387             -10.00    10800.00
02388              -2.00    10800.00
02389             -22.00    11000.00
02390             -16.00    11200.00
02391             -22.00    11200.00
02392             -24.00    11400.00
02393             -10.00    11400.00
02394             -30.00    11800.00
02395             -28.00    11400.00
02396             -10.00    11800.00
02397             -16.00    11800.00
02398             -24.00    11600.00
02399             -26.00    11800.00
02400             -32.00    11800.00
02401             -30.00    11800.00
02402             -16.00    12000.00
02403             -18.00    11800.00
02404             -22.00    12000.00
02405             -28.00    12000.00
02406             -40.00    12200.00
02407             -32.00    12200.00
02408             -22.00    12000.00
02409             -26.00    12200.00
02410             -24.00    12200.00
02411             -26.00    12200.00
02412             -38.00    12000.00
02413             -32.00    12200.00
02414             -30.00    12200.00
02415             -32.00    12000.00
02416             -24.00    12200.00
02417             -30.00    12200.00
02418             -40.00    12200.00
02419             -40.00    12200.00
02420             -40.00    12000.00
02421             -34.00    12200.00
02422             -30.00    12000.00
02423             -32.00    12000.00
02424             -32.00    12000.00
02425             -40.00    12000.00
02426             -42.00    12000.00
02427             -38.00    12000.00
02428             -30.00    12000.00
02429             -32.00    12000.00
02430             -32.00    11800.00
02431             -34.00    11800.00
02432             -42.00    11600.00
02433             -40.00    11800.00
02434             -34.00    11400.00
02435             -28.00    11600.00
02436             -26.00    11400.00
02437             -28.00    11200.00
02438             -32.00    11200.00
02439             -32.00    11200.00
02440             -38.00    11200.00
02441             -32.00    11200.00
02442             -22.00    10800.00
02443             -18.00    11000.00
02444             -22.00    10800.00
02445             -24.00    10600.00
02446             -30.00    10600.00
02447             -30.00    10600.00
02448             -24.00    10400.00
02449             -22.00    10200.00
02450             -14.00    10400.00
02451             -16.00    10000.00
02452             -22.00    10000.00
02453             -26.00     9800.00
02454             -24.00     9800.00
02455             -18.00     9600.00
02456             -12.00     9600.00
02457             -10.00     9400.00
02458             -16.00     9200.00
02459             -22.00     9200.00
02460             -22.00     9000.00
02461             -16.00     8800.00
02462              -8.00     8800.00
02463               6.00     8600.00
02464             -24.00     8400.00
02465             -28.00     8200.00
02466             -26.00     8200.00
02467              -8.00     8000.00
02468             -16.00     8000.00
02469             -26.00     7800.00
02470              24.00     7600.00
02471               8.00     7400.00
02472              26.00     7200.00
02473             -56.00     7200.00
02474             -22.00     6800.00
02475             -26.00     6800.00
02476             -18.00     6400.00
02477             -18.00     6800.00
02478               0.00     6400.00
02479              14.00     6200.00
02480               6.00     6000.00
02481              -2.00     5800.00
02482             -30.00     5600.00
02483               0.00     5200.00
02484             -14.00     5400.00
02485             -18.00     5000.00
02486              -6.00     5000.00
02487             -26.00     4800.00
02488             -14.00     4400.00
02489               2.00     4400.00
02490               8.00     4200.00
02491              16.00     4000.00
02492             -10.00     3800.00
02493             -24.00     3600.00
02494             -16.00     3400.00
02495              -8.00     3200.00
02496             -10.00     3200.00
02497              -8.00     2800.00
02498              -6.00     2600.00
02499             -16.00     2400.00
02500              -4.00     2200.00
02501               0.00     2000.00
02502               8.00     1800.00
02503               2.00     1800.00
02504             -14.00     1400.00
02505             -16.00     1200.00
02506             -16.00     1200.00
02507             -16.00     1000.00
02508             -10.00      800.00
02509               6.00      400.00
02510               8.00      400.00
02511              14.00      200.00
02512               0.00        0.00
02513               0.00     -400.00
02514              24.00     -400.00
02515               2.00     -600.00
02516             -24.00     -800.00
02517             -18.00     -800.00
02518              14.00    -1200.00
02519              22.00    -1200.00
02520              70.00    -1400.00
02521             240.00    -1600.00
02522             190.00    -2000.00
02523            -254.00    -2400.00
02524            -254.00    -2400.00
02525             -70.00    -2600.00
02526             190.00    -2800.00
02527             246.00    -2600.00
02528             246.00    -3200.00
02529            -254.00    -3200.00
02530            -208.00    -3200.00
02531             246.00    -3800.00
02532              50.00    -3400.00
02533              32.00    -4000.00
02534            -134.00    -4200.00
02535             -42.00    -4200.00
02536             176.00    -4800.00
02537             -26.00    -4400.00
02538             -98.00    -5000.00
02539            -104.00    -4800.00
02540             114.00    -5200.00
02541             134.00    -5400.00
02542             -80.00    -5400.00
02543             -42.00    -6000.00
02544             -66.00    -5800.00
02545              82.00    -6000.00
02546              88.00    -6400.00
02547             -72.00    -6200.00
02548             -30.00    -6800.00
02549               6.00    -6600.00
02550              52.00    -7000.00
02551              -8.00    -7000.00
02552             -12.00    -7000.00
02553               0.00    -7600.00
02554               6.00    -7400.00
02555              38.00    -7800.00
02556             -30.00    -7800.00
02557               0.00    -8000.00
02558              32.00    -8200.00
02559              -6.00    -8200.00
02560              -2.00    -8600.00
02561               0.00    -8400.00
02562               6.00    -8800.00
02563              24.00    -8800.00
02564              10.00    -8800.00
02565             -16.00    -9200.00
02566               0.00    -9200.00
02567              16.00    -9400.00
02568              10.00    -9400.00
02569              18.00    -9600.00
02570               8.00    -9600.00
02571              -8.00   -10000.00
02572               8.00   -10000.00
02573               0.00   -10000.00
02574               8.00   -10200.00
02575              32.00   -10200.00
02576              16.00   -10400.00
02577               2.00   -10400.00
02578               0.00   -10400.00
02579               0.00   -10400.00
02580              14.00   -10600.00
02581              26.00   -10800.00
02582              14.00   -11000.00
02583              10.00   -11000.00
02584              14.00   -11000.00
02585               8.00   -11200.00
02586              10.00   -11200.00
02587              18.00   -11200.00
02588              14.00   -11200.00
02589              18.00   -11400.00
02590              16.00   -11400.00
02591               6.00   -11400.00
02592              16.00   -11600.00
02593              24.00   -11600.00
02594              22.00   -11600.00
02595              24.00   -11600.00
02596              18.00   -11600.00
02597              12.00   -11600.00
02598              22.00   -11800.00
02599              22.00   -11800.00
02600              18.00   -11800.00
02601              26.00   -11800.00
02602              24.00   -11800.00
02603              24.00   -11800.00
02604              26.00   -11800.00
02605              18.00   -11800.00
02606              22.00   -11800.00
02607              30.00   -11800.00
02608              30.00   -11800.00
02609              30.00   -11800.00
02610              30.00   -11800.00
02611              26.00   -11800.00
02612              24.00   -11800.00
02613              30.00   -11600.00
02614              30.00   -11600.00
02615              34.00   -11800.00
02616              32.00   -11600.00
02617              26.00   -11600.00
02618              30.00   -11600.00
02619              24.00   -11600.00
02620              26.00   -11600.00
02621              38.00   -11600.00
02622              38.00   -11400.00
02623              30.00   -11400.00
02624              20.00   -11200.00
02625              22.00   -11200.00
02626              24.00   -11200.00
02627              30.00   -11200.00
02628              30.00   -11200.00
02629              26.00   -11200.00
02630              18.00   -11000.00
02631              18.00   -11000.00
02632              18.00   -10800.00
02633              22.00   -11000.00
02634              22.00   -10600.00
02635              22.00   -10400.00
02636              16.00   -10400.00
02637              14.00   -10400.00
02638              16.00   -10200.00
02639              16.00   -10200.00
02640              14.00   -10000.00
02641              16.00    -9800.00
02642              14.00   -10000.00
02643              18.00    -9600.00
02644              22.00    -9600.00
02645               4.00    -9600.00
02646              -2.00    -9400.00
02647               6.00    -9400.00
02648              16.00    -9200.00
02649              22.00    -9000.00
02650              10.00    -8800.00
02651               0.00    -8800.00
02652               6.00    -8800.00
02653              10.00    -8600.00
02654               6.00    -8400.00
02655               8.00    -8200.00
02656              14.00    -8200.00
02657              16.00    -8000.00
02658               6.00    -8000.00
02659              -8.00    -7800.00
02660               0.00    -7600.00
02661              12.00    -7200.00
02662              14.00    -7000.00
02663               8.00    -7000.00
02664               4.00    -7000.00
02665              -6.00    -6800.00
02666               0.00    -6800.00
02667              14.00    -6400.00
02668              12.00    -6200.00
02669               0.00    -6200.00
02670              -6.00    -6000.00
02671              -2.00    -5600.00
02672              10.00    -5600.00
02673              10.00    -5200.00
02674               8.00    -5200.00
02675               2.00    -4800.00
02676               4.00    -4800.00
02677              -2.00    -4600.00
02678              -2.00    -4600.00
02679               0.00    -4400.00
02680               4.00    -4000.00
02681               6.00    -4000.00
02682               4.00    -3800.00
02683              -2.00    -3600.00
02684              -2.00    -3400.00
02685              -2.00    -3200.00
02686              -2.00    -3000.00
02687               6.00    -2800.00
02688               2.00    -2800.00
02689               0.00    -2400.00
02690               0.00    -2200.00
02691              -8.00    -2200.00
02692              -2.00    -2000.00
02693               0.00    -1600.00
02694               0.00    -1400.00
02695              -2.00    -1200.00
02696              -2.00    -1000.00
02697               0.00     -800.00
02698              -2.00     -800.00
02699              -6.00     -600.00
02700              -6.00     -400.00
02701              -2.00        0.00
02702               0.00      200.00
02703               2.00      200.00
02704               2.00      400.00
02705              16.00      600.00
02706              32.00      800.00
02707               2.00     1000.00
02708             -24.00     1200.00
02709             -16.00     1200.00
02710              14.00     1600.00
02711              44.00     1600.00
02712             230.00     2000.00
02713             246.00     2400.00
02714            -254.00     2400.00
02715            -254.00     2400.00
02716            -226.00     2600.00
02717             160.00     2800.00
02718             246.00     3200.00
02719             246.00     3400.00
02720            -254.00     3200.00
02721            -128.00     3600.00
02722             246.00     4000.00
02723             -34.00     4000.00
02724             140.00     4400.00
02725            -208.00     4400.00
02726             -94.00     4400.00
02727             246.00     4600.00
02728            -122.00     5000.00
02729            -106.00     5200.00
02730             -20.00     5400.00
02731              74.00     5600.00
02732              72.00     5600.00
02733             -42.00     5800.00
02734             -44.00     6000.00
02735            -114.00     6000.00
02736             146.00     6600.00
02737              10.00     6400.00
02738             -96.00     6600.00
02739              30.00     7000.00
02740             -34.00     6800.00
02741              42.00     7200.00
02742             -18.00     7400.00
02743             -50.00     7400.00
02744              -4.00     7600.00
02745              48.00     7800.00
02746             -18.00     8000.00
02747             -46.00     8000.00
02748               6.00     8200.00
02749             -26.00     8200.00
02750              18.00     8800.00
02751             -10.00     8600.00
02752             -40.00     8800.00
02753             -18.00     9000.00
02754              22.00     9200.00
02755             -16.00     9200.00
02756              -8.00     9200.00
02757             -24.00     9600.00
02758             -48.00     9600.00
02759              10.00     9800.00
02760              -2.00     9800.00
02761              -8.00    10000.00
02762             -14.00    10200.00
02763             -34.00    10200.00
02764             -40.00    10200.00
02765               6.00    10400.00
02766               0.00    10400.00
02767             -18.00    10400.00
02768             -16.00    10600.00
02769             -38.00    10800.00
02770             -24.00    10800.00
02771              -4.00    11000.00
02772             -16.00    11000.00
02773             -16.00    11000.00
02774             -10.00    11200.00
02775             -26.00    11200.00
02776             -22.00    11400.00
02777             -22.00    11400.00
02778             -36.00    11800.00
02779             -18.00    11400.00
02780             -10.00    11800.00
02781             -18.00    11600.00
02782             -22.00    12000.00
02783             -26.00    11800.00
02784             -32.00    12000.00
02785             -22.00    12000.00
02786             -16.00    12000.00
02787             -22.00    12000.00
02788             -24.00    12000.00
02789             -32.00    12000.00
02790             -38.00    12000.00
02791             -26.00    12000.00
02792             -22.00    12200.00
02793             -22.00    12200.00
02794             -22.00    12200.00
02795             -34.00    12200.00
02796             -40.00    12200.00
02797             -34.00    12200.00
02798             -26.00    12000.00
02799             -26.00    12200.00
02800             -26.00    12200.00
02801             -34.00    12200.00
02802             -36.00    12200.00
02803             -38.00    12200.00
02804             -36.00    12000.00
02805             -32.00    12200.00
02806             -30.00    12200.00
02807             -32.00    12000.00
02808             -34.00    12200.00
02809             -38.00    12000.00
02810             -40.00    12000.00
02811             -34.00    12000.00
02812             -34.00    12000.00
02813             -32.00    11800.00
02814             -30.00    12000.00
02815             -34.00    11800.00
02816             -42.00    11600.00
02817             -40.00    11800.00
02818             -30.00    11800.00
02819             -24.00    11400.00
02820             -24.00    11400.00
02821             -32.00    11400.00
02822             -34.00    11200.00
02823             -34.00    11400.00
02824             -32.00    11200.00
02825             -24.00    11000.00
02826             -18.00    10800.00
02827             -24.00    10800.00
02828             -28.00    10800.00
02829             -30.00    10600.00
02830             -26.00    10400.00
02831             -20.00    10400.00
02832             -22.00    10400.00
02833             -22.00    10200.00
02834             -22.00    10200.00
02835             -22.00    10200.00
02836             -22.00     9800.00
02837             -24.00     9800.00
02838             -22.00     9600.00
02839             -16.00     9600.00
02840             -14.00     9400.00
02841             -16.00     9400.00
02842             -18.00     9200.00
02843             -22.00     9000.00
02844             -22.00     8800.00
02845             -14.00     8800.00
02846             -12.00     8600.00
02847             -10.00     8400.00
02848             -14.00     8200.00
02849             -22.00     8200.00
02850             -18.00     8200.00
02851             -12.00     8000.00
02852              -6.00     8000.00
02853              -8.00     7600.00
02854             -10.00     7600.00
02855             -14.00     7400.00
02856             -16.00     7200.00
02857             -14.00     7200.00
02858             -14.00     6800.00
02859             -10.00     6800.00
02860              -8.00     6400.00
02861              -8.00     6400.00
02862             -10.00     6400.00
02863             -10.00     6000.00
02864             -10.00     5800.00
02865             -10.00     5800.00
02866              -6.00     5600.00
02867              -8.00     5400.00
02868             -10.00     5000.00
02869             -10.00     5200.00
02870             -12.00     4800.00
02871              -8.00     4600.00
02872              -6.00     4400.00
02873              -2.00     4200.00
02874              -6.00     4000.00
02875              -8.00     4000.00
02876             -12.00     3800.00
02877             -10.00     3400.00
02878              -8.00     3200.00
02879              -6.00     3200.00
02880              -2.00     3200.00
02881              -6.00     2600.00
02882             -10.00     2600.00
02883              -8.00     2400.00
02884              -8.00     2200.00
02885              -6.00     2000.00
02886              -2.00     1800.00
02887              -2.00     1600.00
02888             -10.00     1600.00
02889              -8.00     1200.00
02890              -6.00     1000.00
02891             -10.00      800.00
02892              -2.00      800.00
02893               0.00      400.00
02894              -2.00      200.00
02895              -2.00      200.00
02896               0.00        0.00
02897              26.00     -400.00
02898              26.00     -400.00
02899              -2.00     -600.00
02900             -24.00     -800.00
02901             -10.00    -1000.00
02902              14.00    -1200.00
02903              28.00    -1200.00
02904             130.00    -1400.00
02905             246.00    -1800.00
02906             -50.00    -2200.00
02907            -254.00    -2400.00
02908            -254.00    -2800.00
02909              94.00    -2600.00
02910             206.00    -2600.00
02911             246.00    -2800.00
02912             -58.00    -3200.00
02913            -254.00    -3000.00
02914             150.00    -3600.00
02915             194.00    -3600.00
02916               8.00    -3600.00
02917             -22.00    -4400.00
02918            -152.00    -4000.00
02919             126.00    -4400.00
02920              88.00    -4600.00
02921             -96.00    -4800.00
02922            -114.00    -5000.00
02923             -20.00    -4800.00
02924             206.00    -5400.00
02925               8.00    -5400.00
02926             -80.00    -5600.00
02927             -74.00    -6000.00
02928             -24.00    -5600.00
02929             152.00    -6400.00
02930               4.00    -6200.00
02931             -58.00    -6400.00
02932             -30.00    -6800.00
02933              26.00    -6600.00
02934              34.00    -7200.00
02935             -16.00    -7000.00
02936               0.00    -7400.00
02937             -10.00    -7200.00
02938              34.00    -7600.00
02939              10.00    -7800.00
02940             -32.00    -7800.00
02941              22.00    -8200.00
02942               4.00    -8000.00
02943              -2.00    -8400.00
02944              14.00    -8600.00
02945               6.00    -8600.00
02946               8.00    -8800.00
02947              10.00    -8800.00
02948               0.00    -9000.00
02949               8.00    -9200.00
02950              20.00    -9200.00
02951               4.00    -9400.00
02952              -6.00    -9400.00
02953              12.00    -9600.00
02954               8.00    -9600.00
02955              14.00    -9600.00
02956               8.00   -10000.00
02957             -10.00   -10000.00
02958              14.00   -10200.00
02959              26.00   -10200.00
02960              14.00   -10200.00
02961               6.00   -10400.00
02962              -6.00   -10600.00
02963              -2.00   -10800.00
02964              20.00   -10800.00
02965              30.00   -10800.00
02966              18.00   -11000.00
02967              10.00   -11000.00
02968               6.00   -11000.00
02969               2.00   -11000.00
02970              18.00   -11200.00
02971              16.00   -11200.00
02972              16.00   -11200.00
02973              24.00   -11600.00
02974              14.00   -11400.00
02975               6.00   -11600.00
02976              14.00   -11600.00
02977              18.00   -11600.00
02978              24.00   -11600.00
02979              26.00   -11600.00
02980              14.00   -11600.00
02981              10.00   -11600.00
02982              20.00   -11600.00
02983              18.00   -11800.00
02984              26.00   -11600.00
02985              34.00   -11800.00
02986              24.00   -11600.00
02987              22.00   -11800.00
02988              18.00   -11800.00
02989              14.00   -11800.00
02990              30.00   -11800.00
02991              32.00   -11800.00
02992              30.00   -11800.00
02993              30.00   -11600.00
02994              30.00   -11800.00
02995              22.00   -11800.00
02996              26.00   -11800.00
02997              30.00   -11800.00
02998              38.00   -11600.00
02999              40.00   -11600.00
03000              30.00   -11600.00
03001              18.00   -11600.00
03002              24.00   -11600.00
03003              30.00   -11600.00
03004              38.00   -11400.00
03005              38.00   -11400.00
03006              30.00   -11400.00
03007              26.00   -11200.00
03008              26.00   -11200.00
03009              22.00   -11200.00
03010              24.00   -11200.00
03011              28.00   -11200.00
03012              30.00   -11200.00
03013              24.00   -10800.00
03014              22.00   -10800.00
03015              14.00   -11000.00
03016              22.00   -10800.00
03017              22.00   -10800.00
03018              22.00   -10600.00
03019              18.00   -10400.00
03020              16.00   -10400.00
03021              14.00   -10200.00
03022              14.00   -10200.00
03023              14.00   -10000.00
03024              14.00   -10000.00
03025              16.00   -10000.00
03026              16.00    -9600.00
03027              16.00    -9600.00
03028              14.00    -9600.00
03029               6.00    -9400.00
03030               4.00    -9400.00
03031              12.00    -9200.00
03032              16.00    -9200.00
03033              14.00    -9000.00
03034               6.00    -8800.00
03035              -2.00    -8800.00
03036               2.00    -8600.00
03037              14.00    -8400.00
03038              16.00    -8400.00
03039               8.00    -8200.00
03040               2.00    -8000.00
03041               2.00    -8000.00
03042               6.00    -7800.00
03043               6.00    -7400.00
03044               2.00    -7400.00
03045               4.00    -7200.00
03046               8.00    -7000.00
03047              10.00    -7000.00
03048               6.00    -6800.00
03049              -2.00    -6800.00
03050              -4.00    -6400.00
03051               2.00    -6400.00
03052              14.00    -6400.00
03053               8.00    -6000.00
03054               0.00    -5800.00
03055              -6.00    -5600.00
03056              -2.00    -5400.00
03057               8.00    -5400.00
03058               6.00    -5200.00
03059               6.00    -5000.00
03060               0.00    -4800.00
03061              -2.00    -4600.00
03062               0.00    -4400.00
03063               0.00    -4200.00
03064               0.00    -4000.00
03065               2.00    -3800.00
03066               0.00    -3600.00
03067              -2.00    -3600.00
03068               0.00    -3200.00
03069               0.00    -3200.00
03070              -2.00    -3000.00
03071               0.00    -2800.00
03072              -6.00    -2400.00
03073               2.00    -2200.00
03074               2.00    -2400.00
03075               6.00    -2000.00
03076               0.00    -1800.00
03077              -8.00    -1600.00
03078             -16.00    -1400.00
03079              -6.00    -1200.00
03080              16.00    -1000.00
03081              14.00     -800.00
03082              -8.00     -600.00
03083             -20.00     -600.00
03084             -14.00     -200.00
03085               2.00        0.00
03086              16.00      200.00
03087               4.00      400.00
03088               0.00      600.00
03089              24.00      800.00
03090              24.00      800.00
03091              -8.00     1000.00
03092             -26.00     1200.00
03093              -8.00     1400.00
03094              30.00     1600.00
03095             118.00     1600.00
03096             246.00     2000.00
03097              38.00     2200.00
03098            -254.00     2400.00
03099            -254.00     2600.00
03100               0.00     2800.00
03101             246.00     3000.00
03102             246.00     3200.00
03103            -254.00     3200.00
03104            -254.00     3400.00
03105             246.00     4000.00
03106             138.00     3800.00
03107              30.00     4000.00
03108              24.00     4400.00
03109            -254.00     4400.00
03110             198.00     4400.00
03111              88.00     4800.00
03112            -178.00     5000.00
03113             -14.00     5400.00
03114              14.00     5400.00
03115              98.00     5600.00
03116             -32.00     5600.00
03117             -22.00     6000.00
03118             -90.00     6000.00
03119              20.00     6400.00
03120             138.00     6600.00
03121            -130.00     6400.00
03122             -16.00     6800.00
03123              -6.00     7000.00
03124              14.00     7200.00
03125              48.00     7200.00
03126             -58.00     7400.00
03127             -34.00     7600.00
03128              18.00     7800.00
03129              24.00     8000.00
03130             -58.00     7800.00
03131               2.00     8200.00
03132              -2.00     8400.00
03133              -6.00     8400.00
03134               8.00     8800.00
03135             -38.00     8800.00
03136             -32.00     8800.00
03137              16.00     9200.00
03138              12.00     9200.00
03139             -30.00     9200.00
03140              -2.00     9400.00
03141             -48.00     9600.00
03142              -8.00     9600.00
03143              14.00     9800.00
03144             -10.00     9800.00
03145             -10.00    10000.00
03146             -24.00    10000.00
03147             -42.00    10400.00
03148             -14.00    10200.00
03149              20.00    10600.00
03150             -12.00    10400.00
03151             -18.00    10600.00
03152             -32.00    10800.00
03153             -34.00    10800.00
03154              -2.00    10800.00
03155              -2.00    11000.00
03156             -24.00    10800.00
03157             -18.00    11200.00
03158             -18.00    11200.00
03159             -24.00    11200.00
03160             -16.00    11400.00
03161             -28.00    11400.00
03162             -26.00    11400.00
03163              -8.00    11600.00
03164             -16.00    11600.00
03165             -26.00    11800.00
03166             -26.00    11800.00
03167             -32.00    11800.00
03168             -30.00    12000.00
03169             -14.00    12000.00
03170             -20.00    12000.00
03171             -24.00    12000.00
03172             -26.00    12000.00
03173             -38.00    12000.00
03174             -28.00    12200.00
03175             -22.00    12200.00
03176             -28.00    12000.00
03177             -22.00    12000.00
03178             -24.00    12200.00
03179             -36.00    12200.00
03180             -38.00    12200.00
03181             -34.00    12000.00
03182             -32.00    12000.00
03183             -24.00    12200.00
03184             -24.00    12200.00
03185             -32.00    12200.00
03186             -40.00    12200.00
03187             -42.00    12000.00
03188             -38.00    12000.00
03189             -26.00    12200.00
03190             -26.00    12000.00
03191             -32.00    12000.00
03192             -40.00    12000.00
03193             -46.00    12000.00
03194             -40.00    12000.00
03195             -30.00    12000.00
03196             -30.00    11800.00
03197             -32.00    11800.00
03198             -34.00    11800.00
03199             -38.00    11600.00
03200             -34.00    11800.00
03201             -32.00    11600.00
03202             -30.00    11600.00
03203             -30.00    11400.00
03204             -26.00    11400.00
03205             -30.00    11400.00
03206             -30.00    11400.00
03207             -32.00    11200.00
03208             -30.00    11200.00
03209             -22.00    11000.00
03210             -18.00    11000.00
03211             -22.00    10800.00
03212             -26.00    10800.00
03213             -30.00    10600.00
03214             -30.00    10600.00
03215             -24.00    10400.00
03216             -18.00    10400.00
03217             -18.00    10200.00
03218             -18.00    10000.00
03219             -26.00    10000.00
03220             -26.00     9800.00
03221             -22.00     9800.00
03222             -16.00     9600.00
03223             -12.00     9600.00
03224             -14.00     9200.00
03225             -18.00     9200.00
03226             -24.00     9200.00
03227             -22.00     9000.00
03228             -16.00     8800.00
03229             -10.00     8600.00
03230             -10.00     8600.00
03231             -14.00     8200.00
03232             -18.00     8200.00
03233             -18.00     8200.00
03234             -18.00     8000.00
03235             -12.00     8000.00
03236              -8.00     7600.00
03237             -10.00     7600.00
03238             -16.00     7400.00
03239             -16.00     7200.00
03240             -14.00     7200.00
03241             -10.00     7000.00
03242             -10.00     6800.00
03243             -10.00     6400.00
03244              -8.00     6400.00
03245              -8.00     6400.00
03246              -8.00     6400.00
03247             -10.00     5800.00
03248             -22.00     5800.00
03249             -18.00     5600.00
03250              -4.00     5600.00
03251               8.00     5200.00
03252               6.00     5000.00
03253             -14.00     4800.00
03254             -28.00     4600.00
03255             -22.00     4400.00
03256              -2.00     4400.00
03257               8.00     4200.00
03258               6.00     4000.00
03259              -8.00     3800.00
03260             -16.00     3600.00
03261             -10.00     3400.00
03262              -6.00     3400.00
03263              -2.00     3000.00
03264              -8.00     2800.00
03265             -10.00     2800.00
03266              -8.00     2600.00
03267               0.00     2400.00
03268               0.00     2200.00
03269              -6.00     2000.00
03270             -14.00     1600.00
03271             -12.00     1600.00
03272              -6.00     1200.00
03273               6.00     1200.00
03274               0.00     1000.00
03275             -10.00      800.00
03276             -12.00      600.00
03277              -8.00      400.00
03278               6.00      200.00
03279               6.00        0.00
03280              10.00        0.00
03281              24.00     -400.00
03282               6.00     -600.00
03283             -18.00     -800.00
03284             -10.00     -800.00
03285               8.00    -1200.00
03286              18.00    -1200.00
03287              62.00    -1400.00
03288             238.00    -1600.00
03289             194.00    -2200.00
03290            -254.00    -2400.00
03291            -254.00    -2600.00
03292             -72.00    -2800.00
03293             182.00    -2400.00
03294             246.00    -2400.00
03295             246.00    -3200.00
03296            -254.00    -3200.00
03297            -202.00    -3200.00
03298             246.00    -3800.00
03299              42.00    -3600.00
03300              30.00    -4000.00
03301            -136.00    -4200.00
03302             -40.00    -4000.00
03303             176.00    -4800.00
03304             -26.00    -4600.00
03305             -96.00    -5000.00
03306             -98.00    -4800.00
03307             112.00    -5200.00
03308             128.00    -5400.00
03309             -80.00    -5400.00
03310             -38.00    -6000.00
03311             -66.00    -5800.00
03312              88.00    -6200.00
03313              82.00    -6400.00
03314             -70.00    -6200.00
03315             -26.00    -6800.00
03316               6.00    -6800.00
03317              48.00    -7000.00
03318             -14.00    -7200.00
03319             -10.00    -7000.00
03320               8.00    -7400.00
03321              14.00    -7400.00
03322              38.00    -7800.00
03323             -40.00    -7800.00
03324               0.00    -8000.00
03325              32.00    -8200.00
03326               2.00    -8400.00
03327               0.00    -8400.00
03328              -6.00    -8400.00
03329               2.00    -8800.00
03330              28.00    -8800.00
03331              18.00    -8800.00
03332              -8.00    -9200.00
03333               6.00    -9200.00
03334              16.00    -9400.00
03335               8.00    -9400.00
03336              16.00    -9600.00
03337               8.00    -9600.00
03338              -2.00    -9800.00
03339              16.00   -10000.00
03340               2.00   -10000.00
03341               8.00   -10000.00
03342              30.00   -10000.00
03343              14.00   -10200.00
03344               4.00   -10400.00
03345               6.00   -10400.00
03346               0.00   -10800.00
03347              14.00   -10600.00
03348              24.00   -10800.00
03349              14.00   -11000.00
03350              10.00   -11000.00
03351              16.00   -11000.00
03352               4.00   -11000.00
03353              14.00   -11200.00
03354              20.00   -11200.00
03355              14.00   -11200.00
03356              22.00   -11400.00
03357              18.00   -11600.00
03358               2.00   -11600.00
03359              14.00   -11600.00
03360              22.00   -11600.00
03361              18.00   -11600.00
03362              26.00   -11600.00
03363              20.00   -11600.00
03364              14.00   -11800.00
03365              18.00   -11600.00
03366              16.00   -12000.00
03367              16.00   -11800.00
03368              26.00   -11800.00
03369              30.00   -12000.00
03370              26.00   -11800.00
03371              24.00   -11800.00
03372              16.00   -11800.00
03373              20.00   -11800.00
03374              26.00   -11800.00
03375              26.00   -11800.00
03376              34.00   -11800.00
03377              38.00   -11800.00
03378              26.00   -11800.00
03379              18.00   -11600.00
03380              20.00   -11800.00
03381              30.00   -11600.00
03382              40.00   -11800.00
03383              42.00   -11600.00
03384              24.00   -11600.00
03385              16.00   -11600.00
03386              20.00   -11600.00
03387              32.00   -11600.00
03388              46.00   -11400.00
03389              40.00   -11400.00
03390              22.00   -11600.00
03391              18.00   -11200.00
03392              20.00   -11200.00
03393              30.00   -11200.00
03394              32.00   -11200.00
03395              30.00   -11000.00
03396              22.00   -11000.00
03397              18.00   -11000.00
03398              22.00   -10800.00
03399              24.00   -10800.00
03400              26.00   -10800.00
03401              22.00   -10400.00
03402              16.00   -10600.00
03403              16.00   -10400.00
03404              16.00   -10400.00
03405              16.00   -10200.00
03406              18.00   -10000.00
03407              14.00   -10000.00
03408              14.00   -10000.00
03409              16.00    -9600.00
03410              12.00    -9600.00
03411               8.00    -9600.00
03412               6.00    -9400.00
03413              10.00    -9400.00
03414              14.00    -9200.00
03415              14.00    -9200.00
03416               8.00    -9200.00
03417               6.00    -8800.00
03418               2.00    -8800.00
03419               6.00    -8600.00
03420               8.00    -8400.00
03421              14.00    -8400.00
03422               8.00    -8400.00
03423               6.00    -8000.00
03424               0.00    -8000.00
03425               0.00    -7800.00
03426               6.00    -7800.00
03427              10.00    -7400.00
03428              10.00    -7400.00
03429               6.00    -7200.00
03430               0.00    -7200.00
03431               0.00    -6800.00
03432               0.00    -6800.00
03433               4.00    -6600.00
03434               6.00    -6400.00
03435               8.00    -6400.00
03436               6.00    -6000.00
03437               0.00    -5800.00
03438              -2.00    -5800.00
03439              -2.00    -5600.00
03440               2.00    -5400.00
03441               6.00    -5200.00
03442               6.00    -5000.00
03443               2.00    -4800.00
03444               0.00    -4600.00
03445              -6.00    -4400.00
03446              -2.00    -4400.00
03447               4.00    -4000.00
03448               6.00    -4000.00
03449               4.00    -3800.00
03450               0.00    -3600.00
03451              -2.00    -3400.00
03452              -2.00    -3200.00
03453              -2.00    -3000.00
03454               2.00    -2800.00
03455               2.00    -2600.00
03456               6.00    -2400.00
03457               0.00    -2200.00
03458              -2.00    -2000.00
03459              -6.00    -2000.00
03460              -2.00    -1600.00
03461               0.00    -1400.00
03462               0.00    -1000.00
03463               0.00    -1000.00
03464               0.00    -1000.00
03465              -2.00     -600.00
03466              -2.00     -600.00
03467              -2.00     -400.00
03468              -2.00     -200.00
03469               2.00      200.00
03470               4.00      200.00
03471               4.00      600.00
03472              18.00      800.00
03473              32.00      800.00
03474               6.00     1200.00
03475             -22.00     1200.00
03476             -12.00     1200.00
03477              14.00     1600.00
03478              42.00     1600.00
03479             232.00     2000.00
03480             246.00     2400.00
03481            -254.00     2400.00
03482            -254.00     2400.00
03483            -224.00     2600.00
03484             162.00     2800.00
03485             246.00     3200.00
03486             246.00     3400.00
03487            -254.00     3200.00
03488            -118.00     3800.00
03489             246.00     3800.00
03490             -32.00     4000.00
03491             142.00     4400.00
03492            -216.00     4200.00
03493             -94.00     4400.00
03494             246.00     4800.00
03495            -120.00     5000.00
03496            -104.00     5000.00
03497             -22.00     5400.00
03498              70.00     5600.00
03499              68.00     5400.00
03500             -40.00     5800.00
03501             -42.00     6000.00
03502            -114.00     6000.00
03503             144.00     6600.00
03504              10.00     6400.00
03505             -92.00     6400.00
03506              26.00     6800.00
03507             -40.00     6800.00
03508              46.00     7200.00
03509             -16.00     7400.00
03510             -48.00     7400.00
03511              -2.00     7600.00
03512              46.00     7800.00
03513             -22.00     8000.00
03514             -46.00     8000.00
03515               8.00     8400.00
03516             -24.00     8200.00
03517              18.00     8400.00
03518             -10.00     8600.00
03519             -40.00     8800.00
03520             -16.00     9000.00
03521              24.00     9200.00
03522             -14.00     9400.00
03523              -8.00     9400.00
03524             -22.00     9600.00
03525             -46.00     9600.00
03526              14.00     9800.00
03527              -2.00    10000.00
03528              -8.00    10000.00
03529             -14.00    10000.00
03530             -32.00    10200.00
03531             -38.00    10400.00
03532               8.00    10400.00
03533               6.00    10600.00
03534             -14.00    10600.00
03535             -16.00    10800.00
03536             -40.00    10800.00
03537             -28.00    10800.00
03538              -2.00    11000.00
03539             -10.00    11000.00
03540             -16.00    11200.00
03541             -14.00    11400.00
03542             -30.00    11200.00
03543             -22.00    11400.00
03544             -16.00    11400.00
03545             -30.00    11400.00
03546             -14.00    11800.00
03547             -10.00    11800.00
03548             -26.00    11800.00
03549             -26.00    11600.00
03550             -26.00    12000.00
03551             -32.00    11800.00
03552             -18.00    12000.00
03553             -18.00    12000.00
03554             -24.00    12000.00
03555             -18.00    12000.00
03556             -34.00    12000.00
03557             -42.00    12200.00
03558             -30.00    12200.00
03559             -24.00    12000.00
03560             -18.00    12200.00
03561             -18.00    12000.00
03562             -32.00    12400.00
03563             -42.00    12200.00
03564             -38.00    12200.00
03565             -30.00    12200.00
03566             -26.00    12200.00
03567             -24.00    12200.00
03568             -34.00    12200.00
03569             -40.00    12200.00
03570             -38.00    12000.00
03571             -38.00    12000.00
03572             -32.00    12000.00
03573             -32.00    12000.00
03574             -34.00    12200.00
03575             -36.00    12000.00
03576             -40.00    12000.00
03577             -42.00    12000.00
03578             -38.00    12000.00
03579             -30.00    12000.00
03580             -28.00    11800.00
03581             -30.00    11800.00
03582             -40.00    11800.00
03583             -42.00    11600.00
03584             -34.00    11600.00
03585             -28.00    11600.00
03586             -26.00    11400.00
03587             -30.00    11800.00
03588             -32.00    11200.00
03589             -30.00    11200.00
03590             -30.00    11200.00
03591             -32.00    11200.00
03592             -24.00    11000.00
03593             -18.00    11000.00
03594             -22.00    10800.00
03595             -26.00    10800.00
03596             -32.00    10600.00
03597             -26.00    10600.00
03598             -20.00    10400.00
03599             -16.00    10400.00
03600             -16.00    10400.00
03601             -18.00    10200.00
03602             -22.00    10000.00
03603             -24.00     9800.00
03604             -22.00    10000.00
03605             -24.00     9800.00
03606             -16.00     9600.00
03607             -12.00     9600.00
03608             -14.00     9200.00
03609             -22.00     9200.00
03610             -22.00     9200.00
03611             -22.00     9000.00
03612             -16.00     8800.00
03613              -8.00     8800.00
03614             -10.00     8400.00
03615             -16.00     8400.00
03616             -20.00     8200.00
03617             -22.00     8000.00
03618             -16.00     8000.00
03619             -10.00     7800.00
03620             -10.00     7600.00
03621             -10.00     7600.00
03622             -10.00     7400.00
03623             -16.00     7200.00
03624             -16.00     7000.00
03625             -14.00     6800.00
03626             -10.00     6600.00
03627              -8.00     6600.00
03628              -6.00     6400.00
03629             -14.00     6400.00
03630             -16.00     6000.00
03631             -12.00     5800.00
03632             -10.00     5600.00
03633              -6.00     5600.00
03634              -2.00     5400.00
03635             -10.00     5200.00
03636             -12.00     5000.00
03637             -16.00     4800.00
03638             -10.00     4800.00
03639              -8.00     4400.00
03640              -2.00     4400.00
03641              -8.00     4000.00
03642              -8.00     4000.00
03643             -10.00     3600.00
03644             -10.00     3600.00
03645              -6.00     3400.00
03646              -8.00     3200.00
03647              -8.00     3000.00
03648              -6.00     2800.00
03649              -8.00     2600.00
03650              -6.00     2400.00
03651              -6.00     2200.00
03652              -4.00     2000.00
03653               0.00     1800.00
03654              -2.00     1600.00
03655              -6.00     1400.00
03656              -8.00     1200.00
03657             -10.00     1000.00
03658              -6.00      800.00
03659               0.00      800.00
03660               0.00      400.00
03661               0.00      200.00
03662               0.00        0.00
03663               2.00        0.00
03664              24.00     -400.00
03665              24.00     -600.00
03666              -8.00     -600.00
03667             -24.00     -800.00
03668              -2.00    -1000.00
03669              16.00    -1200.00
03670              32.00    -1400.00
03671             134.00    -1400.00
03672             246.00    -2000.00
03673             -64.00    -2400.00
03674            -254.00    -2600.00
03675            -254.00    -2600.00
03676             112.00    -2800.00
03677             220.00    -2600.00
03678             246.00    -2800.00
03679             -86.00    -3400.00
03680            -254.00    -3000.00
03681             164.00    -3600.00
03682             206.00    -3800.00
03683              10.00    -3600.00
03684             -26.00    -4400.00
03685            -154.00    -4000.00
03686             122.00    -4400.00
03687              86.00    -4600.00
03688             -88.00    -4800.00
03689            -104.00    -5000.00
03690             -18.00    -4800.00
03691             186.00    -5400.00
03692              -6.00    -5400.00
03693             -70.00    -5600.00
03694             -50.00    -6000.00
03695             -12.00    -5800.00
03696             136.00    -6400.00
03697             -16.00    -6200.00
03698             -56.00    -6600.00
03699             -14.00    -6800.00
03700              34.00    -6800.00
03701              24.00    -7000.00
03702             -30.00    -7200.00
03703               6.00    -7200.00
03704               0.00    -7400.00
03705              40.00    -7600.00
03706               2.00    -8000.00
03707             -34.00    -7800.00
03708              24.00    -8200.00
03709              14.00    -8200.00
03710               2.00    -8400.00
03711              10.00    -8400.00
03712              -6.00    -8600.00
03713               8.00    -8800.00
03714              18.00    -8800.00
03715               0.00    -9200.00
03716              -2.00    -9200.00
03717              18.00    -9200.00
03718              16.00    -9400.00
03719              16.00    -9400.00
03720              10.00    -9600.00
03721             -14.00    -9600.00
03722              -2.00    -9800.00
03723              18.00   -10000.00
03724              18.00   -10000.00
03725              32.00   -10200.00
03726               8.00   -10200.00
03727             -22.00   -10400.00
03728               6.00   -10200.00
03729              30.00   -10600.00
03730              22.00   -10400.00
03731              10.00   -10600.00
03732               0.00   -10800.00
03733               4.00   -11000.00
03734              26.00   -10800.00
03735              18.00   -11000.00
03736              10.00   -11200.00
03737              16.00   -11200.00
03738               8.00   -11200.00
03739              14.00   -11200.00
03740              26.00   -11400.00
03741              14.00   -11400.00
03742              10.00   -11400.00
03743              14.00   -11600.00
03744               8.00   -11600.00
03745              18.00   -11600.00
03746              32.00   -11800.00
03747              30.00   -11600.00
03748              22.00   -11800.00
03749               8.00   -11800.00
03750               0.00   -11600.00
03751              18.00   -11800.00
03752              38.00   -11800.00
03753              32.00   -11800.00
03754              30.00   -11800.00
03755              14.00   -12000.00
03756              10.00   -11800.00
03757              22.00   -11600.00
03758              26.00   -11800.00
03759              30.00   -12000.00
03760              34.00   -11600.00
03761              32.00   -11800.00
03762              22.00   -11800.00
03763              22.00   -11800.00
03764              20.00   -11800.00
03765              30.00   -11800.00
03766              42.00   -11600.00
03767              40.00   -11800.00
03768              34.00   -11600.00
03769              22.00   -11600.00
03770              16.00   -11600.00
03771              24.00   -11400.00
03772              36.00   -11600.00
03773              36.00   -11400.00
03774              32.00   -11600.00
03775              30.00   -11200.00
03776              22.00   -11400.00
03777              22.00   -11200.00
03778              22.00   -11200.00
03779              26.00   -11000.00
03780              30.00   -11000.00
03781              30.00   -11000.00
03782              22.00   -11000.00
03783              16.00   -10800.00
03784              16.00   -10800.00
03785              22.00   -10800.00
03786              22.00   -10400.00
03787              22.00   -10400.00
03788              16.00   -10200.00
03789              14.00   -10200.00
03790              14.00   -10000.00
03791              16.00   -10000.00
03792              16.00   -10000.00
03793              16.00    -9800.00
03794              14.00    -9600.00
03795              14.00    -9600.00
03796              10.00    -9400.00
03797               8.00    -9200.00
03798              10.00    -9200.00
03799              14.00    -9000.00
03800              14.00    -8800.00
03801               8.00    -8800.00
03802               0.00    -8800.00
03803               6.00    -8600.00
03804              10.00    -8400.00
03805              10.00    -8400.00
03806              10.00    -8200.00
03807               4.00    -8000.00
03808               0.00    -8000.00
03809               2.00    -7600.00
03810               6.00    -7400.00
03811              10.00    -7400.00
03812              10.00    -7200.00
03813               8.00    -7200.00
03814               0.00    -7000.00
03815              -2.00    -6800.00
03816               0.00    -6800.00
03817               6.00    -6400.00
03818               6.00    -6400.00
03819               6.00    -6200.00
03820               2.00    -6000.00
03821              -2.00    -5600.00
03822              -8.00    -5600.00
03823              -6.00    -5400.00
03824               6.00    -5400.00
03825              14.00    -5200.00
03826              12.00    -4800.00
03827               0.00    -4800.00
03828              -8.00    -4600.00
03829              -8.00    -4400.00
03830               2.00    -4400.00
03831               8.00    -4000.00
03832               4.00    -3800.00
03833              -2.00    -3800.00
03834              -2.00    -3600.00
03835               0.00    -3200.00
03836               0.00    -3000.00
03837              -2.00    -3000.00
03838              -2.00    -2800.00
03839               0.00    -2600.00
03840               6.00    -2400.00
03841               4.00    -2200.00
03842              -2.00    -2200.00
03843              -6.00    -1800.00
03844              -6.00    -1400.00
03845               2.00    -1400.00
03846               6.00    -1000.00
03847               0.00    -1000.00
03848              -6.00     -600.00
03849              -2.00     -800.00
03850               0.00     -600.00
03851               0.00     -200.00
03852              -2.00        0.00
03853              -6.00      200.00
03854               4.00      400.00
03855              12.00      600.00
03856              34.00      800.00
03857              22.00      800.00
03858             -12.00     1000.00
03859             -22.00     1200.00
03860               2.00     1600.00
03861              28.00     1600.00
03862             106.00     1800.00
03863             246.00     2200.00
03864              50.00     2400.00
03865            -254.00     2200.00
03866            -254.00     2600.00
03867              -2.00     2800.00
03868             246.00     3000.00
03869             246.00     3400.00
03870            -254.00     3200.00
03871            -254.00     3400.00
03872             246.00     3800.00
03873             142.00     3800.00
03874              46.00     4000.00
03875              20.00     4200.00
03876            -254.00     4400.00
03877             202.00     4400.00
03878              96.00     4800.00
03879            -176.00     5000.00
03880             -32.00     5200.00
03881               2.00     5600.00
03882             112.00     5400.00
03883             -16.00     5600.00
03884             -24.00     6200.00
03885            -110.00     5800.00
03886              14.00     6600.00
03887             144.00     6600.00
03888            -116.00     6400.00
03889              -6.00     7000.00
03890             -14.00     6800.00
03891               0.00     7200.00
03892              34.00     7400.00
03893             -56.00     7400.00
03894             -28.00     7600.00
03895              24.00     7600.00
03896              30.00     8000.00
03897             -58.00     8000.00
03898              -6.00     8200.00
03899             -16.00     8200.00
03900              -4.00     8400.00
03901              16.00     8800.00
03902             -34.00     8800.00
03903             -38.00     8800.00
03904              12.00     9200.00
03905               8.00     9200.00
03906             -24.00     9200.00
03907               0.00     9600.00
03908             -46.00     9600.00
03909             -10.00     9600.00
03910              10.00     9800.00
03911             -14.00     9800.00
03912              -8.00    10000.00
03913             -18.00    10200.00
03914             -38.00    10200.00
03915             -14.00    10400.00
03916              14.00    10400.00
03917             -14.00    10400.00
03918              -8.00    10600.00
03919             -26.00    10800.00
03920             -38.00    10800.00
03921             -16.00    10800.00
03922              -8.00    11200.00
03923             -18.00    11000.00
03924             -14.00    11200.00
03925             -18.00    11400.00
03926             -22.00    11400.00
03927             -10.00    11400.00
03928             -26.00    11600.00
03929             -32.00    11400.00
03930             -16.00    11800.00
03931             -16.00    11800.00
03932             -20.00    11600.00
03933             -18.00    12000.00
03934             -32.00    12000.00
03935             -32.00    11800.00
03936             -18.00    12000.00
03937             -14.00    12000.00
03938             -22.00    12000.00
03939             -32.00    12000.00
03940             -48.00    12000.00
03941             -36.00    12200.00
03942             -16.00    12000.00
03943             -16.00    12200.00
03944             -24.00    12000.00
03945             -38.00    12200.00
03946             -46.00    12200.00
03947             -32.00    12200.00
03948             -24.00    12200.00
03949             -26.00    12400.00
03950             -32.00    12000.00
03951             -38.00    12000.00
03952             -42.00    12200.00
03953             -38.00    12000.00
03954             -34.00    12200.00
03955             -34.00    12200.00
03956             -34.00    12000.00
03957             -32.00    12000.00
03958             -34.00    12000.00
03959             -38.00    12000.00
03960             -42.00    12000.00
03961             -42.00    12000.00
03962             -32.00    12000.00
03963             -30.00    12000.00
03964             -30.00    11800.00
03965             -34.00    11800.00
03966             -42.00    11800.00
03967             -42.00    11800.00
03968             -32.00    11600.00
03969             -30.00    11600.00
03970             -26.00    11400.00
03971             -28.00    11400.00
03972             -26.00    11400.00
03973             -28.00    11200.00
03974             -32.00    11400.00
03975             -34.00    11200.00
03976             -26.00    11000.00
03977             -18.00    10800.00
03978             -14.00    10800.00
03979             -20.00    10800.00
03980             -30.00    10600.00
03981             -36.00    10400.00
03982             -26.00    10400.00
03983             -14.00    10200.00
03984              -8.00    10400.00
03985             -16.00    10400.00
03986             -26.00     9800.00
03987             -30.00    10000.00
03988             -24.00     9800.00
03989             -14.00     9600.00
03990             -14.00     9600.00
03991             -16.00     9600.00
03992             -24.00     9200.00
03993             -18.00     9200.00
03994             -16.00     9000.00
03995             -10.00     8800.00
03996             -10.00     8600.00
03997             -16.00     8600.00
03998             -18.00     8400.00
03999             -18.00     8200.00
04000             -16.00     8200.00
04001             -14.00     8000.00
04002             -14.00     7800.00
04003             -10.00     7800.00
04004             -14.00     7400.00
04005             -10.00     7400.00
04006             -14.00     7400.00
04007             -16.00     7000.00
04008             -16.00     6800.00
04009             -14.00     7000.00
04010              -6.00     6600.00
04011              -8.00     6400.00
04012             -10.00     6400.00
04013             -16.00     6200.00
04014             -14.00     6000.00
04015             -10.00     5800.00
04016              -6.00     5600.00
04017              -2.00     5600.00
04018             -10.00     5200.00
04019             -12.00     5000.00
04020             -16.00     5000.00
04021             -16.00     4800.00
04022              -8.00     4400.00
04023               0.00     4200.00
04024               0.00     4000.00
04025              -6.00     4000.00
04026             -10.00     3600.00
04027             -14.00     3600.00
04028              -8.00     3400.00
04029              -2.00     3200.00
04030              -2.00     3200.00
04031              -4.00     2800.00
04032             -10.00     2600.00
04033              -8.00     2400.00
04034              -2.00     2200.00
04035              -2.00     2000.00
04036              -6.00     1800.00
04037              -6.00     1800.00
04038              -4.00     1600.00
04039              -2.00     1200.00
04040              -4.00     1200.00
04041              -6.00     1000.00
04042              -6.00      800.00
04043              -2.00      400.00
04044               0.00      200.00
04045               2.00      200.00
04046               2.00        0.00
04047              14.00     -400.00
04048              32.00     -400.00
04049               8.00     -400.00
04050             -22.00     -600.00
04051             -16.00     -800.00
04052              10.00    -1200.00
04053              24.00    -1200.00
04054              66.00    -1400.00
04055             242.00    -1600.00
04056             186.00    -2200.00
04057            -254.00    -2400.00
04058            -254.00    -2600.00
04059             -58.00    -2800.00
04060             186.00    -2600.00
04061             246.00    -2800.00
04062             246.00    -3200.00
04063            -254.00    -3400.00
04064            -194.00    -3200.00
04065             246.00    -4000.00
04066              42.00    -3600.00
04067              30.00    -4000.00
04068            -138.00    -4200.00
04069             -34.00    -4200.00
04070             176.00    -4800.00
04071             -30.00    -4600.00
04072             -98.00    -4800.00
04073             -98.00    -4800.00
04074             116.00    -5200.00
04075             126.00    -5400.00
04076             -82.00    -5400.00
04077             -42.00    -6000.00
04078             -68.00    -5800.00
04079              86.00    -6200.00
04080              86.00    -6200.00
04081             -72.00    -6200.00
04082             -30.00    -6800.00
04083               0.00    -6800.00
04084              48.00    -7000.00
04085             -10.00    -7000.00
04086             -10.00    -7200.00
04087               2.00    -7600.00
04088              14.00    -7400.00
04089              34.00    -7800.00
04090             -38.00    -7800.00
04091               0.00    -8000.00
04092              32.00    -8200.00
04093               0.00    -8200.00
04094              -2.00    -8600.00
04095              -6.00    -8400.00
04096               0.00    -8800.00
04097              24.00    -8800.00
04098              14.00    -9000.00
04099             -10.00    -9200.00
04100               6.00    -9200.00
04101              14.00    -9400.00
04102               6.00    -9400.00
04103              16.00    -9600.00
04104              14.00    -9600.00
04105              -2.00   -10000.00
04106              12.00    -9800.00
04107               0.00   -10000.00
04108               8.00   -10000.00
04109              32.00   -10200.00
04110              16.00   -10200.00
04111               0.00   -10400.00
04112               4.00   -10600.00
04113               2.00   -10400.00
04114              16.00   -10800.00
04115              26.00   -10800.00
04116              16.00   -10800.00
04117              14.00   -11000.00
04118              14.00   -11000.00
04119               0.00   -11200.00
04120              14.00   -11200.00
04121              30.00   -11200.00
04122              22.00   -11200.00
04123              18.00   -11200.00
04124              10.00   -11200.00
04125               6.00   -11400.00
04126              22.00   -11600.00
04127              18.00   -11400.00
04128              14.00   -11600.00
04129              26.00   -11600.00
04130              28.00   -11600.00
04131              16.00   -11800.00
04132              10.00   -11600.00
04133               8.00   -11800.00
04134              16.00   -11800.00
04135              40.00   -11800.00
04136              40.00   -11800.00
04137              24.00   -11800.00
04138               6.00   -11800.00
04139               0.00   -11800.00
04140              24.00   -11800.00
04141              46.00   -11800.00
04142              34.00   -11800.00
04143              22.00   -11800.00
04144              18.00   -12000.00
04145              24.00   -11800.00
04146              26.00   -11800.00
04147              24.00   -11800.00
04148              26.00   -11800.00
04149              34.00   -11600.00
04150              40.00   -11800.00
04151              28.00   -11800.00
04152              22.00   -11600.00
04153              16.00   -11600.00
04154              24.00   -11600.00
04155              38.00   -11600.00
04156              38.00   -11600.00
04157              30.00   -11600.00
04158              22.00   -11200.00
04159              22.00   -11400.00
04160              24.00   -11200.00
04161              26.00   -11200.00
04162              26.00   -11200.00
04163              24.00   -11000.00
04164              28.00   -11000.00
04165              26.00   -10800.00
04166              20.00   -11000.00
04167              14.00   -10800.00
04168              14.00   -10400.00
04169              22.00   -10800.00
04170              30.00   -10200.00
04171              24.00   -10400.00
04172              10.00   -10200.00
04173               6.00   -10200.00
04174              10.00   -10000.00
04175              16.00   -10000.00
04176              24.00    -9800.00
04177              16.00    -9800.00
04178              10.00    -9600.00
04179               8.00    -9600.00
04180              10.00    -9400.00
04181              16.00    -9200.00
04182              14.00    -9200.00
04183               8.00    -9200.00
04184              10.00    -8800.00
04185              14.00    -8800.00
04186               8.00    -8600.00
04187               6.00    -8600.00
04188               4.00    -8400.00
04189              10.00    -8200.00
04190              12.00    -8000.00
04191              10.00    -8000.00
04192               6.00    -7800.00
04193               2.00    -7600.00
04194               0.00    -7400.00
04195               6.00    -7400.00
04196              10.00    -7000.00
04197               8.00    -7200.00
04198               2.00    -7000.00
04199               0.00    -6800.00
04200               2.00    -6600.00
04201               8.00    -6400.00
04202               8.00    -6200.00
04203               2.00    -6200.00
04204               0.00    -5800.00
04205               0.00    -5600.00
04206               2.00    -5600.00
04207               0.00    -5400.00
04208               0.00    -5200.00
04209               0.00    -4800.00
04210               2.00    -4800.00
04211               6.00    -4800.00
04212               2.00    -4400.00
04213              -6.00    -4400.00
04214              -2.00    -4000.00
04215               0.00    -4000.00
04216               6.00    -3800.00
04217               6.00    -3600.00
04218              -2.00    -3600.00
04219              -8.00    -3400.00
04220              -4.00    -3000.00
04221               2.00    -2800.00
04222               6.00    -2600.00
04223               2.00    -2400.00
04224               0.00    -2400.00
04225              -6.00    -2200.00
04226              -6.00    -2000.00
04227              -4.00    -1600.00
04228               0.00    -1400.00
04229               2.00    -1200.00
04230               2.00     -800.00
04231               0.00    -1000.00
04232              -6.00     -800.00
04233              -6.00     -400.00
04234              -2.00     -400.00
04235               0.00        0.00
04236               4.00        0.00
04237               2.00      200.00
04238               2.00      200.00
04239              16.00      600.00
04240              34.00      800.00
04241               8.00     1000.00
04242             -16.00     1200.00
04243             -10.00     1200.00
04244              14.00     1600.00
04245              44.00     1600.00
04246             238.00     2000.00
04247             246.00     2400.00
04248            -254.00     2400.00
04249            -254.00     2400.00
04250            -214.00     2800.00
04251             172.00     2800.00
04252             246.00     3200.00
04253             246.00     3400.00
04254            -254.00     3200.00
04255            -104.00     3600.00
04256             246.00     4000.00
04257             -32.00     4000.00
04258             138.00     4200.00
04259            -222.00     4400.00
04260             -84.00     4400.00
04261             246.00     4800.00
04262            -124.00     4800.00
04263            -104.00     5000.00
04264             -24.00     5200.00
04265              74.00     5600.00
04266              64.00     5600.00
04267             -42.00     5800.00
04268             -46.00     6000.00
04269            -114.00     6000.00
04270             146.00     6400.00
04271               4.00     6400.00
04272             -94.00     6600.00
04273              26.00     6800.00
04274             -42.00     6800.00
04275              42.00     7200.00
04276             -22.00     7400.00
04277             -48.00     7600.00
04278              -2.00     7600.00
04279              42.00     7800.00
04280             -22.00     8000.00
04281             -46.00     8000.00
04282               6.00     8400.00
04283             -28.00     8200.00
04284              18.00     8600.00
04285             -10.00     8800.00
04286             -42.00     8800.00
04287             -18.00     9000.00
04288              24.00     9200.00
04289             -16.00     9200.00
04290              -8.00     9400.00
04291             -26.00     9400.00
04292             -42.00     9400.00
04293              14.00     9800.00
04294              -2.00    10000.00
04295              -8.00    10000.00
04296             -12.00    10000.00
04297             -32.00    10000.00
04298             -40.00    10400.00
04299               8.00    10400.00
04300               6.00    10400.00
04301             -16.00    10400.00
04302             -14.00    10800.00
04303             -34.00    10800.00
04304             -26.00    10800.00
04305              -6.00    11000.00
04306             -14.00    11200.00
04307             -16.00    11200.00
04308             -10.00    11400.00
04309             -28.00    11400.00
04310             -16.00    11400.00
04311             -16.00    11400.00
04312             -32.00    11400.00
04313             -22.00    11800.00
04314             -16.00    11800.00
04315             -24.00    11800.00
04316             -18.00    11800.00
04317             -24.00    11800.00
04318             -32.00    11800.00
04319             -22.00    12000.00
04320             -22.00    12000.00
04321             -26.00    12000.00
04322             -22.00    12000.00
04323             -30.00    12000.00
04324             -38.00    12200.00
04325             -28.00    12000.00
04326             -26.00    12000.00
04327             -22.00    12200.00
04328             -20.00    12200.00
04329             -38.00    12200.00
04330             -44.00    12000.00
04331             -34.00    12200.00
04332             -32.00    12200.00
04333             -26.00    12000.00
04334             -24.00    12200.00
04335             -34.00    12200.00
04336             -40.00    12200.00
04337             -42.00    12200.00
04338             -42.00    12000.00
04339             -34.00    12000.00
04340             -28.00    12000.00
04341             -34.00    12000.00
04342             -38.00    12000.00
04343             -40.00    12000.00
04344             -42.00    12000.00
04345             -38.00    12000.00
04346             -34.00    11800.00
04347             -34.00    12000.00
04348             -30.00    11800.00
04349             -32.00    12000.00
04350             -40.00    11800.00
04351             -42.00    11600.00
04352             -38.00    11600.00
04353             -32.00    11800.00
04354             -22.00    11400.00
04355             -26.00    11400.00
04356             -30.00    11200.00
04357             -34.00    11200.00
04358             -38.00    11200.00
04359             -30.00    11000.00
04360             -16.00    10800.00
04361             -16.00    10800.00
04362             -22.00    10800.00
04363             -26.00    10600.00
04364             -30.00    10600.00
04365             -26.00    10400.00
04366             -18.00    10400.00
04367             -18.00    10400.00
04368             -16.00    10000.00
04369             -18.00    10000.00
04370             -22.00     9800.00
04371             -24.00    10000.00
04372             -24.00     9600.00
04373             -14.00     9600.00
04374              -8.00     9400.00
04375             -10.00     9400.00
04376             -20.00     9200.00
04377             -26.00     9000.00
04378             -24.00     9000.00
04379             -14.00     8800.00
04380               0.00     8600.00
04381              -2.00     8600.00
04382             -16.00     8400.00
04383             -26.00     8200.00
04384             -22.00     8000.00
04385              -8.00     8000.00
04386              -2.00     7800.00
04387              -8.00     7600.00
04388             -16.00     7600.00
04389             -18.00     7200.00
04390             -16.00     7200.00
04391             -10.00     7000.00
04392              -6.00     6800.00
04393             -10.00     6600.00
04394             -10.00     6600.00
04395             -14.00     6400.00
04396             -14.00     6200.00
04397             -10.00     6000.00
04398             -10.00     5800.00
04399              -8.00     5600.00
04400             -10.00     5600.00
04401              -2.00     5400.00
04402             -10.00     5200.00
04403             -14.00     5000.00
04404             -16.00     4800.00
04405             -12.00     4600.00
04406              -6.00     4400.00
04407              -2.00     4200.00
04408              -4.00     4000.00
04409              -8.00     3600.00
04410             -14.00     3600.00
04411             -14.00     3400.00
04412              -8.00     3200.00
04413              -2.00     3200.00
04414              -2.00     3000.00
04415              -6.00     2800.00
04416              -8.00     2600.00
04417             -14.00     2400.00
04418              -8.00     2000.00
04419              -6.00     2000.00
04420              -2.00     1800.00
04421              -6.00     1600.00
04422              -6.00     1600.00
04423              -6.00     1200.00
04424             -10.00     1000.00
04425             -10.00     1000.00
04426              -4.00      800.00
04427               6.00      400.00
04428               2.00      200.00
04429              -2.00        0.00
04430              -6.00        0.00
04431              22.00     -400.00
04432              26.00     -400.00
04433              -2.00     -600.00
04434             -24.00     -800.00
04435             -10.00     -800.00
04436              10.00    -1200.00
04437              32.00    -1400.00
04438             144.00    -1600.00
04439             246.00    -1800.00
04440             -72.00    -2400.00
04441            -254.00    -2200.00
04442            -254.00    -2600.00
04443             120.00    -2600.00
04444             234.00    -2400.00
04445             246.00    -3000.00
04446             -98.00    -3200.00
04447            -254.00    -3200.00
04448             174.00    -3600.00
04449             206.00    -3600.00
04450              14.00    -3600.00
04451             -34.00    -4400.00
04452            -160.00    -4000.00
04453             126.00    -4600.00
04454              86.00    -4800.00
04455             -88.00    -4800.00
04456            -106.00    -5200.00
04457             -18.00    -4800.00
04458             190.00    -5400.00
04459             -10.00    -5400.00
04460             -72.00    -5600.00
04461             -58.00    -6000.00
04462             -10.00    -5800.00
04463             142.00    -6400.00
04464             -16.00    -6200.00
04465             -62.00    -6800.00
04466             -16.00    -6800.00
04467              34.00    -6800.00
04468              26.00    -7200.00
04469             -26.00    -7200.00
04470               6.00    -7200.00
04471              -6.00    -7600.00
04472              34.00    -7600.00
04473               2.00    -7800.00
04474             -38.00    -7800.00
04475              26.00    -8200.00
04476              12.00    -8400.00
04477              -6.00    -8400.00
04478               2.00    -8600.00
04479              -2.00    -8600.00
04480              14.00    -8800.00
04481              22.00    -8800.00
04482              -2.00    -9200.00
04483              -8.00    -9200.00
04484              14.00    -9400.00
04485               8.00    -9400.00
04486               8.00    -9400.00
04487              16.00    -9600.00
04488               0.00    -9800.00
04489               2.00    -9800.00
04490              10.00   -10000.00
04491              -2.00   -10000.00
04492              24.00   -10200.00
04493              26.00   -10200.00
04494               8.00   -10200.00
04495               4.00   -10400.00
04496              -2.00   -10600.00
04497               2.00   -10800.00
04498              22.00   -10800.00
04499              24.00   -10800.00
04500              14.00   -10800.00
04501              10.00   -11000.00
04502              10.00   -11200.00
04503               6.00   -11000.00
04504              22.00   -11200.00
04505              16.00   -11200.00
04506              16.00   -11200.00
04507              22.00   -11400.00
04508              14.00   -11400.00
04509               8.00   -11600.00
04510              16.00   -11600.00
04511              16.00   -11600.00
04512              22.00   -11600.00
04513              30.00   -11600.00
04514              20.00   -11600.00
04515              14.00   -11800.00
04516              22.00   -11800.00
04517              16.00   -11800.00
04518              18.00   -11600.00
04519              32.00   -11800.00
04520              26.00   -11800.00
04521              26.00   -11600.00
04522              18.00   -11800.00
04523              14.00   -12000.00
04524              26.00   -11600.00
04525              30.00   -11800.00
04526              30.00   -11800.00
04527              30.00   -11800.00
04528              22.00   -11800.00
04529              22.00   -12000.00
04530              26.00   -11800.00
04531              26.00   -11600.00
04532              32.00   -11800.00
04533              38.00   -11600.00
04534              26.00   -11600.00
04535              24.00   -11600.00
04536              26.00   -11600.00
04537              26.00   -11800.00
04538              34.00   -11600.00
04539              30.00   -11600.00
04540              26.00   -11200.00
04541              26.00   -11600.00
04542              24.00   -11200.00
04543              18.00   -11200.00
04544              24.00   -11200.00
04545              28.00   -11200.00
04546              32.00   -11000.00
04547              22.00   -11000.00
04548              18.00   -11000.00
04549              18.00   -10800.00
04550              22.00   -10800.00
04551              22.00   -10800.00
04552              22.00   -10600.00
04553              18.00   -10400.00
04554              18.00   -10400.00
04555              18.00   -10200.00
04556              16.00   -10200.00
04557              10.00   -10200.00
04558              16.00   -10000.00
04559              18.00   -10000.00
04560              20.00    -9600.00
04561              16.00    -9600.00
04562              10.00    -9600.00
04563               6.00    -9400.00
04564              12.00    -9400.00
04565              16.00    -9200.00
04566              16.00    -9200.00
04567              14.00    -8800.00
04568               6.00    -8800.00
04569               6.00    -8800.00
04570               8.00    -8600.00
04571              14.00    -8400.00
04572              12.00    -8400.00
04573              10.00    -8200.00
04574               6.00    -8000.00
04575               6.00    -8000.00
04576               6.00    -7800.00
04577               6.00    -7600.00
04578              10.00    -7400.00
04579               8.00    -7200.00
04580               6.00    -7200.00
04581               0.00    -7000.00
04582               6.00    -6800.00
04583               6.00    -6800.00
04584               2.00    -6400.00
04585               0.00    -6400.00
04586               2.00    -6200.00
04587               6.00    -6200.00
04588               6.00    -6000.00
04589              -2.00    -5600.00
04590               0.00    -5400.00
04591               0.00    -5200.00
04592               0.00    -5200.00
04593               6.00    -5000.00
04594               4.00    -4800.00
04595               0.00    -4600.00
04596              -2.00    -4400.00
04597             -10.00    -4400.00
04598               0.00    -4000.00
04599              16.00    -3800.00
04600               2.00    -3800.00
04601             -10.00    -3400.00
04602              -8.00    -3200.00
04603              -2.00    -3000.00
04604               4.00    -3000.00
04605              -2.00    -2800.00
04606              -6.00    -2600.00
04607               6.00    -2400.00
04608               2.00    -2200.00
04609             -14.00    -2000.00
04610             -10.00    -1800.00
04611               0.00    -1600.00
04612              10.00    -1400.00
04613               6.00    -1000.00
04614              -6.00    -1000.00
04615             -10.00     -800.00
04616              -8.00     -600.00
04617              -2.00     -400.00
04618              -2.00     -400.00
04619               6.00        0.00
04620               0.00      200.00
04621               0.00      400.00
04622               8.00      600.00
04623              34.00      800.00
04624              18.00      800.00
04625             -10.00     1000.00
04626             -24.00     1200.00
04627               6.00     1400.00
04628              30.00     1600.00
04629             106.00     1800.00
04630             246.00     2200.00
04631              42.00     2400.00
04632            -254.00     2400.00
04633            -254.00     2600.00
04634              -2.00     2800.00
04635             246.00     3000.00
04636             246.00     3400.00
04637            -254.00     3200.00
04638            -254.00     3400.00
04639             246.00     3800.00
04640             134.00     4000.00
04641              56.00     4200.00
04642              24.00     4400.00
04643            -254.00     4400.00
04644             206.00     4400.00
04645              90.00     4800.00
04646            -176.00     5000.00
04647             -30.00     5200.00
04648               6.00     5600.00
04649             110.00     5400.00
04650             -20.00     5600.00
04651             -22.00     6000.00
04652            -106.00     6000.00
04653              16.00     6400.00
04654             138.00     6600.00
04655            -120.00     6400.00
04656              -6.00     6800.00
04657             -10.00     6800.00
04658               2.00     7200.00
04659              30.00     7200.00
04660             -58.00     7400.00
04661             -26.00     7600.00
04662              30.00     7600.00
04663              30.00     8000.00
04664             -66.00     8000.00
04665              -8.00     8200.00
04666              -8.00     8400.00
04667              -2.00     8400.00
04668              10.00     8800.00
04669             -36.00     8800.00
04670             -40.00     9000.00
04671              14.00     9000.00
04672              10.00     9200.00
04673             -32.00     9200.00
04674               0.00     9400.00
04675             -48.00     9600.00
04676             -10.00     9600.00
04677              12.00     9800.00
04678             -14.00     9800.00
04679             -14.00    10000.00
04680             -22.00    10000.00
04681             -42.00    10000.00
04682             -10.00    10400.00
04683              22.00    10400.00
04684             -16.00    10600.00
04685             -16.00    10600.00
04686             -26.00    10600.00
04687             -36.00    10800.00
04688              -8.00    10800.00
04689              -2.00    11000.00
04690             -22.00    11200.00
04691             -10.00    11200.00
04692             -24.00    11200.00
04693             -30.00    11400.00
04694             -16.00    11400.00
04695             -24.00    11800.00
04696             -16.00    11400.00
04697              -8.00    11800.00
04698             -28.00    11600.00
04699             -30.00    11800.00
04700             -18.00    12000.00
04701             -26.00    12000.00
04702             -24.00    12000.00
04703             -16.00    12000.00
04704             -32.00    12000.00
04705             -24.00    12000.00
04706             -14.00    12000.00
04707             -24.00    12200.00
04708             -34.00    12200.00
04709             -46.00    12200.00
04710             -38.00    12000.00
04711              -8.00    12200.00
04712              -2.00    12400.00
04713             -38.00    12200.00
04714             -54.00    12200.00
04715             -44.00    12200.00
04716             -26.00    12000.00
04717             -16.00    12000.00
04718             -24.00    12200.00
04719             -40.00    12000.00
04720             -44.00    12200.00
04721             -48.00    12200.00
04722             -42.00    12000.00
04723             -20.00    12200.00
04724              -8.00    12000.00
04725             -26.00    12000.00
04726             -58.00    12000.00
04727             -68.00    12000.00
04728             -48.00    12000.00
04729             -10.00    12000.00
04730             -14.00    12000.00
04731             -38.00    11800.00
04732             -50.00    11800.00
04733             -46.00    11800.00
04734             -34.00    11600.00
04735             -26.00    11800.00
04736             -30.00    11600.00
04737             -26.00    11400.00
04738             -28.00    11400.00
04739             -32.00    11400.00
04740             -34.00    11200.00
04741             -34.00    11200.00
04742             -30.00    11200.00
04743             -16.00    11000.00
04744             -14.00    10800.00
04745             -22.00    10800.00
04746             -32.00    10600.00
04747             -34.00    10600.00
04748             -28.00    10400.00
04749             -14.00    10400.00
04750             -10.00    10400.00
04751             -24.00    10200.00
04752             -26.00    10200.00
04753             -24.00    10000.00
04754             -16.00     9800.00
04755             -16.00     9800.00
04756             -22.00     9600.00
04757             -16.00     9600.00
04758             -10.00     9400.00
04759             -14.00     9200.00
04760             -16.00     9200.00
04761             -20.00     9000.00
04762             -24.00     8800.00
04763             -12.00     8800.00
04764             -10.00     8600.00
04765              -8.00     8400.00
04766             -14.00     8400.00
04767             -18.00     8200.00
04768             -22.00     8000.00
04769             -14.00     8000.00
04770             -10.00     7600.00
04771              -2.00     7600.00
04772              -6.00     7400.00
04773             -10.00     7200.00
04774             -18.00     7200.00
04775             -18.00     6800.00
04776             -14.00     6800.00
04777               0.00     6600.00
04778              -6.00     6400.00
04779             -14.00     6400.00
04780             -18.00     6200.00
04781             -16.00     6000.00
04782             -10.00     5600.00
04783              -6.00     5600.00
04784             -10.00     5400.00
04785             -10.00     5200.00
04786              -8.00     5200.00
04787             -10.00     5000.00
04788             -16.00     4600.00
04789             -16.00     4400.00
04790              -2.00     4400.00
04791               2.00     4200.00
04792             -10.00     4000.00
04793             -16.00     3600.00
04794             -10.00     3600.00
04795              -2.00     3400.00
04796              -2.00     3200.00
04797             -10.00     3000.00
04798             -10.00     2800.00
04799              -8.00     2600.00
04800              -8.00     2600.00
04801              -8.00     2200.00
04802              -6.00     2000.00
04803              -6.00     1800.00
04804              -6.00     1800.00
04805              -8.00     1400.00
04806              -8.00     1200.00
04807              -2.00     1200.00
04808              -6.00     1000.00
04809             -10.00      800.00
04810              -4.00      400.00
04811               0.00      400.00
04812               2.00      200.00
04813               0.00        0.00
04814              10.00        0.00
04815              28.00     -400.00
04816               8.00     -600.00
04817             -18.00     -600.00
04818             -16.00     -800.00
04819              10.00     -800.00
04820              16.00    -1400.00
04821              64.00    -1400.00
04822             246.00    -1600.00
04823             190.00    -2000.00
04824            -254.00    -2400.00
04825            -254.00    -2400.00
04826             -64.00    -2600.00
04827             186.00    -2600.00
04828             246.00    -2600.00
04829             246.00    -3000.00
04830            -254.00    -3200.00
04831            -194.00    -3200.00
04832             246.00    -3800.00
04833              46.00    -3200.00
04834              38.00    -4000.00
04835            -138.00    -4200.00
04836             -30.00    -4200.00
04837             176.00    -4800.00
04838             -30.00    -4600.00
04839             -98.00    -4800.00
04840            -104.00    -5000.00
04841             120.00    -5200.00
04842             122.00    -5400.00
04843             -80.00    -5400.00
04844             -40.00    -6000.00
04845             -70.00    -5600.00
04846              86.00    -6200.00
04847              82.00    -6400.00
04848             -72.00    -6400.00
04849             -30.00    -6800.00
04850               0.00    -6600.00
04851              48.00    -7000.00
04852              -8.00    -7000.00
04853             -10.00    -7200.00
04854              -6.00    -7600.00
04855               2.00    -7400.00
04856              38.00    -7800.00
04857             -26.00    -7800.00
04858               8.00    -8000.00
04859              28.00    -8400.00
04860             -10.00    -8400.00
04861              -8.00    -8600.00
04862              -4.00    -8400.00
04863               6.00    -8800.00
04864              24.00    -8800.00
04865              16.00    -8800.00
04866             -10.00    -9200.00
04867               0.00    -9200.00
04868              14.00    -9400.00
04869               8.00    -9400.00
04870              22.00    -9600.00
04871              14.00    -9600.00
04872              -8.00    -9800.00
04873              12.00   -10000.00
04874               0.00   -10000.00
04875               8.00   -10000.00
04876              30.00   -10200.00
04877              14.00   -10200.00
04878               2.00   -10400.00
04879               4.00   -10600.00
04880               2.00   -10400.00
04881              16.00   -10800.00
04882              32.00   -10800.00
04883              14.00   -10800.00
04884               6.00   -10800.00
04885              14.00   -10800.00
04886               8.00   -11000.00
04887              22.00   -11000.00
04888              18.00   -11200.00
04889              10.00   -11200.00
04890              22.00   -11200.00
04891              24.00   -11400.00
04892               6.00   -11400.00
04893              16.00   -11600.00
04894              18.00   -11400.00
04895              18.00   -11600.00
04896              30.00   -11600.00
04897              22.00   -11800.00
04898              14.00   -11600.00
04899              22.00   -11800.00
04900              18.00   -11600.00
04901              16.00   -11800.00
04902              32.00   -11600.00
04903              30.00   -11800.00
04904              26.00   -11800.00
04905              22.00   -11800.00
04906              14.00   -11800.00
04907              18.00   -11800.00
04908              30.00   -12000.00
04909              32.00   -11800.00
04910              32.00   -11800.00
04911              30.00   -11600.00
04912              22.00   -11800.00
04913              22.00   -11800.00
04914              30.00   -11600.00
04915              30.00   -11800.00
04916              38.00   -11600.00
04917              32.00   -11600.00
04918              24.00   -11600.00
04919              24.00   -11600.00
04920              24.00   -11600.00
04921              26.00   -11600.00
04922              34.00   -11600.00
04923              34.00   -11600.00
04924              32.00   -11400.00
04925              22.00   -11400.00
04926              18.00   -11400.00
04927              24.00   -11200.00
04928              26.00   -11200.00
04929              32.00   -11000.00
04930              24.00   -11000.00
04931              22.00   -11000.00
04932              20.00   -11000.00
04933              22.00   -10800.00
04934              18.00   -10800.00
04935              22.00   -10800.00
04936              20.00   -10800.00
04937              22.00   -10600.00
04938              16.00   -10400.00
04939              10.00   -10400.00
04940              12.00   -10200.00
04941              16.00   -10200.00
04942              14.00   -10000.00
04943              20.00   -10000.00
04944              16.00    -9800.00
04945              14.00    -9600.00
04946               8.00    -9600.00
04947               6.00    -9400.00
04948              10.00    -9400.00
04949              18.00    -9200.00
04950              16.00    -9000.00
04951               6.00    -8800.00
04952               8.00    -8800.00
04953               2.00    -8800.00
04954              10.00    -8400.00
04955              10.00    -8400.00
04956              10.00    -8200.00
04957              10.00    -8000.00
04958               8.00    -8000.00
04959               2.00    -7800.00
04960               0.00    -7400.00
04961               2.00    -7400.00
04962              10.00    -7200.00
04963              10.00    -7200.00
04964               6.00    -7000.00
04965               2.00    -6800.00
04966               0.00    -6800.00
04967               0.00    -6600.00
04968               6.00    -6400.00
04969               8.00    -6400.00
04970               6.00    -6200.00
04971               2.00    -6000.00
04972              -2.00    -5600.00
04973              -4.00    -5600.00
04974               0.00    -5400.00
04975               6.00    -5200.00
04976               6.00    -5000.00
04977               2.00    -4800.00
04978               0.00    -4600.00
04979              -6.00    -4600.00
04980              -2.00    -4400.00
04981               0.00    -4000.00
04982               2.00    -4000.00
04983               2.00    -3600.00
04984              -2.00    -3600.00
04985              -2.00    -3600.00
04986               0.00    -3200.00
04987               0.00    -3000.00
04988              -2.00    -2800.00
04989               0.00    -2800.00
04990               0.00    -2400.00
04991               0.00    -2400.00
04992              -2.00    -2200.00
04993              -6.00    -2000.00
04994              -4.00    -1600.00
04995               0.00    -1600.00
04996               0.00    -1400.00
04997              -2.00    -1200.00
04998              -2.00    -1000.00
04999               0.00     -600.00
05000              -8.00     -600.00
