Unit:(mV)
                     CH1         CH2
Frequency              ? 260.738 kHz
00001               0.00    -3000.00
00002               2.00    -2800.00
00003               2.00    -2800.00
00004               6.00    -2400.00
00005               0.00    -2400.00
00006              -2.00    -2200.00
00007              -2.00    -2000.00
00008               0.00    -1600.00
00009               0.00    -1400.00
00010               2.00    -1200.00
00011               0.00    -1000.00
00012              -2.00     -800.00
00013              -4.00     -600.00
00014              -2.00     -600.00
00015              -6.00     -200.00
00016               0.00        0.00
00017               0.00        0.00
00018               2.00      400.00
00019               6.00      400.00
00020              26.00      800.00
00021              18.00      800.00
00022              -8.00     1200.00
00023             -16.00     1200.00
00024               0.00     1400.00
00025              16.00     1600.00
00026              90.00     1800.00
00027             246.00     2200.00
00028              50.00     2600.00
00029            -254.00     2600.00
00030            -254.00     2600.00
00031             -26.00     2800.00
00032             246.00     3000.00
00033             246.00     3400.00
00034            -234.00     3400.00
00035            -254.00     3400.00
00036             246.00     4000.00
00037             -46.00     4000.00
00038             -50.00     4400.00
00039              94.00     4400.00
00040            -144.00     4400.00
00041             168.00     4800.00
00042             -46.00     5000.00
00043            -162.00     5200.00
00044              34.00     5400.00
00045              12.00     5600.00
00046              68.00     5800.00
00047             -52.00     5600.00
00048             -12.00     6200.00
00049             -58.00     6000.00
00050              12.00     6600.00
00051              64.00     6600.00
00052            -104.00     6600.00
00053              26.00     7200.00
00054             -14.00     7200.00
00055              -8.00     7400.00
00056              -2.00     7400.00
00057             -50.00     7800.00
00058              -6.00     7600.00
00059              22.00     8000.00
00060               0.00     8200.00
00061             -56.00     8200.00
00062              -2.00     8400.00
00063             -18.00     8800.00
00064               0.00     8800.00
00065              -8.00     9000.00
00066             -30.00     9000.00
00067             -30.00     9200.00
00068              -2.00     9400.00
00069              -2.00     9600.00
00070             -22.00     9600.00
00071              -2.00     9800.00
00072             -38.00     9800.00
00073             -14.00     9800.00
00074             -10.00    10000.00
00075             -16.00    10200.00
00076             -10.00    10200.00
00077             -18.00    10400.00
00078             -34.00    10400.00
00079             -22.00    10600.00
00080              -2.00    10800.00
00081             -16.00    10800.00
00082             -16.00    11200.00
00083             -26.00    11200.00
00084             -32.00    11200.00
00085             -24.00    11200.00
00086             -14.00    11400.00
00087             -18.00    11400.00
00088             -10.00    11800.00
00089             -18.00    11600.00
00090             -26.00    11800.00
00091             -22.00    11800.00
00092             -32.00    12000.00
00093             -18.00    12000.00
00094             -10.00    12000.00
00095             -16.00    12200.00
00096             -26.00    12000.00
00097             -28.00    12200.00
00098             -26.00    12200.00
00099             -24.00    12200.00
00100             -14.00    12200.00
00101             -16.00    12200.00
00102             -20.00    12400.00
00103             -26.00    12400.00
00104             -32.00    12600.00
00105             -26.00    12400.00
00106             -16.00    12600.00
00107             -16.00    12400.00
00108             -16.00    12800.00
00109             -22.00    12600.00
00110             -30.00    12600.00
00111             -28.00    12600.00
00112             -24.00    12600.00
00113             -22.00    12400.00
00114             -16.00    12400.00
00115             -16.00    12400.00
00116             -24.00    12600.00
00117             -26.00    12400.00
00118             -26.00    12400.00
00119             -22.00    12400.00
00120             -16.00    12400.00
00121             -16.00    12400.00
00122             -24.00    12400.00
00123             -24.00    12400.00
00124             -24.00    12400.00
00125             -26.00    12400.00
00126             -22.00    12200.00
00127             -18.00    12200.00
00128             -16.00    12200.00
00129             -18.00    12000.00
00130             -24.00    12000.00
00131             -26.00    12000.00
00132             -24.00    12000.00
00133             -18.00    12000.00
00134             -16.00    11800.00
00135             -16.00    12000.00
00136             -20.00    11800.00
00137             -24.00    11600.00
00138             -26.00    11600.00
00139             -24.00    11600.00
00140             -16.00    11400.00
00141             -16.00    11200.00
00142             -16.00    11200.00
00143             -22.00    11000.00
00144             -26.00    10800.00
00145             -26.00    10800.00
00146             -18.00    10800.00
00147             -16.00    10600.00
00148             -16.00    10400.00
00149             -18.00    10400.00
00150             -24.00    10400.00
00151             -24.00    10200.00
00152             -22.00    10000.00
00153             -14.00    10000.00
00154             -16.00    10000.00
00155             -16.00     9600.00
00156             -18.00     9600.00
00157             -24.00     9600.00
00158             -22.00     9400.00
00159             -18.00     9200.00
00160             -14.00     9000.00
00161             -14.00     8800.00
00162             -16.00     8800.00
00163             -20.00     8600.00
00164             -20.00     8400.00
00165             -18.00     8400.00
00166             -16.00     8200.00
00167             -14.00     8000.00
00168             -14.00     8000.00
00169             -14.00     7600.00
00170             -14.00     7600.00
00171             -20.00     7400.00
00172             -18.00     7200.00
00173             -16.00     7000.00
00174             -10.00     6800.00
00175             -14.00     6600.00
00176             -12.00     6400.00
00177             -14.00     6400.00
00178             -14.00     6400.00
00179             -10.00     6000.00
00180             -14.00     5800.00
00181             -10.00     5600.00
00182              -8.00     5400.00
00183             -10.00     5400.00
00184             -16.00     5200.00
00185             -18.00     4800.00
00186             -10.00     4600.00
00187              -6.00     4400.00
00188              -2.00     4400.00
00189              -8.00     4200.00
00190             -14.00     4000.00
00191             -18.00     3800.00
00192             -14.00     3600.00
00193              -6.00     3400.00
00194               2.00     3200.00
00195               0.00     3000.00
00196             -10.00     2800.00
00197             -14.00     2600.00
00198             -10.00     2400.00
00199              -6.00     2000.00
00200               0.00     2000.00
00201              -2.00     1800.00
00202              -6.00     1600.00
00203              -6.00     1600.00
00204              -6.00     1200.00
00205              -8.00     1000.00
00206              -8.00      800.00
00207              -6.00      600.00
00208               0.00      400.00
00209               0.00      200.00
00210               2.00        0.00
00211               8.00     -200.00
00212              26.00     -400.00
00213               8.00     -600.00
00214             -14.00     -600.00
00215             -12.00     -800.00
00216               8.00    -1200.00
00217              16.00    -1200.00
00218              54.00    -1400.00
00219             222.00    -1600.00
00220             176.00    -2400.00
00221            -254.00    -2400.00
00222            -254.00    -2600.00
00223             -56.00    -2800.00
00224              96.00    -2800.00
00225             206.00    -2800.00
00226             246.00    -3200.00
00227            -254.00    -3200.00
00228            -120.00    -3400.00
00229             208.00    -4000.00
00230             -42.00    -3600.00
00231              30.00    -4200.00
00232             -50.00    -4400.00
00233              42.00    -4400.00
00234             102.00    -4800.00
00235            -110.00    -4600.00
00236             -24.00    -5200.00
00237             -38.00    -5200.00
00238              80.00    -5400.00
00239              94.00    -5600.00
00240             -78.00    -5600.00
00241             -14.00    -6200.00
00242             -14.00    -6000.00
00243              58.00    -6400.00
00244              30.00    -6400.00
00245             -26.00    -6400.00
00246              12.00    -7000.00
00247               0.00    -6800.00
00248              38.00    -7200.00
00249             -26.00    -7200.00
00250               8.00    -7200.00
00251              34.00    -7600.00
00252               0.00    -7800.00
00253              24.00    -8000.00
00254             -16.00    -8000.00
00255              10.00    -8400.00
00256              34.00    -8400.00
00257               2.00    -8400.00
00258              -6.00    -8800.00
00259              12.00    -8800.00
00260              16.00    -9200.00
00261              18.00    -9000.00
00262              16.00    -9200.00
00263               2.00    -9600.00
00264               6.00    -9600.00
00265              22.00    -9600.00
00266               8.00    -9600.00
00267              14.00    -9800.00
00268              22.00   -10000.00
00269               2.00   -10200.00
00270              10.00   -10200.00
00271               2.00   -10000.00
00272               6.00   -10400.00
00273              26.00   -10400.00
00274              24.00   -10600.00
00275              10.00   -10800.00
00276               2.00   -10800.00
00277               2.00   -11000.00
00278               8.00   -11000.00
00279              24.00   -11000.00
00280              22.00   -11200.00
00281              14.00   -11400.00
00282              14.00   -11400.00
00283               4.00   -11400.00
00284               6.00   -11600.00
00285              20.00   -11600.00
00286              22.00   -11600.00
00287              22.00   -11600.00
00288              14.00   -11800.00
00289               2.00   -11800.00
00290              14.00   -11800.00
00291              16.00   -11800.00
00292              14.00   -12000.00
00293              14.00   -12000.00
00294              20.00   -12000.00
00295              16.00   -12000.00
00296              16.00   -12000.00
00297              10.00   -12000.00
00298              10.00   -12000.00
00299              18.00   -12400.00
00300              18.00   -12000.00
00301              18.00   -12000.00
00302              22.00   -12200.00
00303              14.00   -12200.00
00304              10.00   -12000.00
00305              10.00   -12200.00
00306              18.00   -12000.00
00307              22.00   -12000.00
00308              22.00   -12000.00
00309              16.00   -12200.00
00310              10.00   -12000.00
00311              14.00   -12000.00
00312              14.00   -12000.00
00313              18.00   -12000.00
00314              24.00   -12000.00
00315              16.00   -12000.00
00316              14.00   -12000.00
00317               8.00   -12000.00
00318              14.00   -11800.00
00319              22.00   -12000.00
00320              22.00   -11600.00
00321              18.00   -11800.00
00322              16.00   -11800.00
00323              12.00   -11600.00
00324              10.00   -11600.00
00325              16.00   -11600.00
00326              20.00   -11400.00
00327              26.00   -11200.00
00328              18.00   -11200.00
00329               8.00   -11200.00
00330               6.00   -11200.00
00331              14.00   -11000.00
00332              22.00   -11000.00
00333              22.00   -10800.00
00334              16.00   -11000.00
00335              10.00   -10800.00
00336              10.00   -10800.00
00337              10.00   -10600.00
00338              12.00   -10400.00
00339              16.00   -10200.00
00340              18.00   -10200.00
00341              14.00   -10000.00
00342              10.00   -10000.00
00343               8.00   -10000.00
00344               8.00    -9600.00
00345              10.00    -9400.00
00346              16.00    -9400.00
00347              16.00    -9400.00
00348              14.00    -9400.00
00349              10.00    -9000.00
00350               8.00    -9200.00
00351               8.00    -8800.00
00352              10.00    -8400.00
00353              10.00    -8600.00
00354              12.00    -8400.00
00355              10.00    -8200.00
00356               8.00    -8000.00
00357               6.00    -7800.00
00358               6.00    -7800.00
00359               8.00    -7400.00
00360              10.00    -7400.00
00361              10.00    -7200.00
00362               8.00    -7200.00
00363               6.00    -7000.00
00364               2.00    -6800.00
00365               6.00    -6600.00
00366               8.00    -6400.00
00367              10.00    -6400.00
00368               8.00    -6200.00
00369               6.00    -5800.00
00370               2.00    -5800.00
00371               2.00    -5600.00
00372               6.00    -5400.00
00373               8.00    -5200.00
00374               6.00    -5000.00
00375               6.00    -4800.00
00376               2.00    -4600.00
00377               4.00    -4600.00
00378               6.00    -4200.00
00379               6.00    -4000.00
00380               4.00    -4000.00
00381               6.00    -3600.00
00382               2.00    -3600.00
00383               0.00    -3200.00
00384               0.00    -3000.00
00385               2.00    -3000.00
00386               6.00    -2800.00
00387               6.00    -2600.00
00388               0.00    -2400.00
00389               0.00    -2200.00
00390              -2.00    -2000.00
00391               0.00    -2000.00
00392               0.00    -1400.00
00393               4.00    -1400.00
00394               2.00    -1200.00
00395              -2.00     -800.00
00396              -2.00     -800.00
00397              -6.00     -400.00
00398               0.00     -400.00
00399               2.00        0.00
00400               0.00      200.00
00401               0.00      200.00
00402               0.00      400.00
00403              10.00      600.00
00404              30.00      800.00
00405               6.00     1000.00
00406             -16.00     1000.00
00407             -10.00     1200.00
00408               8.00     1600.00
00409              32.00     1600.00
00410             202.00     2000.00
00411             246.00     2400.00
00412            -236.00     2400.00
00413            -254.00     2800.00
00414            -184.00     2800.00
00415              66.00     2800.00
00416             246.00     3400.00
00417             246.00     3400.00
00418            -254.00     3200.00
00419             -14.00     3800.00
00420             246.00     3800.00
00421            -188.00     4000.00
00422             120.00     4400.00
00423             -66.00     4400.00
00424             -14.00     4800.00
00425             152.00     4800.00
00426            -194.00     5200.00
00427             -38.00     5400.00
00428              26.00     5600.00
00429              48.00     5600.00
00430              18.00     5600.00
00431             -56.00     6000.00
00432             -10.00     6200.00
00433             -68.00     6000.00
00434              90.00     6800.00
00435             -40.00     6400.00
00436             -58.00     6800.00
00437              34.00     7200.00
00438             -34.00     7200.00
00439              22.00     7400.00
00440             -40.00     7600.00
00441             -32.00     8000.00
00442               2.00     8000.00
00443              26.00     8000.00
00444             -34.00     8000.00
00445             -34.00     8200.00
00446              -6.00     8400.00
00447             -26.00     8600.00
00448               6.00     9000.00
00449             -22.00     9000.00
00450             -24.00     9000.00
00451             -22.00     9200.00
00452               6.00     9400.00
00453             -24.00     9600.00
00454              -8.00     9600.00
00455             -22.00     9800.00
00456             -34.00    10000.00
00457              -2.00    10000.00
00458             -18.00    10000.00
00459             -10.00    10200.00
00460             -12.00    10400.00
00461             -26.00    10400.00
00462             -38.00    10600.00
00463             -10.00    10800.00
00464              -6.00    10800.00
00465             -10.00    10800.00
00466             -16.00    11000.00
00467             -34.00    11200.00
00468             -32.00    11400.00
00469             -14.00    11400.00
00470             -16.00    11400.00
00471             -14.00    11600.00
00472             -16.00    11800.00
00473             -28.00    11800.00
00474             -22.00    11600.00
00475             -26.00    11800.00
00476             -30.00    11800.00
00477             -16.00    12000.00
00478             -14.00    12000.00
00479             -22.00    12200.00
00480             -22.00    12200.00
00481             -26.00    12200.00
00482             -30.00    12000.00
00483             -22.00    12400.00
00484             -16.00    12400.00
00485             -16.00    12400.00
00486             -16.00    12400.00
00487             -26.00    12600.00
00488             -30.00    12400.00
00489             -24.00    12400.00
00490             -22.00    12400.00
00491             -16.00    12400.00
00492             -14.00    12600.00
00493             -24.00    12400.00
00494             -30.00    12600.00
00495             -26.00    12800.00
00496             -22.00    12800.00
00497             -16.00    12600.00
00498             -14.00    12600.00
00499             -18.00    12400.00
00500             -26.00    12600.00
00501             -28.00    12400.00
00502             -26.00    12400.00
00503             -18.00    12600.00
00504             -16.00    12400.00
00505             -16.00    12400.00
00506             -22.00    12400.00
00507             -26.00    12400.00
00508             -26.00    12400.00
00509             -22.00    12200.00
00510             -18.00    12400.00
00511             -16.00    12200.00
00512             -18.00    12200.00
00513             -22.00    12200.00
00514             -26.00    12200.00
00515             -24.00    12000.00
00516             -22.00    12000.00
00517             -18.00    12000.00
00518             -14.00    11800.00
00519             -16.00    11800.00
00520             -24.00    11800.00
00521             -26.00    11600.00
00522             -26.00    11400.00
00523             -18.00    11400.00
00524             -14.00    11400.00
00525             -18.00    11200.00
00526             -20.00    11000.00
00527             -22.00    11200.00
00528             -24.00    10800.00
00529             -24.00    10800.00
00530             -18.00    10600.00
00531             -14.00    10600.00
00532             -14.00    10400.00
00533             -24.00    10400.00
00534             -26.00    10400.00
00535             -22.00    10200.00
00536             -18.00    10000.00
00537             -16.00     9800.00
00538             -16.00     9800.00
00539             -18.00     9600.00
00540             -18.00     9600.00
00541             -24.00     9600.00
00542             -24.00     9200.00
00543             -18.00     9000.00
00544             -14.00     9000.00
00545             -12.00     8800.00
00546             -14.00     8800.00
00547             -22.00     8400.00
00548             -22.00     8400.00
00549             -16.00     8200.00
00550             -16.00     8000.00
00551             -10.00     8000.00
00552             -16.00     7600.00
00553             -16.00     7600.00
00554             -18.00     7400.00
00555             -18.00     7200.00
00556             -14.00     7200.00
00557             -16.00     6800.00
00558             -14.00     6800.00
00559             -14.00     6600.00
00560             -16.00     6400.00
00561             -16.00     6000.00
00562             -16.00     6000.00
00563             -10.00     5800.00
00564             -10.00     5600.00
00565             -10.00     5400.00
00566             -14.00     5200.00
00567             -12.00     5400.00
00568             -16.00     5000.00
00569             -14.00     4800.00
00570              -8.00     4600.00
00571              -8.00     4400.00
00572              -8.00     4200.00
00573             -10.00     4000.00
00574             -14.00     3800.00
00575             -12.00     3600.00
00576             -10.00     3400.00
00577             -10.00     3200.00
00578              -6.00     3200.00
00579              -6.00     2800.00
00580              -8.00     2600.00
00581              -8.00     2400.00
00582             -10.00     2400.00
00583              -6.00     2000.00
00584              -2.00     1800.00
00585              -6.00     1600.00
00586              -4.00     1600.00
00587              -8.00     1200.00
00588              -6.00     1000.00
00589              -8.00     1000.00
00590              -2.00      600.00
00591               0.00      600.00
00592               0.00      400.00
00593               2.00        0.00
00594               2.00        0.00
00595              22.00     -400.00
00596              22.00     -400.00
00597              -6.00     -600.00
00598             -16.00     -800.00
00599              -2.00    -1000.00
00600              10.00    -1000.00
00601              22.00    -1400.00
00602             120.00    -1600.00
00603             246.00    -2000.00
00604             -34.00    -2200.00
00605            -254.00    -2400.00
00606            -254.00    -2800.00
00607              66.00    -2800.00
00608             104.00    -2800.00
00609             246.00    -2800.00
00610              30.00    -3400.00
00611            -254.00    -3200.00
00612             126.00    -3800.00
00613              96.00    -3800.00
00614             -38.00    -3800.00
00615              18.00    -4400.00
00616             -56.00    -4000.00
00617             128.00    -4600.00
00618             -16.00    -4800.00
00619             -90.00    -4800.00
00620             -10.00    -5200.00
00621             -16.00    -5200.00
00622             138.00    -5600.00
00623             -14.00    -5400.00
00624             -58.00    -6000.00
00625               0.00    -6200.00
00626              12.00    -6000.00
00627              64.00    -6600.00
00628             -26.00    -6400.00
00629               0.00    -6800.00
00630              10.00    -7000.00
00631              32.00    -6800.00
00632               6.00    -7400.00
00633             -44.00    -7200.00
00634              30.00    -7600.00
00635              18.00    -7600.00
00636              26.00    -7800.00
00637              14.00    -7800.00
00638             -24.00    -8000.00
00639              24.00    -8400.00
00640              22.00    -8400.00
00641              -6.00    -8800.00
00642               0.00    -8800.00
00643              18.00    -8800.00
00644              16.00    -9200.00
00645              22.00    -9200.00
00646              14.00    -9400.00
00647              -2.00    -9400.00
00648              16.00    -9400.00
00649              14.00    -9600.00
00650               4.00    -9800.00
00651              24.00   -10000.00
00652              14.00   -10000.00
00653              10.00   -10200.00
00654              12.00   -10200.00
00655               0.00   -10400.00
00656              18.00   -10400.00
00657              30.00   -10400.00
00658              16.00   -10600.00
00659               8.00   -10800.00
00660              12.00   -10800.00
00661               6.00   -11000.00
00662              14.00   -11200.00
00663              18.00   -11000.00
00664               8.00   -11200.00
00665              20.00   -11200.00
00666              16.00   -11400.00
00667               8.00   -11400.00
00668              14.00   -11600.00
00669              16.00   -11600.00
00670              16.00   -11800.00
00671              22.00   -11600.00
00672              14.00   -11800.00
00673              10.00   -11800.00
00674              16.00   -11800.00
00675              12.00   -12000.00
00676              12.00   -12000.00
00677              18.00   -12000.00
00678              20.00   -12000.00
00679              14.00   -12000.00
00680              14.00   -12000.00
00681               8.00   -12000.00
00682              14.00   -12000.00
00683              22.00   -12200.00
00684              18.00   -12200.00
00685              18.00   -12200.00
00686              14.00   -12200.00
00687               8.00   -12000.00
00688              14.00   -12000.00
00689              18.00   -12200.00
00690              20.00   -12200.00
00691              18.00   -12000.00
00692              16.00   -12200.00
00693              10.00   -12000.00
00694              10.00   -12000.00
00695              16.00   -12000.00
00696              18.00   -12000.00
00697              22.00   -12000.00
00698              16.00   -12000.00
00699              12.00   -12000.00
00700              10.00   -11800.00
00701              14.00   -12000.00
00702              18.00   -11800.00
00703              24.00   -11800.00
00704              18.00   -11800.00
00705              14.00   -11800.00
00706              10.00   -11800.00
00707              10.00   -11600.00
00708              16.00   -11600.00
00709              18.00   -11600.00
00710              22.00   -11400.00
00711              16.00   -11200.00
00712              16.00   -11200.00
00713              10.00   -11200.00
00714              12.00   -11200.00
00715              14.00   -11000.00
00716              18.00   -11000.00
00717              18.00   -10800.00
00718              20.00   -10800.00
00719              10.00   -10800.00
00720              10.00   -10600.00
00721               8.00   -10400.00
00722              16.00   -10200.00
00723              22.00   -10200.00
00724              18.00   -10000.00
00725               8.00   -10000.00
00726              10.00   -10000.00
00727               8.00    -9800.00
00728              10.00    -9600.00
00729              14.00    -9600.00
00730              14.00    -9400.00
00731              14.00    -9200.00
00732              10.00    -9200.00
00733               6.00    -9000.00
00734               6.00    -8800.00
00735              10.00    -8800.00
00736              12.00    -8600.00
00737              14.00    -8400.00
00738               8.00    -8400.00
00739               8.00    -8000.00
00740               8.00    -8000.00
00741               6.00    -8000.00
00742               8.00    -7600.00
00743              10.00    -7400.00
00744               8.00    -7200.00
00745               8.00    -7200.00
00746              10.00    -7000.00
00747               6.00    -7000.00
00748               2.00    -6800.00
00749               8.00    -6600.00
00750              14.00    -6400.00
00751               6.00    -6000.00
00752               0.00    -6200.00
00753               6.00    -5800.00
00754               8.00    -5800.00
00755               6.00    -5600.00
00756               6.00    -5400.00
00757               6.00    -5000.00
00758               2.00    -5000.00
00759               6.00    -4600.00
00760               8.00    -4400.00
00761               6.00    -4400.00
00762              -2.00    -4000.00
00763              -4.00    -4000.00
00764               2.00    -3800.00
00765              12.00    -3600.00
00766              10.00    -3400.00
00767               0.00    -3200.00
00768              -6.00    -3000.00
00769              -2.00    -2800.00
00770               2.00    -2800.00
00771               6.00    -2400.00
00772               8.00    -2200.00
00773               2.00    -2200.00
00774             -10.00    -2000.00
00775             -14.00    -1600.00
00776               2.00    -1400.00
00777              18.00    -1000.00
00778              18.00    -1000.00
00779              -2.00     -800.00
00780             -24.00     -800.00
00781             -18.00     -400.00
00782               2.00     -400.00
00783              16.00        0.00
00784              10.00      200.00
00785               0.00      400.00
00786               0.00      600.00
00787              22.00      800.00
00788              24.00      800.00
00789              -2.00     1200.00
00790             -18.00     1200.00
00791              -2.00     1600.00
00792              14.00     1600.00
00793              82.00     1800.00
00794             246.00     2200.00
00795              80.00     2400.00
00796            -254.00     2400.00
00797            -254.00     2600.00
00798             -40.00     2800.00
00799             236.00     3000.00
00800             246.00     3400.00
00801            -186.00     3400.00
00802            -254.00     3600.00
00803             246.00     4000.00
00804             -18.00     4000.00
00805             -74.00     4400.00
00806             102.00     4400.00
00807            -146.00     4400.00
00808             160.00     4800.00
00809             -26.00     4800.00
00810            -176.00     5200.00
00811              32.00     5400.00
00812              14.00     5600.00
00813              72.00     5800.00
00814             -48.00     5800.00
00815             -22.00     6200.00
00816             -62.00     6000.00
00817               0.00     6600.00
00818              74.00     6800.00
00819            -100.00     6600.00
00820              22.00     7200.00
00821             -12.00     7000.00
00822             -10.00     7400.00
00823               0.00     7400.00
00824             -50.00     7600.00
00825             -10.00     7600.00
00826              16.00     7800.00
00827               6.00     8200.00
00828             -56.00     8000.00
00829              -6.00     8400.00
00830             -18.00     8600.00
00831              -6.00     8800.00
00832              -8.00     8800.00
00833             -26.00     9000.00
00834             -24.00     9000.00
00835              -4.00     9400.00
00836              -6.00     9600.00
00837             -26.00     9600.00
00838              -6.00     9800.00
00839             -40.00     9800.00
00840             -14.00    10000.00
00841              -8.00    10000.00
00842             -10.00    10200.00
00843              -8.00    10400.00
00844             -22.00    10400.00
00845             -36.00    10600.00
00846             -22.00    10600.00
00847               0.00    10800.00
00848             -12.00    10800.00
00849             -10.00    11000.00
00850             -26.00    11000.00
00851             -32.00    11200.00
00852             -18.00    11400.00
00853             -10.00    11400.00
00854             -14.00    11400.00
00855             -10.00    11600.00
00856             -22.00    11800.00
00857             -24.00    11800.00
00858             -18.00    11800.00
00859             -24.00    11800.00
00860             -22.00    11800.00
00861             -12.00    12000.00
00862             -18.00    12000.00
00863             -24.00    12000.00
00864             -24.00    12200.00
00865             -26.00    12200.00
00866             -26.00    12200.00
00867             -16.00    12200.00
00868             -16.00    12400.00
00869             -16.00    12200.00
00870             -22.00    12400.00
00871             -32.00    12400.00
00872             -26.00    12400.00
00873             -24.00    12400.00
00874             -22.00    12400.00
00875             -14.00    12400.00
00876             -18.00    12600.00
00877             -28.00    12600.00
00878             -26.00    12600.00
00879             -24.00    12400.00
00880             -26.00    12400.00
00881             -16.00    12400.00
00882             -18.00    12600.00
00883             -22.00    12400.00
00884             -18.00    12600.00
00885             -26.00    12400.00
00886             -26.00    12400.00
00887             -18.00    12400.00
00888             -16.00    12400.00
00889             -10.00    12400.00
00890             -16.00    12400.00
00891             -32.00    12400.00
00892             -32.00    12400.00
00893             -18.00    12200.00
00894             -10.00    12200.00
00895             -16.00    12200.00
00896             -24.00    12200.00
00897             -28.00    12000.00
00898             -26.00    12000.00
00899             -24.00    12000.00
00900             -18.00    12000.00
00901             -10.00    12000.00
00902             -16.00    11800.00
00903             -22.00    11800.00
00904             -26.00    11600.00
00905             -26.00    11600.00
00906             -22.00    11400.00
00907             -14.00    11400.00
00908             -10.00    11400.00
00909             -18.00    11200.00
00910             -24.00    11000.00
00911             -26.00    11000.00
00912             -24.00    10800.00
00913             -14.00    10600.00
00914             -14.00    10600.00
00915             -16.00    10400.00
00916             -18.00    10600.00
00917             -24.00    10400.00
00918             -26.00    10200.00
00919             -22.00    10000.00
00920             -14.00     9800.00
00921             -14.00     9800.00
00922             -16.00     9600.00
00923             -24.00     9600.00
00924             -26.00     9600.00
00925             -22.00     9200.00
00926             -12.00     9000.00
00927             -12.00     9000.00
00928             -18.00     8800.00
00929             -24.00     8800.00
00930             -20.00     8600.00
00931             -14.00     8400.00
00932             -16.00     8200.00
00933             -18.00     8000.00
00934             -16.00     8000.00
00935             -18.00     8000.00
00936             -16.00     7600.00
00937             -14.00     7600.00
00938             -18.00     7200.00
00939             -18.00     7200.00
00940             -18.00     7000.00
00941             -16.00     6800.00
00942             -10.00     6600.00
00943             -14.00     6400.00
00944             -16.00     6400.00
00945             -16.00     6200.00
00946             -18.00     6000.00
00947             -14.00     5800.00
00948              -8.00     5600.00
00949             -12.00     5400.00
00950             -14.00     5200.00
00951             -16.00     5000.00
00952             -14.00     5000.00
00953             -10.00     4800.00
00954              -8.00     4400.00
00955             -10.00     4200.00
00956              -8.00     4200.00
00957             -10.00     3800.00
00958             -16.00     3600.00
00959             -10.00     3400.00
00960             -10.00     3200.00
00961              -8.00     3200.00
00962              -6.00     2800.00
00963              -6.00     2800.00
00964             -10.00     2600.00
00965              -8.00     2400.00
00966             -10.00     2000.00
00967              -6.00     2000.00
00968              -2.00     1800.00
00969              -2.00     1800.00
00970              -6.00     1600.00
00971              -6.00     1200.00
00972              -8.00     1000.00
00973              -6.00      800.00
00974              -4.00      600.00
00975              -2.00      400.00
00976               0.00      200.00
00977               0.00        0.00
00978               8.00        0.00
00979              28.00     -400.00
00980              14.00     -600.00
00981             -12.00     -600.00
00982             -10.00     -800.00
00983               8.00     -800.00
00984              16.00    -1200.00
00985              54.00    -1400.00
00986             214.00    -1600.00
00987             194.00    -2200.00
00988            -254.00    -2400.00
00989            -254.00    -2600.00
00990             -74.00    -2600.00
00991              98.00    -2600.00
00992             198.00    -2800.00
00993             246.00    -3200.00
00994            -254.00    -3200.00
00995            -146.00    -3200.00
00996             216.00    -4000.00
00997             -28.00    -3600.00
00998              24.00    -4000.00
00999             -54.00    -4400.00
01000              26.00    -4400.00
01001             112.00    -4800.00
01002            -102.00    -4600.00
01003             -26.00    -5200.00
01004             -42.00    -5200.00
01005              62.00    -5400.00
01006             104.00    -5600.00
01007             -74.00    -5400.00
01008             -10.00    -6200.00
01009             -12.00    -5800.00
01010              50.00    -6200.00
01011              28.00    -6600.00
01012             -32.00    -6200.00
01013              16.00    -7000.00
01014               2.00    -7000.00
01015              38.00    -7200.00
01016             -30.00    -7200.00
01017               0.00    -7400.00
01018              38.00    -7600.00
01019               2.00    -7600.00
01020              26.00    -8000.00
01021             -16.00    -8000.00
01022               2.00    -8400.00
01023              38.00    -8400.00
01024               8.00    -8600.00
01025              -8.00    -8800.00
01026              12.00    -8800.00
01027              16.00    -9200.00
01028              16.00    -9200.00
01029              18.00    -9200.00
01030               4.00    -9600.00
01031               6.00    -9400.00
01032              22.00    -9600.00
01033               8.00    -9600.00
01034              10.00    -9800.00
01035              24.00   -10000.00
01036               6.00   -10000.00
01037              16.00   -10200.00
01038              10.00   -10400.00
01039               6.00   -10200.00
01040              26.00   -10600.00
01041              24.00   -10600.00
01042               6.00   -10800.00
01043               8.00   -10800.00
01044              10.00   -11000.00
01045              14.00   -11000.00
01046              26.00   -11200.00
01047              18.00   -11200.00
01048              10.00   -11200.00
01049              16.00   -11200.00
01050              10.00   -11200.00
01051               8.00   -11600.00
01052              18.00   -11400.00
01053              16.00   -11600.00
01054              18.00   -11600.00
01055              20.00   -11800.00
01056               6.00   -11800.00
01057              10.00   -11800.00
01058              16.00   -11800.00
01059              10.00   -12000.00
01060              18.00   -12000.00
01061              22.00   -12000.00
01062              12.00   -12000.00
01063               8.00   -12200.00
01064              10.00   -12000.00
01065              10.00   -12000.00
01066              22.00   -12000.00
01067              22.00   -12200.00
01068              18.00   -12000.00
01069              14.00   -12200.00
01070               8.00   -12200.00
01071               4.00   -12000.00
01072              20.00   -12000.00
01073              22.00   -12000.00
01074              16.00   -12000.00
01075              16.00   -12200.00
01076              10.00   -12000.00
01077              10.00   -12200.00
01078              14.00   -12200.00
01079              12.00   -12000.00
01080              22.00   -12000.00
01081              24.00   -12000.00
01082              14.00   -12000.00
01083              10.00   -12000.00
01084              12.00   -11800.00
01085              14.00   -11800.00
01086              22.00   -11800.00
01087              22.00   -11800.00
01088              16.00   -11800.00
01089              10.00   -11600.00
01090              10.00   -11800.00
01091              14.00   -11600.00
01092              16.00   -11400.00
01093              20.00   -11600.00
01094              16.00   -11200.00
01095              16.00   -11200.00
01096              14.00   -11200.00
01097               8.00   -11000.00
01098              14.00   -11200.00
01099              18.00   -11000.00
01100              18.00   -11000.00
01101              16.00   -10800.00
01102              14.00   -10800.00
01103               8.00   -10400.00
01104              10.00   -10400.00
01105              12.00   -10400.00
01106              16.00   -10200.00
01107              22.00   -10000.00
01108              16.00   -10000.00
01109               6.00   -10000.00
01110               6.00    -9800.00
01111              14.00    -9600.00
01112              16.00    -9600.00
01113              18.00    -9400.00
01114              14.00    -9200.00
01115              10.00    -9200.00
01116              10.00    -9000.00
01117              14.00    -8800.00
01118               8.00    -8800.00
01119               6.00    -8800.00
01120              10.00    -8600.00
01121              18.00    -8400.00
01122              14.00    -8400.00
01123               2.00    -8000.00
01124               0.00    -7800.00
01125               8.00    -7800.00
01126              14.00    -7600.00
01127              14.00    -7400.00
01128              10.00    -7200.00
01129               6.00    -7200.00
01130               2.00    -7000.00
01131               4.00    -6800.00
01132               8.00    -6600.00
01133              12.00    -6400.00
01134              14.00    -6400.00
01135               6.00    -6200.00
01136               6.00    -6000.00
01137              -2.00    -6000.00
01138              -2.00    -5600.00
01139              12.00    -5400.00
01140              12.00    -5200.00
01141               6.00    -5200.00
01142              -2.00    -4800.00
01143               0.00    -4600.00
01144               6.00    -4600.00
01145               8.00    -4400.00
01146               4.00    -4000.00
01147               2.00    -4000.00
01148               2.00    -3600.00
01149               0.00    -3600.00
01150              -2.00    -3200.00
01151               6.00    -3000.00
01152               2.00    -3000.00
01153               0.00    -2800.00
01154              -2.00    -2600.00
01155               0.00    -2400.00
01156               4.00    -2000.00
01157               2.00    -2200.00
01158              -2.00    -2000.00
01159              -2.00    -1400.00
01160              -2.00    -1400.00
01161               2.00    -1000.00
01162               6.00    -1000.00
01163               0.00     -800.00
01164              -6.00     -600.00
01165              -2.00     -400.00
01166               0.00     -200.00
01167               2.00        0.00
01168               2.00      200.00
01169               0.00      400.00
01170              14.00      400.00
01171              30.00     1000.00
01172               8.00     1000.00
01173             -10.00     1200.00
01174              -8.00     1200.00
01175               8.00     1600.00
01176              30.00     1800.00
01177             188.00     2000.00
01178             246.00     2600.00
01179            -204.00     2400.00
01180            -254.00     2600.00
01181            -202.00     2800.00
01182              58.00     3000.00
01183             246.00     3400.00
01184             246.00     3400.00
01185            -254.00     3200.00
01186             -56.00     3600.00
01187             246.00     4000.00
01188            -186.00     4000.00
01189             104.00     4400.00
01190             -54.00     4200.00
01191             -32.00     4800.00
01192             168.00     4800.00
01193            -176.00     5200.00
01194             -42.00     5400.00
01195              32.00     5400.00
01196              40.00     5800.00
01197              22.00     5600.00
01198             -72.00     6000.00
01199             -14.00     6000.00
01200             -78.00     6400.00
01201              88.00     6600.00
01202             -20.00     6400.00
01203             -58.00     6800.00
01204              48.00     7200.00
01205             -30.00     7200.00
01206              18.00     7400.00
01207             -44.00     7600.00
01208             -42.00     8000.00
01209              -8.00     7800.00
01210              14.00     8000.00
01211             -26.00     8200.00
01212             -30.00     8400.00
01213               0.00     8800.00
01214             -16.00     8600.00
01215              16.00     9000.00
01216             -20.00     9000.00
01217             -30.00     9200.00
01218             -34.00     9200.00
01219              -8.00     9400.00
01220             -26.00     9800.00
01221               0.00     9600.00
01222              -6.00     9800.00
01223             -26.00     9800.00
01224             -10.00    10000.00
01225             -24.00    10000.00
01226              -2.00    10400.00
01227              -8.00    10400.00
01228             -26.00    10400.00
01229             -42.00    10400.00
01230             -14.00    10800.00
01231             -10.00    10800.00
01232             -10.00    10800.00
01233              -6.00    11200.00
01234             -24.00    11200.00
01235             -32.00    11200.00
01236             -20.00    11400.00
01237             -14.00    11400.00
01238             -10.00    11400.00
01239             -10.00    11600.00
01240             -26.00    11800.00
01241             -24.00    11800.00
01242             -24.00    11800.00
01243             -24.00    12000.00
01244             -10.00    11800.00
01245              -8.00    12000.00
01246             -20.00    12000.00
01247             -26.00    12000.00
01248             -26.00    12000.00
01249             -26.00    12200.00
01250             -18.00    12200.00
01251             -16.00    12400.00
01252             -18.00    12200.00
01253             -16.00    12400.00
01254             -22.00    12400.00
01255             -26.00    12400.00
01256             -26.00    12400.00
01257             -30.00    12400.00
01258             -22.00    12400.00
01259             -10.00    12600.00
01260             -12.00    12600.00
01261             -24.00    12400.00
01262             -34.00    12400.00
01263             -34.00    12400.00
01264             -24.00    12400.00
01265             -14.00    12600.00
01266             -12.00    12400.00
01267             -16.00    12400.00
01268             -26.00    12400.00
01269             -32.00    12400.00
01270             -26.00    12400.00
01271             -22.00    12200.00
01272             -18.00    12400.00
01273             -18.00    12400.00
01274             -24.00    12400.00
01275             -30.00    12400.00
01276             -26.00    12200.00
01277             -18.00    12200.00
01278             -16.00    12200.00
01279             -16.00    12200.00
01280             -24.00    12000.00
01281             -26.00    12000.00
01282             -28.00    12000.00
01283             -26.00    12000.00
01284             -16.00    12000.00
01285             -12.00    11800.00
01286             -18.00    11800.00
01287             -24.00    11600.00
01288             -26.00    11800.00
01289             -24.00    11600.00
01290             -18.00    11400.00
01291             -16.00    11400.00
01292             -14.00    11200.00
01293             -18.00    11200.00
01294             -24.00    11200.00
01295             -26.00    10800.00
01296             -24.00    10800.00
01297             -16.00    10800.00
01298             -16.00    10400.00
01299             -14.00    10600.00
01300             -16.00    10400.00
01301             -22.00    10400.00
01302             -22.00    10000.00
01303             -18.00    10000.00
01304             -16.00    10000.00
01305             -16.00     9600.00
01306             -16.00     9600.00
01307             -16.00     9600.00
01308             -20.00     9400.00
01309             -24.00     9200.00
01310             -18.00     9200.00
01311             -14.00     9000.00
01312             -14.00     9000.00
01313             -16.00     8800.00
01314             -18.00     8600.00
01315             -18.00     8200.00
01316             -18.00     8200.00
01317             -16.00     8200.00
01318             -12.00     8000.00
01319             -16.00     7800.00
01320             -16.00     7600.00
01321             -18.00     7400.00
01322             -18.00     7200.00
01323             -18.00     7000.00
01324             -14.00     7000.00
01325             -10.00     6600.00
01326             -14.00     6600.00
01327             -18.00     6400.00
01328             -16.00     6400.00
01329             -16.00     6000.00
01330             -14.00     5800.00
01331             -10.00     5800.00
01332             -10.00     5600.00
01333             -14.00     5200.00
01334             -14.00     5400.00
01335             -16.00     5000.00
01336             -16.00     4800.00
01337             -12.00     4400.00
01338              -8.00     4400.00
01339              -8.00     4200.00
01340              -8.00     4000.00
01341             -10.00     3800.00
01342             -14.00     3600.00
01343             -10.00     3400.00
01344             -10.00     3200.00
01345              -6.00     3200.00
01346              -6.00     2800.00
01347              -8.00     2800.00
01348             -10.00     2400.00
01349             -14.00     2400.00
01350             -10.00     2200.00
01351               0.00     1800.00
01352              -2.00     1800.00
01353              -4.00     1600.00
01354              -8.00     1200.00
01355              -8.00     1000.00
01356              -4.00     1000.00
01357              -4.00      600.00
01358              -2.00      400.00
01359               0.00      400.00
01360               0.00      200.00
01361               2.00        0.00
01362              18.00     -400.00
01363              28.00     -400.00
01364               2.00     -800.00
01365             -16.00     -800.00
01366              -8.00     -800.00
01367              14.00    -1200.00
01368              28.00    -1400.00
01369             118.00    -1400.00
01370             246.00    -1800.00
01371             -10.00    -2200.00
01372            -254.00    -2400.00
01373            -254.00    -2600.00
01374              58.00    -2600.00
01375             110.00    -2600.00
01376             246.00    -2800.00
01377              58.00    -3600.00
01378            -254.00    -3200.00
01379             104.00    -3800.00
01380             116.00    -3800.00
01381             -32.00    -3800.00
01382              20.00    -4400.00
01383             -64.00    -4000.00
01384             122.00    -4600.00
01385               0.00    -4800.00
01386             -96.00    -5000.00
01387              -8.00    -5200.00
01388             -22.00    -5200.00
01389             138.00    -5600.00
01390              -6.00    -5600.00
01391             -66.00    -6000.00
01392              -2.00    -6000.00
01393              10.00    -6000.00
01394              70.00    -6600.00
01395             -20.00    -6400.00
01396              -2.00    -6800.00
01397               6.00    -7000.00
01398              24.00    -7000.00
01399              14.00    -7400.00
01400             -34.00    -7200.00
01401              34.00    -7600.00
01402              10.00    -7600.00
01403              16.00    -7800.00
01404              16.00    -8000.00
01405             -22.00    -8000.00
01406              24.00    -8600.00
01407              22.00    -8400.00
01408              -8.00    -8600.00
01409               2.00    -8800.00
01410              20.00    -8800.00
01411              16.00    -9000.00
01412              16.00    -9200.00
01413              10.00    -9400.00
01414              -2.00    -9400.00
01415              16.00    -9600.00
01416              16.00    -9600.00
01417               8.00    -9800.00
01418              22.00   -10000.00
01419              16.00   -10000.00
01420               6.00   -10200.00
01421              14.00   -10400.00
01422               6.00   -10400.00
01423              22.00   -10400.00
01424              32.00   -10600.00
01425              14.00   -10600.00
01426               2.00   -10800.00
01427              10.00   -10800.00
01428              10.00   -11000.00
01429              18.00   -11000.00
01430              28.00   -11200.00
01431              12.00   -11200.00
01432              14.00   -11200.00
01433              16.00   -11200.00
01434              10.00   -11400.00
01435              18.00   -11600.00
01436              18.00   -11600.00
01437              14.00   -11600.00
01438              22.00   -11800.00
01439              18.00   -11800.00
01440               8.00   -11800.00
01441              10.00   -11800.00
01442              16.00   -12000.00
01443              14.00   -12000.00
01444              24.00   -12000.00
01445              18.00   -12000.00
01446              10.00   -12000.00
01447               6.00   -12200.00
01448              10.00   -12000.00
01449              22.00   -12000.00
01450              24.00   -12000.00
01451              16.00   -12200.00
01452              10.00   -12000.00
01453              14.00   -12200.00
01454              12.00   -12200.00
01455              14.00   -12000.00
01456              16.00   -12200.00
01457              16.00   -12200.00
01458              24.00   -12200.00
01459              22.00   -12200.00
01460               8.00   -12000.00
01461              -2.00   -12200.00
01462              10.00   -12000.00
01463              26.00   -12200.00
01464              30.00   -12000.00
01465              16.00   -12000.00
01466               0.00   -12000.00
01467              10.00   -12000.00
01468              14.00   -12000.00
01469              22.00   -12000.00
01470              26.00   -12000.00
01471              22.00   -11800.00
01472              10.00   -11800.00
01473               6.00   -11800.00
01474               8.00   -11600.00
01475              16.00   -11600.00
01476              24.00   -11600.00
01477              24.00   -11400.00
01478              16.00   -11200.00
01479               6.00   -11200.00
01480               6.00   -11200.00
01481              16.00   -11000.00
01482              24.00   -11000.00
01483              22.00   -11000.00
01484              10.00   -11000.00
01485              10.00   -10800.00
01486              14.00   -10800.00
01487              16.00   -10400.00
01488              16.00   -10400.00
01489              14.00   -10400.00
01490              14.00   -10200.00
01491              14.00   -10200.00
01492              14.00   -10000.00
01493              16.00   -10000.00
01494              14.00    -9600.00
01495              10.00    -9600.00
01496               8.00    -9400.00
01497              14.00    -9200.00
01498              16.00    -9400.00
01499              14.00    -9200.00
01500              12.00    -8800.00
01501               8.00    -8800.00
01502               8.00    -8600.00
01503              14.00    -8600.00
01504              16.00    -8400.00
01505              16.00    -8400.00
01506              10.00    -8000.00
01507               6.00    -8000.00
01508               6.00    -7800.00
01509              10.00    -7600.00
01510              14.00    -7400.00
01511              10.00    -7400.00
01512               8.00    -7200.00
01513               6.00    -7200.00
01514               6.00    -7000.00
01515               8.00    -6800.00
01516               8.00    -6800.00
01517               8.00    -6400.00
01518               8.00    -6200.00
01519               6.00    -6200.00
01520               6.00    -6000.00
01521               2.00    -5600.00
01522               6.00    -5600.00
01523               8.00    -5200.00
01524               8.00    -5200.00
01525               6.00    -5000.00
01526               2.00    -4800.00
01527               0.00    -4600.00
01528               2.00    -4400.00
01529               8.00    -4200.00
01530               8.00    -4000.00
01531               2.00    -3800.00
01532               0.00    -3600.00
01533               0.00    -3400.00
01534               2.00    -3200.00
01535               2.00    -3000.00
01536               2.00    -2800.00
01537               0.00    -2800.00
01538               0.00    -2400.00
01539               0.00    -2200.00
01540               0.00    -2200.00
01541               0.00    -2000.00
01542               0.00    -1600.00
01543               0.00    -1400.00
01544               0.00    -1200.00
01545               0.00    -1000.00
01546               0.00     -800.00
01547              -2.00     -600.00
01548              -2.00     -400.00
01549              -2.00     -400.00
01550               0.00        0.00
01551               2.00        0.00
01552               2.00      200.00
01553               6.00      400.00
01554              24.00      800.00
01555              24.00      800.00
01556               0.00     1000.00
01557             -16.00     1200.00
01558               0.00     1600.00
01559              16.00     1600.00
01560              76.00     1800.00
01561             246.00     2200.00
01562             106.00     2400.00
01563            -254.00     2400.00
01564            -254.00     2800.00
01565             -52.00     2800.00
01566             214.00     3000.00
01567             246.00     3400.00
01568            -128.00     3200.00
01569            -254.00     3400.00
01570             246.00     4000.00
01571               2.00     4000.00
01572             -88.00     4400.00
01573             126.00     4400.00
01574            -144.00     4400.00
01575             144.00     4800.00
01576             -10.00     4800.00
01577            -182.00     5400.00
01578              34.00     5400.00
01579              16.00     5600.00
01580              70.00     5800.00
01581             -46.00     5800.00
01582             -26.00     6200.00
01583             -50.00     6000.00
01584              -4.00     6400.00
01585              82.00     6800.00
01586            -104.00     6600.00
01587              10.00     7000.00
01588              -8.00     7000.00
01589             -14.00     7200.00
01590               8.00     7400.00
01591             -50.00     7600.00
01592             -10.00     7800.00
01593              16.00     8000.00
01594               6.00     8200.00
01595             -54.00     8200.00
01596              -6.00     8400.00
01597             -16.00     8600.00
01598             -10.00     8600.00
01599             -10.00     8800.00
01600             -30.00     8800.00
01601             -24.00     9200.00
01602              -6.00     9200.00
01603              -2.00     9400.00
01604             -26.00     9600.00
01605              -6.00     9800.00
01606             -38.00     9800.00
01607             -16.00     9800.00
01608              -6.00    10000.00
01609             -10.00    10200.00
01610              -8.00    10400.00
01611             -24.00    10400.00
01612             -40.00    10400.00
01613             -22.00    10400.00
01614               6.00    10800.00
01615             -10.00    10800.00
01616             -14.00    10800.00
01617             -32.00    11200.00
01618             -34.00    11200.00
01619             -18.00    11200.00
01620             -10.00    11400.00
01621             -16.00    11400.00
01622             -10.00    11800.00
01623             -22.00    11600.00
01624             -28.00    11800.00
01625             -18.00    11800.00
01626             -24.00    12000.00
01627             -20.00    12000.00
01628             -12.00    12000.00
01629             -20.00    12200.00
01630             -20.00    12000.00
01631             -18.00    12200.00
01632             -26.00    12200.00
01633             -26.00    12200.00
01634             -14.00    12200.00
01635             -16.00    12200.00
01636             -14.00    12400.00
01637             -18.00    12400.00
01638             -30.00    12400.00
01639             -26.00    12400.00
01640             -22.00    12400.00
01641             -20.00    12400.00
01642             -16.00    12400.00
01643             -18.00    12600.00
01644             -26.00    12600.00
01645             -24.00    12400.00
01646             -26.00    12400.00
01647             -24.00    12400.00
01648             -16.00    12400.00
01649             -16.00    12400.00
01650             -22.00    12400.00
01651             -26.00    12800.00
01652             -30.00    12400.00
01653             -26.00    12400.00
01654             -18.00    12400.00
01655             -16.00    12400.00
01656             -18.00    12200.00
01657             -24.00    12400.00
01658             -26.00    12400.00
01659             -28.00    12200.00
01660             -24.00    12200.00
01661             -20.00    12200.00
01662             -20.00    12200.00
01663             -18.00    12200.00
01664             -24.00    12200.00
01665             -26.00    12000.00
01666             -26.00    12000.00
01667             -20.00    11800.00
01668             -18.00    12000.00
01669             -18.00    11800.00
01670             -22.00    11600.00
01671             -24.00    11600.00
01672             -26.00    11600.00
01673             -24.00    11400.00
01674             -16.00    11400.00
01675             -16.00    11200.00
01676             -18.00    11200.00
01677             -22.00    11000.00
01678             -26.00    11000.00
01679             -24.00    10800.00
01680             -18.00    10800.00
01681             -14.00    10600.00
01682             -16.00    10400.00
01683             -16.00    10400.00
01684             -18.00    10400.00
01685             -22.00    10200.00
01686             -22.00    10200.00
01687             -18.00     9800.00
01688             -16.00     9800.00
01689             -10.00     9600.00
01690             -18.00     9600.00
01691             -24.00     9600.00
01692             -20.00     9200.00
01693             -18.00     9200.00
01694             -14.00     9000.00
01695             -14.00     8800.00
01696             -16.00     8800.00
01697             -16.00     8800.00
01698             -16.00     8400.00
01699             -20.00     8400.00
01700             -16.00     8000.00
01701             -10.00     8000.00
01702             -10.00     7800.00
01703             -14.00     7600.00
01704             -16.00     7400.00
01705             -18.00     7200.00
01706             -16.00     7200.00
01707             -18.00     6800.00
01708             -14.00     6800.00
01709             -14.00     6600.00
01710             -10.00     6400.00
01711             -14.00     6400.00
01712             -16.00     6000.00
01713             -16.00     6000.00
01714             -14.00     5800.00
01715             -10.00     5600.00
01716             -10.00     5400.00
01717             -16.00     5200.00
01718             -12.00     5200.00
01719             -14.00     4800.00
01720             -12.00     4800.00
01721             -10.00     4400.00
01722             -10.00     4200.00
01723             -10.00     4200.00
01724              -8.00     4000.00
01725             -14.00     3600.00
01726             -16.00     3400.00
01727             -14.00     3400.00
01728              -4.00     3200.00
01729              -2.00     2800.00
01730              -8.00     2800.00
01731             -14.00     2600.00
01732             -10.00     2200.00
01733              -4.00     2000.00
01734              -2.00     2000.00
01735              -6.00     1600.00
01736             -10.00     1600.00
01737             -14.00     1200.00
01738              -8.00     1200.00
01739               0.00     1000.00
01740               4.00      800.00
01741               0.00      800.00
01742              -8.00      400.00
01743             -10.00      200.00
01744              -8.00        0.00
01745              10.00        0.00
01746              38.00     -400.00
01747              26.00     -400.00
01748              -8.00     -800.00
01749             -16.00     -800.00
01750              -4.00    -1200.00
01751              10.00    -1400.00
01752              50.00    -1400.00
01753             208.00    -1600.00
01754             210.00    -2200.00
01755            -242.00    -2400.00
01756            -254.00    -2400.00
01757             -90.00    -2800.00
01758             102.00    -2800.00
01759             186.00    -2600.00
01760             246.00    -3200.00
01761            -242.00    -3200.00
01762            -176.00    -3200.00
01763             214.00    -4000.00
01764             -16.00    -3400.00
01765              26.00    -4000.00
01766             -40.00    -4400.00
01767              18.00    -4200.00
01768             118.00    -4800.00
01769             -98.00    -4800.00
01770             -30.00    -5000.00
01771             -30.00    -5200.00
01772              58.00    -5400.00
01773             104.00    -5600.00
01774             -80.00    -5400.00
01775             -10.00    -6200.00
01776              -2.00    -6000.00
01777              54.00    -6200.00
01778              32.00    -6400.00
01779             -42.00    -6400.00
01780              10.00    -7000.00
01781               2.00    -6800.00
01782              42.00    -7200.00
01783             -24.00    -7200.00
01784              -6.00    -7400.00
01785              34.00    -7600.00
01786               0.00    -7600.00
01787              26.00    -8000.00
01788             -10.00    -8000.00
01789               2.00    -8400.00
01790              32.00    -8400.00
01791               2.00    -8600.00
01792             -12.00    -8800.00
01793               8.00    -8800.00
01794              22.00    -9000.00
01795              18.00    -9000.00
01796              18.00    -9200.00
01797               0.00    -9400.00
01798               0.00    -9400.00
01799              18.00    -9600.00
01800              10.00    -9600.00
01801              10.00   -10000.00
01802              24.00   -10000.00
01803               2.00   -10000.00
01804               6.00   -10200.00
01805               6.00   -10200.00
01806               8.00   -10400.00
01807              32.00   -10400.00
01808              24.00   -10400.00
01809               8.00   -10800.00
01810               6.00   -10800.00
01811               6.00   -10800.00
01812              10.00   -11000.00
01813              24.00   -11200.00
01814              22.00   -11200.00
01815              14.00   -11200.00
01816              16.00   -11400.00
01817               8.00   -11400.00
01818               8.00   -11600.00
01819              22.00   -11600.00
01820              22.00   -11600.00
01821              20.00   -11600.00
01822              18.00   -11800.00
01823               6.00   -11800.00
01824               8.00   -11800.00
01825              18.00   -11800.00
01826              16.00   -12000.00
01827              22.00   -12000.00
01828              22.00   -12000.00
01829              14.00   -12000.00
01830              14.00   -12000.00
01831              16.00   -12000.00
01832              10.00   -12000.00
01833              22.00   -12000.00
01834              22.00   -12000.00
01835              16.00   -12000.00
01836              14.00   -12200.00
01837               6.00   -12200.00
01838               8.00   -12000.00
01839              24.00   -12000.00
01840              24.00   -12200.00
01841              16.00   -12200.00
01842              16.00   -12000.00
01843               8.00   -12200.00
01844               8.00   -12000.00
01845              14.00   -12000.00
01846              18.00   -12000.00
01847              22.00   -12000.00
01848              18.00   -12000.00
01849              12.00   -12000.00
01850              10.00   -12000.00
01851              14.00   -12000.00
01852              14.00   -11800.00
01853              16.00   -12000.00
01854              16.00   -11600.00
01855              18.00   -11800.00
01856              14.00   -11800.00
01857              10.00   -11800.00
01858               8.00   -11600.00
01859              14.00   -11400.00
01860              14.00   -11600.00
01861              20.00   -11400.00
01862              16.00   -11200.00
01863              14.00   -11400.00
01864               8.00   -11000.00
01865              14.00   -11000.00
01866              16.00   -11000.00
01867              18.00   -10800.00
01868              16.00   -10800.00
01869              14.00   -10800.00
01870               8.00   -10600.00
01871               8.00   -10400.00
01872              14.00   -10400.00
01873              16.00   -10200.00
01874              16.00   -10000.00
01875              16.00   -10000.00
01876              12.00   -10000.00
01877              10.00    -9800.00
01878              10.00    -9600.00
01879              12.00    -9600.00
01880              16.00    -9400.00
01881              16.00    -9400.00
01882              14.00    -9200.00
01883              10.00    -9200.00
01884               8.00    -8800.00
01885              14.00    -8600.00
01886              14.00    -8600.00
01887              14.00    -8600.00
01888              14.00    -8400.00
01889              10.00    -8400.00
01890               8.00    -8000.00
01891               8.00    -8000.00
01892               8.00    -7800.00
01893              14.00    -7400.00
01894              10.00    -7600.00
01895              10.00    -7200.00
01896               8.00    -7200.00
01897               8.00    -7000.00
01898               6.00    -6800.00
01899               8.00    -6600.00
01900              10.00    -6400.00
01901              14.00    -6200.00
01902               8.00    -6200.00
01903               6.00    -6000.00
01904               2.00    -5800.00
01905               8.00    -5600.00
01906               6.00    -5400.00
01907               8.00    -5200.00
01908               2.00    -5200.00
01909               4.00    -5000.00
01910               2.00    -4800.00
01911               2.00    -4600.00
01912               0.00    -4400.00
01913               4.00    -4000.00
01914               6.00    -3800.00
01915               2.00    -3600.00
01916               2.00    -3600.00
01917               0.00    -3400.00
01918               0.00    -3200.00
01919               0.00    -3000.00
01920               0.00    -2800.00
01921               2.00    -2600.00
01922               2.00    -2400.00
01923               0.00    -2200.00
01924              -2.00    -2000.00
01925              -6.00    -1800.00
01926               0.00    -1600.00
01927               2.00    -1400.00
01928               2.00    -1200.00
01929               0.00    -1000.00
01930              -2.00     -800.00
01931              -2.00     -600.00
01932              -2.00     -400.00
01933               0.00        0.00
01934               0.00        0.00
01935               0.00      200.00
01936               2.00      400.00
01937              14.00      600.00
01938              32.00     1000.00
01939              12.00     1000.00
01940             -14.00     1200.00
01941             -14.00     1200.00
01942               6.00     1600.00
01943              30.00     1600.00
01944             180.00     2000.00
01945             246.00     2400.00
01946            -176.00     2400.00
01947            -254.00     2400.00
01948            -224.00     2800.00
01949              48.00     2800.00
01950             246.00     3400.00
01951             246.00     3400.00
01952            -254.00     3200.00
01953             -96.00     3600.00
01954             246.00     4000.00
01955            -182.00     4000.00
01956              96.00     4400.00
01957             -32.00     4400.00
01958             -48.00     4600.00
01959             176.00     4800.00
01960            -176.00     5000.00
01961             -64.00     5400.00
01962              30.00     5400.00
01963              40.00     5800.00
01964              32.00     5600.00
01965             -64.00     6000.00
01966              -8.00     6000.00
01967             -74.00     6200.00
01968              82.00     6800.00
01969             -18.00     6600.00
01970             -74.00     6800.00
01971              40.00     7000.00
01972             -38.00     7200.00
01973              14.00     7400.00
01974             -34.00     7400.00
01975             -38.00     7600.00
01976               6.00     7600.00
01977              24.00     8000.00
01978             -34.00     8000.00
01979             -44.00     8200.00
01980               2.00     8400.00
01981             -24.00     8400.00
01982               2.00     8800.00
01983             -18.00     8800.00
01984             -24.00     9000.00
01985             -24.00     9200.00
01986               2.00     9400.00
01987             -26.00     9400.00
01988             -10.00     9600.00
01989             -10.00     9800.00
01990             -36.00     9800.00
01991              -6.00    10000.00
01992             -22.00    10000.00
01993             -10.00    10400.00
01994             -10.00    10400.00
01995             -24.00    10400.00
01996             -38.00    10400.00
01997             -10.00    10800.00
01998              -8.00    10800.00
01999             -10.00    11000.00
02000             -14.00    11000.00
02001             -34.00    11200.00
02002             -32.00    11200.00
02003             -16.00    11400.00
02004             -14.00    11400.00
02005             -14.00    11800.00
02006             -10.00    11600.00
02007             -26.00    11800.00
02008             -24.00    11800.00
02009             -22.00    11800.00
02010             -28.00    11800.00
02011             -14.00    12000.00
02012             -10.00    12000.00
02013             -24.00    12000.00
02014             -24.00    12200.00
02015             -24.00    12200.00
02016             -26.00    12200.00
02017             -16.00    12200.00
02018             -14.00    12200.00
02019             -16.00    12400.00
02020             -18.00    12400.00
02021             -26.00    12400.00
02022             -30.00    12400.00
02023             -24.00    12400.00
02024             -22.00    12600.00
02025             -14.00    12400.00
02026             -14.00    12400.00
02027             -24.00    12600.00
02028             -30.00    12600.00
02029             -24.00    12400.00
02030             -18.00    12600.00
02031             -16.00    12400.00
02032             -16.00    12400.00
02033             -24.00    12400.00
02034             -26.00    12600.00
02035             -26.00    12400.00
02036             -26.00    12400.00
02037             -18.00    12400.00
02038             -16.00    12400.00
02039             -18.00    12400.00
02040             -22.00    12200.00
02041             -26.00    12400.00
02042             -26.00    12200.00
02043             -26.00    12200.00
02044             -20.00    12200.00
02045             -22.00    12200.00
02046             -16.00    12200.00
02047             -22.00    12000.00
02048             -26.00    12000.00
02049             -24.00    12000.00
02050             -24.00    12000.00
02051             -18.00    11800.00
02052             -14.00    11800.00
02053             -18.00    11800.00
02054             -26.00    11800.00
02055             -26.00    11600.00
02056             -26.00    11400.00
02057             -22.00    11400.00
02058             -16.00    11400.00
02059             -16.00    11200.00
02060             -20.00    11200.00
02061             -24.00    11000.00
02062             -24.00    11000.00
02063             -22.00    10800.00
02064             -16.00    10600.00
02065             -16.00    10600.00
02066             -18.00    10600.00
02067             -22.00    10400.00
02068             -22.00    10400.00
02069             -22.00    10000.00
02070             -18.00    10000.00
02071             -16.00     9800.00
02072             -14.00     9800.00
02073             -14.00     9600.00
02074             -18.00     9600.00
02075             -22.00     9400.00
02076             -20.00     9200.00
02077             -16.00     9200.00
02078             -12.00     9000.00
02079             -12.00     8800.00
02080             -16.00     8600.00
02081             -18.00     8400.00
02082             -18.00     8400.00
02083             -14.00     8200.00
02084             -14.00     8000.00
02085             -14.00     8000.00
02086             -14.00     7800.00
02087             -12.00     7600.00
02088             -18.00     7400.00
02089             -18.00     7200.00
02090             -16.00     7200.00
02091             -10.00     6800.00
02092              -8.00     6600.00
02093             -10.00     6600.00
02094             -16.00     6400.00
02095             -18.00     6200.00
02096             -16.00     6000.00
02097             -10.00     5800.00
02098              -6.00     5600.00
02099              -6.00     5600.00
02100             -14.00     5400.00
02101             -16.00     5200.00
02102             -20.00     5000.00
02103             -14.00     4800.00
02104              -6.00     4400.00
02105               0.00     4400.00
02106              -8.00     4200.00
02107             -16.00     4000.00
02108             -16.00     3800.00
02109             -10.00     3600.00
02110              -8.00     3400.00
02111              -8.00     3400.00
02112             -10.00     3000.00
02113              -8.00     2800.00
02114              -8.00     2600.00
02115              -8.00     2400.00
02116             -14.00     2200.00
02117             -10.00     2000.00
02118              -8.00     1800.00
02119              -2.00     1600.00
02120              -4.00     1400.00
02121              -6.00     1400.00
02122              -8.00     1000.00
02123             -10.00      800.00
02124              -8.00      800.00
02125               0.00      600.00
02126               2.00      200.00
02127               0.00      200.00
02128               0.00        0.00
02129              16.00     -400.00
02130              24.00     -400.00
02131               2.00     -600.00
02132             -16.00     -800.00
02133              -4.00     -800.00
02134              10.00    -1200.00
02135              18.00    -1400.00
02136             108.00    -1400.00
02137             246.00    -2000.00
02138              20.00    -2400.00
02139            -254.00    -2400.00
02140            -254.00    -2800.00
02141              46.00    -2800.00
02142             110.00    -2600.00
02143             246.00    -2800.00
02144              96.00    -3200.00
02145            -254.00    -3200.00
02146              74.00    -3600.00
02147             130.00    -3800.00
02148             -40.00    -3600.00
02149              30.00    -4400.00
02150             -64.00    -4000.00
02151             116.00    -4600.00
02152              10.00    -4800.00
02153             -98.00    -4800.00
02154              -2.00    -5200.00
02155             -26.00    -5200.00
02156             132.00    -5600.00
02157               8.00    -5400.00
02158             -66.00    -6000.00
02159               0.00    -6200.00
02160               6.00    -6000.00
02161              72.00    -6600.00
02162             -18.00    -6200.00
02163              -8.00    -6800.00
02164               8.00    -7000.00
02165              22.00    -6800.00
02166              14.00    -7400.00
02167             -40.00    -7200.00
02168              34.00    -7600.00
02169              16.00    -7600.00
02170              10.00    -7800.00
02171              14.00    -8000.00
02172             -24.00    -8000.00
02173              24.00    -8600.00
02174              26.00    -8400.00
02175              -2.00    -8600.00
02176              -2.00    -8800.00
02177              14.00    -8800.00
02178              14.00    -9200.00
02179              16.00    -9200.00
02180              18.00    -9400.00
02181              -2.00    -9600.00
02182              10.00    -9400.00
02183              14.00    -9600.00
02184               6.00    -9800.00
02185              22.00   -10000.00
02186              16.00   -10000.00
02187               4.00   -10200.00
02188              10.00   -10200.00
02189               0.00   -10400.00
02190              16.00   -10400.00
02191              30.00   -10600.00
02192              16.00   -10600.00
02193               6.00   -10800.00
02194               6.00   -10800.00
02195               8.00   -11000.00
02196              16.00   -11000.00
02197              24.00   -11000.00
02198              16.00   -11200.00
02199              14.00   -11400.00
02200              14.00   -11400.00
02201               6.00   -11600.00
02202              14.00   -11600.00
02203              22.00   -11600.00
02204              16.00   -11800.00
02205              22.00   -11600.00
02206              14.00   -11800.00
02207               8.00   -11800.00
02208              12.00   -11800.00
02209              16.00   -11800.00
02210              16.00   -12000.00
02211              22.00   -12000.00
02212              20.00   -12000.00
02213              10.00   -12000.00
02214              12.00   -12000.00
02215              10.00   -12000.00
02216              16.00   -12000.00
02217              24.00   -12000.00
02218              22.00   -12000.00
02219              16.00   -12000.00
02220              14.00   -12200.00
02221              10.00   -12000.00
02222              14.00   -12000.00
02223              18.00   -12000.00
02224              16.00   -12000.00
02225              18.00   -12000.00
02226              16.00   -12200.00
02227              12.00   -12200.00
02228              10.00   -12000.00
02229              10.00   -12000.00
02230              16.00   -12000.00
02231              22.00   -12000.00
02232              18.00   -12000.00
02233              10.00   -12000.00
02234              14.00   -11800.00
02235              10.00   -12000.00
02236              14.00   -12000.00
02237              20.00   -11800.00
02238              22.00   -11800.00
02239              16.00   -11800.00
02240               8.00   -11600.00
02241              10.00   -11600.00
02242              14.00   -11600.00
02243              16.00   -11400.00
02244              18.00   -11600.00
02245              16.00   -11400.00
02246              16.00   -11200.00
02247              14.00   -11200.00
02248               8.00   -11200.00
02249              10.00   -11000.00
02250              14.00   -11000.00
02251              16.00   -10800.00
02252              16.00   -10800.00
02253              10.00   -10800.00
02254              14.00   -10400.00
02255              14.00   -10600.00
02256              14.00   -10200.00
02257              16.00   -10000.00
02258              18.00   -10200.00
02259              14.00   -10000.00
02260               8.00   -10000.00
02261               8.00    -9600.00
02262               8.00    -9600.00
02263              16.00    -9400.00
02264              18.00    -9400.00
02265              16.00    -9200.00
02266              10.00    -9200.00
02267               8.00    -9000.00
02268               8.00    -8800.00
02269              12.00    -8800.00
02270              14.00    -8600.00
02271              14.00    -8400.00
02272              10.00    -8400.00
02273               8.00    -8000.00
02274               6.00    -8000.00
02275               8.00    -7800.00
02276              14.00    -7600.00
02277              14.00    -7400.00
02278              14.00    -7400.00
02279              10.00    -7200.00
02280               6.00    -7000.00
02281               6.00    -7000.00
02282               8.00    -6800.00
02283              10.00    -6400.00
02284              12.00    -6600.00
02285              12.00    -6200.00
02286               8.00    -6000.00
02287               4.00    -6000.00
02288               2.00    -5600.00
02289               2.00    -5600.00
02290               8.00    -5400.00
02291              10.00    -5200.00
02292              10.00    -4800.00
02293               4.00    -4800.00
02294               0.00    -4600.00
02295               0.00    -4400.00
02296               6.00    -4200.00
02297               8.00    -4000.00
02298               6.00    -3800.00
02299               4.00    -3600.00
02300               0.00    -3400.00
02301               0.00    -3200.00
02302              -2.00    -3000.00
02303               0.00    -3000.00
02304               2.00    -2800.00
02305               6.00    -2400.00
02306               2.00    -2400.00
02307              -2.00    -2200.00
02308              -2.00    -2000.00
02309              -6.00    -1800.00
02310               0.00    -1600.00
02311               2.00    -1400.00
02312               0.00    -1000.00
02313              -2.00    -1000.00
02314              -2.00     -800.00
02315              -6.00     -600.00
02316              -2.00     -400.00
02317               0.00     -200.00
02318               2.00        0.00
02319               0.00      200.00
02320               0.00      400.00
02321              22.00      800.00
02322              28.00      800.00
02323              -2.00     1000.00
02324             -14.00     1200.00
02325              -2.00     1400.00
02326              14.00     1600.00
02327              68.00     1800.00
02328             246.00     2400.00
02329             134.00     2400.00
02330            -254.00     2400.00
02331            -254.00     2600.00
02332             -66.00     2800.00
02333             192.00     3000.00
02334             246.00     3400.00
02335             -74.00     3400.00
02336            -254.00     3400.00
02337             246.00     4000.00
02338              38.00     4000.00
02339            -108.00     4200.00
02340             128.00     4400.00
02341            -144.00     4400.00
02342             128.00     4800.00
02343              16.00     5000.00
02344            -186.00     5200.00
02345              30.00     5400.00
02346              14.00     5600.00
02347              70.00     5800.00
02348             -38.00     5600.00
02349             -26.00     6400.00
02350             -44.00     6200.00
02351             -14.00     6400.00
02352              86.00     6600.00
02353             -96.00     6400.00
02354               6.00     7000.00
02355               2.00     7200.00
02356             -16.00     7200.00
02357               6.00     7400.00
02358             -54.00     7600.00
02359             -12.00     7600.00
02360              14.00     8000.00
02361               8.00     8000.00
02362             -56.00     8200.00
02363             -14.00     8400.00
02364             -16.00     8800.00
02365              -8.00     8600.00
02366              -8.00     8800.00
02367             -28.00     9000.00
02368             -28.00     9000.00
02369             -10.00     9200.00
02370              -2.00     9600.00
02371             -26.00     9600.00
02372              -4.00     9600.00
02373             -40.00     9800.00
02374             -22.00     9800.00
02375              -8.00    10000.00
02376             -16.00    10000.00
02377              -8.00    10400.00
02378             -22.00    10400.00
02379             -38.00    10400.00
02380             -26.00    10600.00
02381               0.00    10800.00
02382             -12.00    10800.00
02383             -14.00    10800.00
02384             -26.00    11200.00
02385             -34.00    11200.00
02386             -22.00    11400.00
02387             -10.00    11400.00
02388             -14.00    11200.00
02389             -12.00    11600.00
02390             -22.00    11800.00
02391             -26.00    11800.00
02392             -20.00    11800.00
02393             -24.00    12000.00
02394             -24.00    11800.00
02395             -12.00    12000.00
02396             -16.00    12000.00
02397             -22.00    12200.00
02398             -24.00    12000.00
02399             -26.00    12200.00
02400             -24.00    12200.00
02401             -14.00    12200.00
02402             -16.00    12400.00
02403             -18.00    12400.00
02404             -22.00    12400.00
02405             -26.00    12400.00
02406             -26.00    12400.00
02407             -20.00    12400.00
02408             -18.00    12400.00
02409             -16.00    12400.00
02410             -18.00    12600.00
02411             -26.00    12400.00
02412             -24.00    12400.00
02413             -22.00    12800.00
02414             -24.00    12600.00
02415             -16.00    12400.00
02416             -14.00    12600.00
02417             -18.00    12400.00
02418             -24.00    12600.00
02419             -26.00    12400.00
02420             -24.00    12400.00
02421             -18.00    12200.00
02422             -16.00    12400.00
02423             -16.00    12400.00
02424             -22.00    12400.00
02425             -26.00    12400.00
02426             -26.00    12400.00
02427             -24.00    12200.00
02428             -18.00    12400.00
02429             -16.00    12200.00
02430             -18.00    12200.00
02431             -24.00    12200.00
02432             -32.00    12000.00
02433             -26.00    12000.00
02434             -18.00    12000.00
02435             -16.00    11800.00
02436             -16.00    11800.00
02437             -22.00    11800.00
02438             -26.00    11600.00
02439             -24.00    11400.00
02440             -24.00    11400.00
02441             -16.00    11200.00
02442             -16.00    11400.00
02443             -18.00    11200.00
02444             -24.00    11200.00
02445             -24.00    11200.00
02446             -24.00    11000.00
02447             -18.00    10600.00
02448             -16.00    10600.00
02449             -16.00    10600.00
02450             -16.00    10400.00
02451             -22.00    10400.00
02452             -26.00    10200.00
02453             -24.00    10200.00
02454             -16.00    10000.00
02455             -12.00     9800.00
02456             -16.00     9800.00
02457             -18.00     9600.00
02458             -22.00     9600.00
02459             -22.00     9200.00
02460             -18.00     9200.00
02461             -16.00     9200.00
02462             -14.00     8800.00
02463             -14.00     8800.00
02464             -16.00     8800.00
02465             -18.00     8400.00
02466             -18.00     8400.00
02467             -18.00     8200.00
02468             -10.00     8000.00
02469             -12.00     7800.00
02470             -14.00     7800.00
02471             -16.00     7600.00
02472             -18.00     7400.00
02473             -16.00     7200.00
02474             -16.00     6800.00
02475              -8.00     6800.00
02476             -12.00     6800.00
02477             -14.00     6600.00
02478             -14.00     6400.00
02479             -14.00     6400.00
02480             -14.00     6000.00
02481             -10.00     5800.00
02482              -8.00     5600.00
02483             -10.00     5600.00
02484             -10.00     5400.00
02485             -14.00     5000.00
02486             -16.00     5000.00
02487             -12.00     4800.00
02488             -10.00     4400.00
02489             -10.00     4400.00
02490             -10.00     4200.00
02491             -14.00     4000.00
02492             -14.00     3800.00
02493             -10.00     3600.00
02494             -10.00     3200.00
02495             -10.00     3200.00
02496             -10.00     3000.00
02497             -10.00     2800.00
02498             -10.00     2600.00
02499              -6.00     2400.00
02500             -10.00     2200.00
02501             -10.00     2000.00
02502              -6.00     1800.00
02503              -2.00     1600.00
02504              -8.00     1200.00
02505              -8.00     1200.00
02506              -8.00     1000.00
02507             -10.00      800.00
02508              -6.00      800.00
02509              -2.00      400.00
02510               0.00      200.00
02511               0.00      200.00
02512               6.00     -200.00
02513              24.00     -400.00
02514              14.00     -600.00
02515             -10.00     -800.00
02516             -10.00     -800.00
02517               8.00    -1000.00
02518              16.00    -1200.00
02519              42.00    -1400.00
02520             190.00    -1600.00
02521             222.00    -2200.00
02522            -216.00    -2400.00
02523            -254.00    -2400.00
02524            -112.00    -2800.00
02525              96.00    -2600.00
02526             170.00    -2400.00
02527             246.00    -3200.00
02528            -214.00    -3200.00
02529            -202.00    -3200.00
02530             214.00    -4000.00
02531             -10.00    -3600.00
02532              18.00    -4000.00
02533             -34.00    -4400.00
02534               6.00    -4200.00
02535             128.00    -4800.00
02536             -94.00    -4800.00
02537             -38.00    -5200.00
02538             -26.00    -5200.00
02539              48.00    -5400.00
02540             118.00    -5600.00
02541             -70.00    -5600.00
02542             -24.00    -6200.00
02543             -10.00    -6000.00
02544              48.00    -6200.00
02545              42.00    -6800.00
02546             -30.00    -6200.00
02547              16.00    -7000.00
02548               0.00    -6800.00
02549              38.00    -7200.00
02550             -26.00    -7400.00
02551              -8.00    -7200.00
02552              46.00    -7600.00
02553               6.00    -7600.00
02554              22.00    -8000.00
02555             -10.00    -8000.00
02556              -2.00    -8400.00
02557              34.00    -8600.00
02558               6.00    -8600.00
02559             -10.00    -8800.00
02560              14.00    -8800.00
02561              24.00    -9200.00
02562              18.00    -9200.00
02563              10.00    -9200.00
02564              -6.00    -9400.00
02565               0.00    -9600.00
02566              26.00    -9600.00
02567              16.00    -9600.00
02568              10.00    -9800.00
02569              16.00   -10000.00
02570               0.00   -10000.00
02571              10.00   -10200.00
02572              10.00   -10200.00
02573               6.00   -10400.00
02574              26.00   -10600.00
02575              26.00   -10600.00
02576               8.00   -10800.00
02577               4.00   -10800.00
02578               4.00   -10800.00
02579               8.00   -11000.00
02580              24.00   -11000.00
02581              22.00   -11200.00
02582              14.00   -11200.00
02583              18.00   -11200.00
02584              12.00   -11400.00
02585               8.00   -11600.00
02586              16.00   -11600.00
02587              14.00   -11600.00
02588              18.00   -11800.00
02589              22.00   -11800.00
02590              16.00   -11800.00
02591              14.00   -12000.00
02592              14.00   -11800.00
02593              10.00   -12000.00
02594              16.00   -11800.00
02595              26.00   -12000.00
02596              22.00   -12000.00
02597              16.00   -12000.00
02598              10.00   -12000.00
02599              10.00   -12000.00
02600              16.00   -12200.00
02601              24.00   -12000.00
02602              22.00   -12000.00
02603              16.00   -12000.00
02604              12.00   -12000.00
02605              14.00   -12000.00
02606              16.00   -12000.00
02607              22.00   -12000.00
02608              24.00   -12000.00
02609              20.00   -12000.00
02610              16.00   -12000.00
02611              10.00   -12000.00
02612              10.00   -12000.00
02613              18.00   -12000.00
02614              18.00   -12000.00
02615              22.00   -12000.00
02616              16.00   -12000.00
02617              14.00   -12000.00
02618              12.00   -11800.00
02619              10.00   -11800.00
02620              14.00   -11800.00
02621              18.00   -11800.00
02622              20.00   -11800.00
02623              14.00   -11800.00
02624              14.00   -11800.00
02625              10.00   -11600.00
02626              14.00   -11600.00
02627              20.00   -11600.00
02628              20.00   -11400.00
02629              14.00   -11400.00
02630              10.00   -11200.00
02631               8.00   -11200.00
02632              14.00   -11000.00
02633              16.00   -11000.00
02634              16.00   -11000.00
02635              14.00   -10800.00
02636              16.00   -10800.00
02637              14.00   -10800.00
02638              10.00   -10400.00
02639               6.00   -10400.00
02640              14.00   -10200.00
02641              22.00   -10200.00
02642              10.00   -10000.00
02643               8.00   -10000.00
02644              14.00   -10000.00
02645              10.00    -9600.00
02646              10.00    -9600.00
02647              16.00    -9400.00
02648              14.00    -9400.00
02649              10.00    -9200.00
02650              14.00    -9000.00
02651              12.00    -9000.00
02652               8.00    -8800.00
02653               6.00    -8800.00
02654               4.00    -8600.00
02655              16.00    -8400.00
02656              22.00    -8400.00
02657              14.00    -8000.00
02658               6.00    -8000.00
02659               2.00    -7800.00
02660               8.00    -7400.00
02661               8.00    -7400.00
02662              16.00    -7200.00
02663              16.00    -7200.00
02664               8.00    -7000.00
02665              -4.00    -6800.00
02666              -4.00    -6600.00
02667              14.00    -6400.00
02668              32.00    -6400.00
02669              22.00    -6200.00
02670               0.00    -6000.00
02671             -14.00    -5600.00
02672             -10.00    -5600.00
02673              10.00    -5400.00
02674              22.00    -5200.00
02675              16.00    -5200.00
02676               6.00    -4800.00
02677              -2.00    -4600.00
02678              -2.00    -4600.00
02679               6.00    -4400.00
02680               8.00    -4000.00
02681               2.00    -3800.00
02682               2.00    -3800.00
02683               0.00    -3600.00
02684               2.00    -3200.00
02685               0.00    -3200.00
02686               2.00    -3000.00
02687               0.00    -2800.00
02688               2.00    -2400.00
02689               2.00    -2400.00
02690              -2.00    -2200.00
02691              -4.00    -2000.00
02692              -4.00    -2000.00
02693               2.00    -1600.00
02694               6.00    -1400.00
02695               0.00    -1000.00
02696              -2.00    -1000.00
02697              -6.00     -800.00
02698              -2.00     -400.00
02699               0.00     -400.00
02700              -2.00     -200.00
02701              -6.00        0.00
02702              -2.00      200.00
02703               2.00      400.00
02704              14.00      600.00
02705              32.00      800.00
02706               8.00      800.00
02707             -18.00     1200.00
02708             -14.00     1200.00
02709               6.00     1600.00
02710              26.00     1600.00
02711             162.00     2000.00
02712             246.00     2400.00
02713            -142.00     2400.00
02714            -254.00     2400.00
02715            -246.00     2800.00
02716              36.00     2800.00
02717             246.00     3200.00
02718             246.00     3400.00
02719            -254.00     3200.00
02720            -146.00     3600.00
02721             246.00     4000.00
02722            -176.00     4000.00
02723              80.00     4400.00
02724             -10.00     4400.00
02725             -70.00     4600.00
02726             182.00     4800.00
02727            -160.00     5200.00
02728             -78.00     5200.00
02729              34.00     5400.00
02730              34.00     5800.00
02731              38.00     5600.00
02732             -64.00     6000.00
02733               0.00     6200.00
02734             -72.00     6200.00
02735              72.00     6600.00
02736              -8.00     6600.00
02737             -82.00     6600.00
02738              42.00     7000.00
02739             -34.00     7200.00
02740              16.00     7400.00
02741             -30.00     7400.00
02742             -38.00     7800.00
02743               4.00     7800.00
02744              22.00     8200.00
02745             -26.00     8200.00
02746             -42.00     8200.00
02747               2.00     8600.00
02748             -24.00     8400.00
02749               2.00     8800.00
02750             -24.00     9000.00
02751             -26.00     9000.00
02752             -24.00     9200.00
02753               6.00     9200.00
02754             -22.00     9600.00
02755             -14.00     9600.00
02756             -16.00     9800.00
02757             -40.00     9800.00
02758              -6.00    10000.00
02759             -14.00    10000.00
02760             -10.00    10200.00
02761             -16.00    10400.00
02762             -26.00    10600.00
02763             -38.00    10600.00
02764             -10.00    10600.00
02765              -8.00    10800.00
02766             -14.00    10800.00
02767             -16.00    11000.00
02768             -32.00    11200.00
02769             -30.00    11200.00
02770             -16.00    11200.00
02771             -16.00    11400.00
02772             -16.00    11400.00
02773             -16.00    11400.00
02774             -26.00    11800.00
02775             -20.00    11800.00
02776             -16.00    11800.00
02777             -26.00    12000.00
02778             -18.00    12000.00
02779             -14.00    12000.00
02780             -16.00    12000.00
02781             -24.00    12200.00
02782             -24.00    12200.00
02783             -26.00    12200.00
02784             -26.00    12400.00
02785             -22.00    12200.00
02786             -16.00    12400.00
02787             -14.00    12400.00
02788             -22.00    12400.00
02789             -32.00    12400.00
02790             -26.00    12400.00
02791             -18.00    12400.00
02792             -10.00    12600.00
02793             -10.00    12400.00
02794             -22.00    12600.00
02795             -34.00    12600.00
02796             -30.00    12600.00
02797             -16.00    12400.00
02798             -14.00    12600.00
02799             -14.00    12600.00
02800             -22.00    12400.00
02801             -26.00    12800.00
02802             -26.00    12600.00
02803             -26.00    12600.00
02804             -18.00    12400.00
02805             -10.00    12400.00
02806             -16.00    12400.00
02807             -24.00    12200.00
02808             -26.00    12400.00
02809             -26.00    12200.00
02810             -18.00    12400.00
02811             -14.00    12200.00
02812             -16.00    12400.00
02813             -18.00    12200.00
02814             -26.00    12200.00
02815             -30.00    12000.00
02816             -22.00    12000.00
02817             -16.00    12000.00
02818             -16.00    12000.00
02819             -22.00    11800.00
02820             -26.00    11600.00
02821             -22.00    11800.00
02822             -22.00    11600.00
02823             -22.00    11600.00
02824             -22.00    11400.00
02825             -18.00    11200.00
02826             -16.00    11200.00
02827             -22.00    11000.00
02828             -26.00    11200.00
02829             -24.00    10800.00
02830             -18.00    10800.00
02831             -16.00    10800.00
02832             -18.00    10600.00
02833             -20.00    10400.00
02834             -22.00    10400.00
02835             -24.00    10400.00
02836             -22.00    10200.00
02837             -18.00    10000.00
02838             -18.00     9800.00
02839             -16.00     9800.00
02840             -18.00     9600.00
02841             -18.00     9600.00
02842             -22.00     9400.00
02843             -20.00     9200.00
02844             -18.00     9200.00
02845             -12.00     9000.00
02846             -14.00     8800.00
02847             -16.00     8800.00
02848             -22.00     8800.00
02849             -18.00     8400.00
02850             -16.00     8200.00
02851             -12.00     8200.00
02852             -14.00     8000.00
02853             -14.00     7800.00
02854             -16.00     7600.00
02855             -18.00     7400.00
02856             -16.00     7200.00
02857             -16.00     7000.00
02858             -12.00     6800.00
02859             -10.00     6800.00
02860             -14.00     6600.00
02861             -16.00     6400.00
02862             -16.00     6200.00
02863             -14.00     6000.00
02864             -10.00     5800.00
02865              -8.00     5600.00
02866             -10.00     5600.00
02867             -10.00     5400.00
02868             -16.00     5200.00
02869             -14.00     5000.00
02870             -14.00     4800.00
02871             -10.00     4600.00
02872              -8.00     4200.00
02873             -10.00     4200.00
02874              -8.00     4000.00
02875              -6.00     4000.00
02876             -10.00     3600.00
02877             -10.00     3400.00
02878             -10.00     3200.00
02879              -6.00     3000.00
02880              -6.00     2800.00
02881             -10.00     2600.00
02882             -10.00     2600.00
02883             -10.00     2400.00
02884              -6.00     2000.00
02885              -4.00     1800.00
02886              -8.00     1600.00
02887              -8.00     1600.00
02888              -8.00     1200.00
02889             -10.00     1000.00
02890             -10.00     1000.00
02891              -4.00      800.00
02892              -2.00      600.00
02893              -4.00      400.00
02894              -2.00        0.00
02895               0.00        0.00
02896              18.00     -400.00
02897              28.00     -400.00
02898              -2.00     -600.00
02899             -16.00     -800.00
02900              -6.00    -1000.00
02901               8.00    -1200.00
02902              18.00    -1200.00
02903              96.00    -1600.00
02904             246.00    -1600.00
02905              40.00    -2400.00
02906            -254.00    -2400.00
02907            -254.00    -2600.00
02908              38.00    -2800.00
02909             102.00    -2600.00
02910             246.00    -2800.00
02911             128.00    -3600.00
02912            -254.00    -3200.00
02913              54.00    -3600.00
02914             150.00    -3800.00
02915             -46.00    -3600.00
02916              30.00    -4400.00
02917             -70.00    -4200.00
02918             108.00    -4400.00
02919              26.00    -4800.00
02920             -98.00    -4800.00
02921              -6.00    -5200.00
02922             -34.00    -5000.00
02923             128.00    -5600.00
02924              22.00    -5400.00
02925             -70.00    -5600.00
02926               0.00    -6000.00
02927               0.00    -5800.00
02928              74.00    -6400.00
02929              -6.00    -6400.00
02930             -10.00    -6800.00
02931               8.00    -7000.00
02932              18.00    -6800.00
02933              22.00    -7400.00
02934             -34.00    -7200.00
02935              32.00    -7600.00
02936              18.00    -7600.00
02937              14.00    -7800.00
02938              18.00    -8000.00
02939             -22.00    -8000.00
02940              24.00    -8400.00
02941              30.00    -8400.00
02942              -2.00    -8600.00
02943               0.00    -8800.00
02944              16.00    -8800.00
02945              16.00    -9200.00
02946              22.00    -9200.00
02947              14.00    -9400.00
02948              -2.00    -9400.00
02949              12.00    -9400.00
02950              18.00    -9600.00
02951               6.00   -10000.00
02952              22.00   -10000.00
02953              14.00   -10000.00
02954               6.00   -10000.00
02955              14.00   -10200.00
02956               2.00   -10200.00
02957              14.00   -10400.00
02958              32.00   -10600.00
02959              14.00   -10800.00
02960               2.00   -10800.00
02961               6.00   -10800.00
02962               8.00   -11000.00
02963              18.00   -11000.00
02964              22.00   -11000.00
02965              14.00   -11200.00
02966              12.00   -11200.00
02967              16.00   -11200.00
02968               8.00   -11600.00
02969              10.00   -11600.00
02970              16.00   -11600.00
02971              16.00   -11600.00
02972              20.00   -11600.00
02973              16.00   -11800.00
02974              10.00   -11800.00
02975              10.00   -11800.00
02976              14.00   -11800.00
02977              14.00   -11800.00
02978              22.00   -12000.00
02979              22.00   -11800.00
02980              16.00   -12000.00
02981              12.00   -12000.00
02982              10.00   -12200.00
02983              12.00   -12000.00
02984              24.00   -12200.00
02985              22.00   -12200.00
02986              16.00   -12200.00
02987              14.00   -12200.00
02988              10.00   -12000.00
02989              16.00   -12000.00
02990              22.00   -12000.00
02991              16.00   -12000.00
02992              18.00   -12200.00
02993              18.00   -12000.00
02994              16.00   -12000.00
02995              12.00   -12200.00
02996              16.00   -12000.00
02997              16.00   -12200.00
02998              22.00   -12000.00
02999              24.00   -12000.00
03000              14.00   -12000.00
03001               6.00   -12000.00
03002               8.00   -12000.00
03003              22.00   -12000.00
03004              30.00   -11800.00
03005              18.00   -11800.00
03006               6.00   -11800.00
03007              12.00   -11600.00
03008              16.00   -11600.00
03009              16.00   -11600.00
03010              16.00   -11600.00
03011              18.00   -11600.00
03012              14.00   -11400.00
03013              14.00   -11200.00
03014               8.00   -11200.00
03015              14.00   -11200.00
03016              16.00   -11000.00
03017              18.00   -10800.00
03018              18.00   -11000.00
03019              14.00   -10800.00
03020              10.00   -10600.00
03021              10.00   -10600.00
03022              14.00   -10400.00
03023              14.00   -10400.00
03024              10.00   -10200.00
03025              16.00   -10000.00
03026              14.00   -10000.00
03027              10.00   -10000.00
03028               8.00    -9600.00
03029              10.00    -9600.00
03030              10.00    -9600.00
03031              10.00    -9400.00
03032              10.00    -9200.00
03033              14.00    -9200.00
03034              12.00    -9000.00
03035               8.00    -8800.00
03036               8.00    -8800.00
03037              10.00    -8600.00
03038              14.00    -8400.00
03039              14.00    -8200.00
03040              10.00    -8200.00
03041               6.00    -8000.00
03042               6.00    -8000.00
03043               6.00    -7800.00
03044              14.00    -7400.00
03045              14.00    -7400.00
03046              10.00    -7200.00
03047               6.00    -7000.00
03048               6.00    -7000.00
03049               8.00    -6800.00
03050               8.00    -6600.00
03051              10.00    -6400.00
03052              12.00    -6200.00
03053               6.00    -6000.00
03054               4.00    -6000.00
03055               4.00    -5600.00
03056               6.00    -5600.00
03057              10.00    -5200.00
03058               8.00    -5200.00
03059               6.00    -4800.00
03060               4.00    -4800.00
03061               0.00    -4600.00
03062               0.00    -4400.00
03063               6.00    -4400.00
03064               6.00    -4000.00
03065               6.00    -3800.00
03066               6.00    -3600.00
03067               0.00    -3600.00
03068               0.00    -3200.00
03069               2.00    -3000.00
03070               2.00    -2800.00
03071               4.00    -2800.00
03072               2.00    -2400.00
03073               0.00    -2400.00
03074               0.00    -2000.00
03075              -2.00    -2000.00
03076               0.00    -1600.00
03077              -2.00    -1600.00
03078               2.00    -1400.00
03079               0.00    -1200.00
03080              -2.00     -800.00
03081              -2.00     -800.00
03082              -6.00     -600.00
03083              -2.00     -400.00
03084               0.00        0.00
03085               0.00      200.00
03086               2.00      200.00
03087               0.00      400.00
03088              18.00      800.00
03089              24.00      800.00
03090               0.00     1000.00
03091             -14.00     1200.00
03092              -6.00     1600.00
03093              10.00     1600.00
03094              58.00     1800.00
03095             246.00     2200.00
03096             160.00     2400.00
03097            -254.00     2400.00
03098            -254.00     2600.00
03099             -82.00     2800.00
03100             168.00     3000.00
03101             246.00     3400.00
03102             -16.00     3400.00
03103            -254.00     3400.00
03104             224.00     4000.00
03105              72.00     3800.00
03106            -128.00     4200.00
03107             134.00     4400.00
03108            -144.00     4600.00
03109             114.00     4400.00
03110              40.00     5000.00
03111            -194.00     5400.00
03112              24.00     5400.00
03113               8.00     5600.00
03114              64.00     5800.00
03115             -24.00     5600.00
03116             -22.00     6200.00
03117             -36.00     6200.00
03118             -34.00     6400.00
03119              88.00     6600.00
03120             -98.00     6600.00
03121               0.00     7000.00
03122              18.00     7000.00
03123             -16.00     7400.00
03124               6.00     7400.00
03125             -62.00     7600.00
03126             -16.00     7800.00
03127              16.00     8000.00
03128              22.00     8200.00
03129             -48.00     8000.00
03130             -10.00     8400.00
03131             -24.00     8400.00
03132             -24.00     8600.00
03133               2.00     9000.00
03134             -18.00     9000.00
03135             -26.00     9000.00
03136             -14.00     9200.00
03137               2.00     9400.00
03138             -26.00     9600.00
03139              -2.00     9800.00
03140             -40.00     9800.00
03141             -24.00     9800.00
03142              -8.00    10000.00
03143             -18.00    10000.00
03144              -2.00    10200.00
03145             -14.00    10400.00
03146             -40.00    10400.00
03147             -34.00    10400.00
03148              -2.00    10800.00
03149              -6.00    10600.00
03150              -2.00    10800.00
03151             -26.00    11000.00
03152             -40.00    11200.00
03153             -26.00    11200.00
03154             -10.00    11400.00
03155             -10.00    11400.00
03156             -10.00    11400.00
03157             -24.00    11800.00
03158             -34.00    11800.00
03159             -18.00    11800.00
03160             -20.00    11800.00
03161             -24.00    12000.00
03162             -16.00    12000.00
03163             -26.00    12000.00
03164             -30.00    12200.00
03165             -22.00    12200.00
03166             -16.00    12200.00
03167             -16.00    12200.00
03168             -22.00    12200.00
03169             -26.00    12400.00
03170             -24.00    12400.00
03171             -16.00    12400.00
03172             -18.00    12400.00
03173             -24.00    12400.00
03174             -26.00    12400.00
03175             -28.00    12400.00
03176             -16.00    12400.00
03177             -14.00    12400.00
03178             -22.00    12600.00
03179             -26.00    12600.00
03180             -26.00    12600.00
03181             -22.00    12600.00
03182             -14.00    12400.00
03183             -16.00    12400.00
03184             -24.00    12600.00
03185             -26.00    12400.00
03186             -30.00    12600.00
03187             -24.00    12400.00
03188             -12.00    12400.00
03189             -16.00    12400.00
03190             -18.00    12400.00
03191             -24.00    12400.00
03192             -30.00    12400.00
03193             -26.00    12400.00
03194             -16.00    12200.00
03195             -16.00    12400.00
03196             -18.00    12200.00
03197             -24.00    12200.00
03198             -26.00    12000.00
03199             -26.00    12000.00
03200             -22.00    12000.00
03201             -18.00    12000.00
03202             -16.00    11800.00
03203             -18.00    11800.00
03204             -22.00    11600.00
03205             -24.00    11800.00
03206             -26.00    11600.00
03207             -22.00    11400.00
03208             -16.00    11400.00
03209             -16.00    11200.00
03210             -22.00    11200.00
03211             -26.00    11200.00
03212             -26.00    11200.00
03213             -24.00    10800.00
03214             -22.00    10800.00
03215             -18.00    10600.00
03216             -16.00    10600.00
03217             -18.00    10400.00
03218             -24.00    10400.00
03219             -24.00    10400.00
03220             -24.00    10000.00
03221             -22.00    10000.00
03222             -16.00     9800.00
03223             -10.00     9800.00
03224             -16.00     9600.00
03225             -22.00     9600.00
03226             -22.00     9400.00
03227             -24.00     9200.00
03228             -22.00     9000.00
03229             -16.00     8800.00
03230             -14.00     8800.00
03231             -16.00     8800.00
03232             -18.00     8400.00
03233             -22.00     8200.00
03234             -24.00     8200.00
03235             -16.00     8000.00
03236             -10.00     7800.00
03237             -14.00     7600.00
03238             -14.00     7600.00
03239             -16.00     7400.00
03240             -14.00     7200.00
03241             -16.00     6800.00
03242             -16.00     7000.00
03243             -14.00     6600.00
03244             -12.00     6600.00
03245             -18.00     6400.00
03246             -14.00     6200.00
03247             -10.00     6000.00
03248             -10.00     5800.00
03249             -10.00     5600.00
03250             -16.00     5600.00
03251             -14.00     5400.00
03252             -14.00     5000.00
03253             -16.00     4800.00
03254             -10.00     4800.00
03255              -6.00     4600.00
03256              -6.00     4400.00
03257              -8.00     4200.00
03258             -10.00     3800.00
03259             -10.00     3800.00
03260             -14.00     3600.00
03261             -10.00     3400.00
03262              -4.00     3200.00
03263               0.00     3200.00
03264              -8.00     2800.00
03265             -16.00     2600.00
03266             -14.00     2400.00
03267             -10.00     2400.00
03268              -2.00     2000.00
03269               0.00     1800.00
03270              -6.00     1600.00
03271              -8.00     1400.00
03272             -10.00     1200.00
03273             -10.00     1200.00
03274              -2.00      800.00
03275               2.00      800.00
03276             -16.00      400.00
03277              -8.00      200.00
03278             -10.00        0.00
03279              16.00        0.00
03280              14.00     -400.00
03281               8.00     -600.00
03282              28.00     -600.00
03283               6.00     -800.00
03284              22.00    -1200.00
03285             -14.00    -1200.00
03286              16.00    -1600.00
03287             166.00    -1600.00
03288             224.00    -2200.00
03289            -208.00    -2400.00
03290            -254.00    -2600.00
03291            -104.00    -2600.00
03292             110.00    -2800.00
03293             154.00    -2800.00
03294             246.00    -3200.00
03295            -186.00    -3400.00
03296            -226.00    -3200.00
03297             194.00    -4000.00
03298               2.00    -3600.00
03299              14.00    -4000.00
03300             -30.00    -4400.00
03301               0.00    -4000.00
03302             134.00    -4800.00
03303             -74.00    -4800.00
03304             -42.00    -5200.00
03305             -24.00    -5200.00
03306              30.00    -5200.00
03307             120.00    -5600.00
03308             -70.00    -5400.00
03309             -32.00    -6200.00
03310             -10.00    -6000.00
03311              38.00    -6000.00
03312              62.00    -6400.00
03313             -22.00    -6400.00
03314              16.00    -6800.00
03315              -4.00    -6800.00
03316              34.00    -7200.00
03317             -22.00    -7200.00
03318             -24.00    -7400.00
03319              34.00    -7600.00
03320               6.00    -7600.00
03321              40.00    -8000.00
03322               0.00    -7800.00
03323              -6.00    -8200.00
03324              32.00    -8400.00
03325               8.00    -8400.00
03326              -8.00    -8800.00
03327               6.00    -8600.00
03328              20.00    -9000.00
03329              18.00    -9200.00
03330              22.00    -9200.00
03331               6.00    -9400.00
03332               4.00    -9400.00
03333              18.00    -9600.00
03334              14.00    -9600.00
03335              16.00   -10000.00
03336              22.00    -9800.00
03337               2.00   -10200.00
03338               6.00   -10200.00
03339               8.00   -10200.00
03340               6.00   -10400.00
03341              26.00   -10600.00
03342              22.00   -10600.00
03343               8.00   -10800.00
03344              10.00   -10800.00
03345              14.00   -11000.00
03346               8.00   -11000.00
03347              14.00   -11200.00
03348              18.00   -11200.00
03349              22.00   -11200.00
03350              18.00   -11200.00
03351               6.00   -11400.00
03352              -2.00   -11600.00
03353              16.00   -11600.00
03354              22.00   -11600.00
03355              26.00   -11600.00
03356              22.00   -11800.00
03357               6.00   -11800.00
03358               2.00   -11800.00
03359              10.00   -11800.00
03360              16.00   -12000.00
03361              22.00   -12000.00
03362              26.00   -12000.00
03363              16.00   -12000.00
03364              14.00   -12200.00
03365               8.00   -12000.00
03366               8.00   -12000.00
03367              20.00   -12000.00
03368              26.00   -12000.00
03369              18.00   -12200.00
03370              10.00   -12000.00
03371               8.00   -12200.00
03372              10.00   -12000.00
03373              24.00   -12000.00
03374              24.00   -12200.00
03375              22.00   -12000.00
03376              14.00   -12000.00
03377               8.00   -12200.00
03378               8.00   -12000.00
03379              18.00   -12000.00
03380              22.00   -12000.00
03381              16.00   -12000.00
03382              18.00   -12000.00
03383              14.00   -12000.00
03384              16.00   -12000.00
03385              16.00   -11800.00
03386              14.00   -12000.00
03387              16.00   -11800.00
03388              18.00   -11800.00
03389              16.00   -11800.00
03390              16.00   -11800.00
03391              14.00   -11600.00
03392              10.00   -11600.00
03393              16.00   -11600.00
03394              18.00   -11600.00
03395              18.00   -11400.00
03396              14.00   -11200.00
03397              10.00   -11200.00
03398              14.00   -11000.00
03399              14.00   -11000.00
03400              16.00   -11000.00
03401              16.00   -10800.00
03402              14.00   -10800.00
03403              14.00   -10800.00
03404              14.00   -10400.00
03405              14.00   -10600.00
03406              10.00   -10400.00
03407              10.00   -10200.00
03408              14.00   -10000.00
03409              14.00   -10000.00
03410              12.00   -10000.00
03411               8.00    -9800.00
03412               8.00    -9800.00
03413              10.00    -9600.00
03414              12.00    -9400.00
03415              14.00    -9400.00
03416              14.00    -9200.00
03417               8.00    -9200.00
03418               6.00    -9000.00
03419               6.00    -8800.00
03420              10.00    -8600.00
03421              14.00    -8600.00
03422              10.00    -8400.00
03423              10.00    -8200.00
03424               6.00    -8000.00
03425               6.00    -7800.00
03426              10.00    -7800.00
03427              10.00    -7400.00
03428              10.00    -7400.00
03429              10.00    -7200.00
03430               8.00    -7200.00
03431               6.00    -7000.00
03432               6.00    -6800.00
03433               6.00    -6800.00
03434               6.00    -6600.00
03435              10.00    -6400.00
03436               8.00    -6200.00
03437               2.00    -6000.00
03438               2.00    -5800.00
03439               4.00    -5600.00
03440               6.00    -5400.00
03441              10.00    -5200.00
03442              10.00    -5000.00
03443               6.00    -4800.00
03444               4.00    -4600.00
03445               2.00    -4600.00
03446               2.00    -4400.00
03447               2.00    -4000.00
03448               8.00    -4000.00
03449               6.00    -3800.00
03450               6.00    -3600.00
03451               0.00    -3200.00
03452               0.00    -3200.00
03453               2.00    -3000.00
03454               6.00    -2800.00
03455               4.00    -2600.00
03456               2.00    -2400.00
03457               2.00    -2200.00
03458               0.00    -2000.00
03459              -2.00    -2000.00
03460               0.00    -1600.00
03461               0.00    -1400.00
03462               6.00    -1200.00
03463               0.00    -1000.00
03464              -6.00     -800.00
03465              -2.00     -600.00
03466               0.00     -600.00
03467               0.00     -200.00
03468               0.00        0.00
03469              -2.00      200.00
03470               0.00      200.00
03471              12.00      600.00
03472              30.00      800.00
03473              14.00     1000.00
03474             -10.00     1000.00
03475             -14.00     1200.00
03476               6.00     1400.00
03477              22.00     1600.00
03478             148.00     2000.00
03479             246.00     2400.00
03480            -112.00     2400.00
03481            -254.00     2600.00
03482            -254.00     2800.00
03483              22.00     2800.00
03484             246.00     3200.00
03485             246.00     3400.00
03486            -254.00     3200.00
03487            -192.00     3600.00
03488             246.00     4000.00
03489            -166.00     4000.00
03490              58.00     4400.00
03491               6.00     4400.00
03492             -90.00     4400.00
03493             188.00     4800.00
03494            -144.00     5000.00
03495             -90.00     5400.00
03496              38.00     5400.00
03497              24.00     5800.00
03498              44.00     5800.00
03499             -58.00     6000.00
03500               0.00     6400.00
03501             -74.00     6000.00
03502              62.00     6600.00
03503               6.00     6600.00
03504             -86.00     6800.00
03505              46.00     7200.00
03506             -32.00     7200.00
03507              14.00     7400.00
03508             -26.00     7400.00
03509             -42.00     7800.00
03510               6.00     7800.00
03511              26.00     8000.00
03512             -20.00     8200.00
03513             -48.00     8200.00
03514              -2.00     8400.00
03515             -22.00     8600.00
03516               8.00     8800.00
03517             -16.00     9000.00
03518             -26.00     9000.00
03519             -26.00     9200.00
03520               6.00     9600.00
03521             -16.00     9600.00
03522             -16.00     9600.00
03523             -14.00     9800.00
03524             -40.00     9800.00
03525              -6.00    10000.00
03526             -14.00    10200.00
03527             -10.00    10200.00
03528              -8.00    10400.00
03529             -24.00    10400.00
03530             -42.00    10600.00
03531             -14.00    10800.00
03532              -6.00    10800.00
03533             -10.00    10800.00
03534             -12.00    11000.00
03535             -34.00    11200.00
03536             -34.00    11000.00
03537             -16.00    11400.00
03538             -14.00    11400.00
03539             -16.00    11400.00
03540             -10.00    11400.00
03541             -26.00    11800.00
03542             -26.00    11600.00
03543             -24.00    11800.00
03544             -30.00    12000.00
03545             -16.00    11800.00
03546             -10.00    12000.00
03547             -18.00    12000.00
03548             -26.00    12200.00
03549             -26.00    12200.00
03550             -30.00    12200.00
03551             -26.00    12200.00
03552             -18.00    12400.00
03553             -16.00    12400.00
03554             -12.00    12400.00
03555             -26.00    12400.00
03556             -34.00    12400.00
03557             -26.00    12400.00
03558             -18.00    12400.00
03559             -16.00    12400.00
03560             -16.00    12600.00
03561             -26.00    12600.00
03562             -26.00    12600.00
03563             -18.00    12600.00
03564             -24.00    12400.00
03565             -24.00    12400.00
03566             -20.00    12400.00
03567             -20.00    12400.00
03568             -24.00    12600.00
03569             -26.00    12600.00
03570             -30.00    12400.00
03571             -22.00    12400.00
03572             -16.00    12400.00
03573             -16.00    12400.00
03574             -18.00    12400.00
03575             -26.00    12400.00
03576             -28.00    12400.00
03577             -20.00    12400.00
03578             -16.00    12200.00
03579             -18.00    12200.00
03580             -24.00    12000.00
03581             -26.00    12200.00
03582             -26.00    12000.00
03583             -16.00    12000.00
03584             -10.00    12000.00
03585             -16.00    11800.00
03586             -26.00    12000.00
03587             -30.00    11800.00
03588             -26.00    11600.00
03589             -18.00    11600.00
03590             -16.00    11400.00
03591             -14.00    11400.00
03592             -16.00    11400.00
03593             -24.00    11200.00
03594             -26.00    11200.00
03595             -24.00    11000.00
03596             -24.00    11200.00
03597             -22.00    10800.00
03598             -18.00    10600.00
03599             -16.00    10600.00
03600             -16.00    10400.00
03601             -16.00    10400.00
03602             -26.00    10400.00
03603             -26.00    10200.00
03604             -22.00    10000.00
03605             -16.00    10000.00
03606             -10.00     9800.00
03607             -16.00     9600.00
03608             -24.00     9600.00
03609             -26.00     9400.00
03610             -24.00     9200.00
03611             -16.00     9200.00
03612             -12.00     9000.00
03613             -14.00     8800.00
03614             -18.00     8600.00
03615             -22.00     8400.00
03616             -24.00     8400.00
03617             -18.00     8200.00
03618             -16.00     8000.00
03619              -8.00     7800.00
03620             -10.00     8000.00
03621             -14.00     7600.00
03622             -20.00     7600.00
03623             -24.00     7400.00
03624             -18.00     7200.00
03625             -14.00     7000.00
03626             -10.00     6800.00
03627             -12.00     6800.00
03628             -16.00     6400.00
03629             -16.00     6200.00
03630             -14.00     6200.00
03631             -10.00     6000.00
03632             -10.00     5600.00
03633             -10.00     5600.00
03634             -10.00     5400.00
03635             -16.00     5200.00
03636             -16.00     5000.00
03637             -14.00     5000.00
03638             -10.00     4600.00
03639              -6.00     4400.00
03640              -4.00     4200.00
03641             -10.00     4200.00
03642             -12.00     4000.00
03643             -16.00     3600.00
03644              -8.00     3600.00
03645              -8.00     3200.00
03646              -2.00     3200.00
03647              -8.00     3000.00
03648             -10.00     2800.00
03649             -10.00     2400.00
03650             -10.00     2200.00
03651              -2.00     2200.00
03652              -6.00     1800.00
03653              -2.00     1800.00
03654              -8.00     1600.00
03655              -8.00     1200.00
03656              -6.00     1200.00
03657              -6.00     1000.00
03658              -8.00      600.00
03659              -2.00      800.00
03660              -2.00      200.00
03661               0.00      200.00
03662               6.00        0.00
03663              16.00     -400.00
03664              30.00     -400.00
03665               2.00     -600.00
03666             -16.00     -800.00
03667              -6.00    -1200.00
03668               8.00    -1000.00
03669              16.00    -1400.00
03670              90.00    -1600.00
03671             246.00    -2000.00
03672              66.00    -2400.00
03673            -254.00    -2400.00
03674            -254.00    -2400.00
03675              22.00    -2800.00
03676             102.00    -2400.00
03677             246.00    -2800.00
03678             158.00    -3400.00
03679            -254.00    -3200.00
03680              24.00    -3600.00
03681             162.00    -3800.00
03682             -48.00    -3600.00
03683              34.00    -4400.00
03684             -66.00    -4400.00
03685              96.00    -4400.00
03686              38.00    -4800.00
03687            -106.00    -4800.00
03688              -8.00    -5200.00
03689             -38.00    -5200.00
03690             122.00    -5600.00
03691              34.00    -5400.00
03692             -72.00    -5600.00
03693              -2.00    -6200.00
03694              -8.00    -5800.00
03695              74.00    -6400.00
03696              -2.00    -6400.00
03697             -16.00    -6600.00
03698               6.00    -7000.00
03699              16.00    -7000.00
03700              26.00    -7200.00
03701             -34.00    -7200.00
03702              26.00    -7600.00
03703              22.00    -7800.00
03704              10.00    -7800.00
03705              18.00    -8000.00
03706             -22.00    -8000.00
03707              22.00    -8400.00
03708              30.00    -8600.00
03709              -2.00    -8600.00
03710               0.00    -8800.00
03711              16.00    -8800.00
03712              16.00    -9200.00
03713              18.00    -9000.00
03714              14.00    -9200.00
03715               0.00    -9600.00
03716              12.00    -9600.00
03717              20.00    -9600.00
03718               6.00    -9600.00
03719              16.00   -10000.00
03720              16.00   -10000.00
03721               6.00   -10200.00
03722              14.00   -10200.00
03723               2.00   -10400.00
03724              14.00   -10400.00
03725              30.00   -10400.00
03726              18.00   -10600.00
03727               6.00   -10800.00
03728               8.00   -10800.00
03729               6.00   -11000.00
03730              12.00   -11000.00
03731              24.00   -11000.00
03732              16.00   -11200.00
03733              16.00   -11200.00
03734              14.00   -11400.00
03735               2.00   -11400.00
03736               8.00   -11600.00
03737              22.00   -11600.00
03738              18.00   -11600.00
03739              22.00   -11800.00
03740              16.00   -11800.00
03741               6.00   -11800.00
03742              10.00   -12000.00
03743              14.00   -11800.00
03744              12.00   -12000.00
03745              22.00   -12000.00
03746              22.00   -12000.00
03747              12.00   -12000.00
03748              14.00   -12000.00
03749               8.00   -12200.00
03750               8.00   -12000.00
03751              22.00   -12000.00
03752              22.00   -12200.00
03753              18.00   -12200.00
03754              16.00   -12200.00
03755               6.00   -12000.00
03756               8.00   -12200.00
03757              18.00   -12000.00
03758              22.00   -12000.00
03759              22.00   -12200.00
03760              18.00   -12200.00
03761              10.00   -12200.00
03762               6.00   -12000.00
03763              14.00   -12000.00
03764              18.00   -12000.00
03765              24.00   -12000.00
03766              22.00   -12000.00
03767              10.00   -12000.00
03768               8.00   -12000.00
03769              10.00   -12000.00
03770              16.00   -11800.00
03771              22.00   -11800.00
03772              20.00   -11800.00
03773              16.00   -11800.00
03774               8.00   -11600.00
03775              14.00   -11600.00
03776              16.00   -11600.00
03777              16.00   -11600.00
03778              18.00   -11600.00
03779              14.00   -11400.00
03780              22.00   -11400.00
03781              18.00   -11200.00
03782              10.00   -11200.00
03783               4.00   -11200.00
03784              10.00   -10800.00
03785              24.00   -11000.00
03786              30.00   -10800.00
03787              14.00   -10800.00
03788               0.00   -10400.00
03789               2.00   -10400.00
03790              16.00   -10200.00
03791              22.00   -10200.00
03792              18.00   -10000.00
03793               8.00    -9800.00
03794               4.00   -10000.00
03795               8.00    -9800.00
03796              12.00    -9600.00
03797               8.00    -9600.00
03798              10.00    -9400.00
03799              16.00    -9400.00
03800              22.00    -9200.00
03801              10.00    -9000.00
03802              -2.00    -9000.00
03803               0.00    -8800.00
03804              16.00    -8600.00
03805              18.00    -8600.00
03806              14.00    -8200.00
03807               6.00    -8200.00
03808               2.00    -8000.00
03809               8.00    -8000.00
03810              14.00    -7800.00
03811              10.00    -7400.00
03812              12.00    -7400.00
03813               8.00    -7200.00
03814               4.00    -7200.00
03815               2.00    -7000.00
03816               6.00    -6800.00
03817               8.00    -6800.00
03818              14.00    -6400.00
03819               8.00    -6200.00
03820               4.00    -6000.00
03821               6.00    -6000.00
03822               6.00    -5600.00
03823               6.00    -5400.00
03824               6.00    -5400.00
03825               8.00    -5200.00
03826               6.00    -4800.00
03827               4.00    -4800.00
03828               2.00    -4600.00
03829               2.00    -4400.00
03830               6.00    -4200.00
03831               4.00    -4000.00
03832               6.00    -3800.00
03833               6.00    -3600.00
03834               0.00    -3400.00
03835               0.00    -3200.00
03836               2.00    -3000.00
03837               2.00    -2800.00
03838               6.00    -2800.00
03839               2.00    -2400.00
03840               2.00    -2400.00
03841               0.00    -2000.00
03842              -2.00    -2000.00
03843              -2.00    -1600.00
03844               0.00    -1400.00
03845               2.00    -1400.00
03846               0.00    -1000.00
03847               2.00     -800.00
03848              -2.00     -800.00
03849               0.00     -600.00
03850              -2.00     -400.00
03851               0.00        0.00
03852               2.00        0.00
03853               2.00      200.00
03854               0.00      400.00
03855              22.00      800.00
03856              26.00      800.00
03857               2.00     1000.00
03858             -16.00     1200.00
03859              -6.00     1200.00
03860              14.00     1600.00
03861              54.00     1600.00
03862             246.00     2200.00
03863             182.00     2400.00
03864            -254.00     2400.00
03865            -254.00     2600.00
03866             -94.00     2600.00
03867             150.00     2800.00
03868             246.00     3400.00
03869              46.00     3400.00
03870            -254.00     3200.00
03871             190.00     4000.00
03872             102.00     3800.00
03873            -150.00     4200.00
03874             138.00     4400.00
03875            -134.00     4400.00
03876              92.00     4800.00
03877              66.00     4800.00
03878            -202.00     5200.00
03879               8.00     5400.00
03880              12.00     5400.00
03881              66.00     5600.00
03882             -22.00     5800.00
03883             -36.00     6000.00
03884             -34.00     6000.00
03885             -34.00     6400.00
03886              96.00     6800.00
03887             -90.00     6400.00
03888             -16.00     6800.00
03889              10.00     7000.00
03890             -26.00     7400.00
03891              16.00     7400.00
03892             -48.00     7400.00
03893             -16.00     7800.00
03894               8.00     7600.00
03895              16.00     8000.00
03896             -50.00     8200.00
03897             -14.00     8400.00
03898             -10.00     8400.00
03899             -16.00     8800.00
03900              -2.00     8800.00
03901             -26.00     9000.00
03902             -22.00     9000.00
03903             -12.00     9200.00
03904              -2.00     9400.00
03905             -30.00     9600.00
03906              -2.00     9800.00
03907             -32.00     9800.00
03908             -24.00    10000.00
03909              -6.00    10000.00
03910             -18.00    10200.00
03911              -8.00    10400.00
03912             -16.00    10400.00
03913             -32.00    10400.00
03914             -28.00    10600.00
03915              -2.00    10800.00
03916             -10.00    10800.00
03917             -14.00    10800.00
03918             -22.00    11200.00
03919             -32.00    11200.00
03920             -22.00    11200.00
03921             -10.00    11400.00
03922             -18.00    11400.00
03923             -16.00    11400.00
03924             -16.00    11800.00
03925             -26.00    11800.00
03926             -20.00    12000.00
03927             -24.00    11800.00
03928             -24.00    11800.00
03929             -14.00    12000.00
03930             -16.00    12000.00
03931             -22.00    12000.00
03932             -22.00    12000.00
03933             -26.00    12200.00
03934             -30.00    12200.00
03935             -18.00    12400.00
03936             -16.00    12400.00
03937             -16.00    12400.00
03938             -18.00    12400.00
03939             -32.00    12400.00
03940             -30.00    12400.00
03941             -22.00    12400.00
03942             -18.00    12400.00
03943             -16.00    12400.00
03944             -16.00    12600.00
03945             -26.00    12400.00
03946             -30.00    12400.00
03947             -26.00    12400.00
03948             -26.00    12400.00
03949             -16.00    12800.00
03950             -16.00    12400.00
03951             -24.00    12600.00
03952             -26.00    12600.00
03953             -28.00    12400.00
03954             -24.00    12400.00
03955             -16.00    12400.00
03956             -16.00    12400.00
03957             -18.00    12400.00
03958             -24.00    12400.00
03959             -30.00    12400.00
03960             -26.00    12200.00
03961             -22.00    12400.00
03962             -16.00    12200.00
03963             -16.00    12200.00
03964             -20.00    12200.00
03965             -26.00    12200.00
03966             -24.00    12200.00
03967             -26.00    12000.00
03968             -22.00    12000.00
03969             -16.00    11600.00
03970             -18.00    11800.00
03971             -22.00    11600.00
03972             -22.00    11800.00
03973             -24.00    11600.00
03974             -24.00    11800.00
03975             -16.00    11400.00
03976             -16.00    11400.00
03977             -18.00    11200.00
03978             -18.00    11000.00
03979             -22.00    10800.00
03980             -24.00    10800.00
03981             -22.00    10800.00
03982             -18.00    10600.00
03983             -16.00    10600.00
03984             -16.00    10400.00
03985             -16.00    10400.00
03986             -22.00    10200.00
03987             -26.00    10000.00
03988             -24.00    10000.00
03989             -18.00     9800.00
03990             -10.00     9800.00
03991             -14.00     9600.00
03992             -18.00     9400.00
03993             -26.00     9200.00
03994             -24.00     9200.00
03995             -18.00     9200.00
03996             -14.00     8800.00
03997             -14.00     8800.00
03998             -16.00     8800.00
03999             -22.00     8400.00
04000             -18.00     8400.00
04001             -16.00     8000.00
04002             -14.00     8000.00
04003             -16.00     8000.00
04004             -18.00     7600.00
04005             -14.00     7600.00
04006             -14.00     7400.00
04007             -16.00     7200.00
04008             -18.00     7000.00
04009             -16.00     6800.00
04010             -16.00     6600.00
04011             -10.00     6600.00
04012             -16.00     6400.00
04013             -14.00     6200.00
04014             -16.00     6000.00
04015             -14.00     6000.00
04016             -12.00     5600.00
04017              -8.00     5400.00
04018             -10.00     5400.00
04019             -14.00     5000.00
04020             -14.00     5000.00
04021             -12.00     4800.00
04022              -8.00     4600.00
04023              -6.00     4400.00
04024              -8.00     4200.00
04025             -14.00     4000.00
04026             -14.00     3600.00
04027             -10.00     3400.00
04028              -8.00     3400.00
04029              -6.00     3200.00
04030              -2.00     2800.00
04031              -6.00     2800.00
04032             -10.00     2600.00
04033             -14.00     2400.00
04034              -8.00     2200.00
04035              -2.00     2000.00
04036               0.00     2000.00
04037              -2.00     1600.00
04038              -8.00     1200.00
04039             -10.00     1200.00
04040              -8.00     1000.00
04041              -2.00      800.00
04042              -2.00      600.00
04043               0.00      400.00
04044              -2.00      400.00
04045               0.00        0.00
04046               8.00        0.00
04047              28.00     -400.00
04048              16.00     -600.00
04049             -10.00     -800.00
04050             -10.00     -800.00
04051               8.00    -1000.00
04052              16.00    -1200.00
04053              38.00    -1400.00
04054             168.00    -1600.00
04055             246.00    -2000.00
04056            -168.00    -2400.00
04057            -254.00    -2600.00
04058            -154.00    -2600.00
04059              94.00    -2800.00
04060             146.00    -2800.00
04061             246.00    -3000.00
04062            -152.00    -3200.00
04063            -250.00    -3200.00
04064             200.00    -3800.00
04065              18.00    -3600.00
04066               6.00    -4000.00
04067             -22.00    -4400.00
04068             -18.00    -4200.00
04069             134.00    -4800.00
04070             -74.00    -4800.00
04071             -50.00    -5200.00
04072             -24.00    -5200.00
04073              24.00    -5200.00
04074             126.00    -5600.00
04075             -62.00    -5400.00
04076             -32.00    -6200.00
04077              -6.00    -6000.00
04078              36.00    -6200.00
04079              54.00    -6800.00
04080             -36.00    -6400.00
04081              10.00    -7000.00
04082               0.00    -6800.00
04083              40.00    -7000.00
04084             -10.00    -7200.00
04085             -16.00    -7400.00
04086              40.00    -7600.00
04087               6.00    -7800.00
04088              24.00    -7800.00
04089              -6.00    -8000.00
04090              -8.00    -8000.00
04091              34.00    -8400.00
04092              14.00    -8400.00
04093              -8.00    -8800.00
04094               8.00    -8600.00
04095              20.00    -9000.00
04096              16.00    -9200.00
04097              18.00    -9200.00
04098               6.00    -9400.00
04099               2.00    -9400.00
04100              22.00    -9600.00
04101              10.00    -9600.00
04102               6.00    -9800.00
04103              22.00   -10000.00
04104              10.00   -10000.00
04105              10.00   -10200.00
04106              10.00   -10400.00
04107               4.00   -10400.00
04108              24.00   -10400.00
04109              30.00   -10800.00
04110              12.00   -10800.00
04111               8.00   -10800.00
04112              10.00   -10800.00
04113               8.00   -11200.00
04114              22.00   -11000.00
04115              24.00   -11200.00
04116              14.00   -11200.00
04117              16.00   -11400.00
04118              10.00   -11600.00
04119               6.00   -11600.00
04120              16.00   -11600.00
04121              16.00   -11600.00
04122              18.00   -11600.00
04123              18.00   -11600.00
04124               8.00   -11800.00
04125               8.00   -11800.00
04126              14.00   -12000.00
04127              14.00   -11800.00
04128              18.00   -12000.00
04129              22.00   -11800.00
04130              16.00   -12000.00
04131              10.00   -12000.00
04132              10.00   -12000.00
04133               8.00   -12000.00
04134              16.00   -12000.00
04135              22.00   -12200.00
04136              18.00   -12000.00
04137              14.00   -12000.00
04138              10.00   -12000.00
04139               8.00   -12400.00
04140              18.00   -12200.00
04141              20.00   -12000.00
04142              18.00   -12000.00
04143              18.00   -12200.00
04144              16.00   -12000.00
04145              10.00   -12200.00
04146              12.00   -12000.00
04147              14.00   -12000.00
04148              18.00   -12000.00
04149              22.00   -12000.00
04150              18.00   -12000.00
04151              14.00   -11800.00
04152              10.00   -11800.00
04153               8.00   -11800.00
04154              16.00   -11800.00
04155              22.00   -11800.00
04156              22.00   -11800.00
04157              16.00   -11600.00
04158              10.00   -11600.00
04159               8.00   -11600.00
04160              14.00   -11600.00
04161              20.00   -11400.00
04162              22.00   -11200.00
04163              22.00   -11200.00
04164              14.00   -11200.00
04165              10.00   -11200.00
04166              14.00   -11000.00
04167              14.00   -11000.00
04168              16.00   -10800.00
04169              16.00   -10800.00
04170              18.00   -10800.00
04171              16.00   -10800.00
04172              14.00   -10400.00
04173              10.00   -10200.00
04174              14.00   -10400.00
04175              18.00   -10200.00
04176              18.00   -10200.00
04177              14.00   -10000.00
04178               8.00   -10000.00
04179               6.00    -9800.00
04180              12.00    -9400.00
04181              16.00    -9400.00
04182              18.00    -9400.00
04183              14.00    -9200.00
04184               8.00    -9200.00
04185               6.00    -9200.00
04186               8.00    -8800.00
04187              14.00    -8800.00
04188              14.00    -8600.00
04189              10.00    -8400.00
04190              10.00    -8200.00
04191               6.00    -8000.00
04192               6.00    -8000.00
04193               8.00    -7800.00
04194              14.00    -7400.00
04195              14.00    -7400.00
04196               8.00    -7400.00
04197               2.00    -7000.00
04198               2.00    -7000.00
04199               6.00    -6800.00
04200              10.00    -6800.00
04201              14.00    -6600.00
04202              10.00    -6200.00
04203               6.00    -6200.00
04204               2.00    -6000.00
04205               2.00    -5800.00
04206               6.00    -5600.00
04207               8.00    -5600.00
04208               8.00    -5200.00
04209               8.00    -5200.00
04210               6.00    -4800.00
04211               2.00    -4800.00
04212               0.00    -4600.00
04213               2.00    -4400.00
04214               6.00    -4000.00
04215              10.00    -4000.00
04216               6.00    -3800.00
04217               4.00    -3600.00
04218              -2.00    -3400.00
04219              -2.00    -3200.00
04220               0.00    -3000.00
04221               6.00    -2800.00
04222               6.00    -2400.00
04223               6.00    -2400.00
04224               0.00    -2200.00
04225              -2.00    -2000.00
04226               0.00    -2000.00
04227               0.00    -1600.00
04228               2.00    -1400.00
04229               0.00    -1200.00
04230               2.00    -1000.00
04231               0.00     -800.00
04232              -2.00     -600.00
04233              -6.00     -400.00
04234              -2.00        0.00
04235               0.00        0.00
04236               4.00      200.00
04237               6.00      400.00
04238               8.00      600.00
04239              30.00      800.00
04240              16.00     1000.00
04241              -8.00     1200.00
04242             -12.00     1200.00
04243               2.00     1600.00
04244              20.00     1600.00
04245             136.00     2000.00
04246             246.00     2400.00
04247             -78.00     2400.00
04248            -254.00     2600.00
04249            -254.00     2800.00
04250              14.00     2800.00
04251             246.00     3200.00
04252             246.00     3600.00
04253            -254.00     3200.00
04254            -240.00     3600.00
04255             246.00     4000.00
04256            -150.00     4000.00
04257              38.00     4400.00
04258              26.00     4400.00
04259            -102.00     4400.00
04260             186.00     4800.00
04261            -130.00     5000.00
04262            -110.00     5400.00
04263              38.00     5400.00
04264              26.00     5800.00
04265              52.00     5600.00
04266             -66.00     5800.00
04267              -6.00     6400.00
04268             -74.00     6000.00
04269              58.00     6600.00
04270              22.00     6600.00
04271             -96.00     6800.00
04272              38.00     7000.00
04273             -34.00     7200.00
04274               8.00     7400.00
04275             -22.00     7400.00
04276             -46.00     7600.00
04277               0.00     7800.00
04278              24.00     8000.00
04279             -18.00     8200.00
04280             -50.00     8200.00
04281               2.00     8600.00
04282             -22.00     8600.00
04283               2.00     9000.00
04284             -16.00     9000.00
04285             -30.00     9000.00
04286             -26.00     9200.00
04287               6.00     9400.00
04288             -14.00     9400.00
04289             -16.00     9600.00
04290             -10.00     9800.00
04291             -42.00     9800.00
04292              -8.00    10000.00
04293             -12.00    10000.00
04294             -10.00    10200.00
04295             -10.00    10400.00
04296             -24.00    10400.00
04297             -40.00    10600.00
04298             -14.00    10800.00
04299              -2.00    10800.00
04300             -14.00    10800.00
04301             -14.00    11000.00
04302             -32.00    11200.00
04303             -32.00    11200.00
04304             -16.00    11200.00
04305             -12.00    11400.00
04306             -16.00    11400.00
04307             -10.00    11600.00
04308             -24.00    11800.00
04309             -22.00    11800.00
04310             -18.00    12000.00
04311             -24.00    11800.00
04312             -16.00    12000.00
04313             -12.00    12000.00
04314             -20.00    12000.00
04315             -22.00    12000.00
04316             -24.00    12200.00
04317             -28.00    12000.00
04318             -22.00    12200.00
04319             -16.00    12200.00
04320             -18.00    12400.00
04321             -16.00    12400.00
04322             -26.00    12400.00
04323             -28.00    12400.00
04324             -22.00    12400.00
04325             -24.00    12600.00
04326             -18.00    12400.00
04327             -16.00    12400.00
04328             -22.00    12600.00
04329             -26.00    12400.00
04330             -26.00    12800.00
04331             -26.00    12400.00
04332             -22.00    12400.00
04333             -16.00    12400.00
04334             -20.00    12800.00
04335             -22.00    12600.00
04336             -26.00    12400.00
04337             -28.00    12400.00
04338             -24.00    12400.00
04339             -16.00    12400.00
04340             -18.00    12400.00
04341             -20.00    12400.00
04342             -26.00    12200.00
04343             -30.00    12400.00
04344             -24.00    12200.00
04345             -18.00    12200.00
04346             -16.00    12200.00
04347             -18.00    12200.00
04348             -26.00    12000.00
04349             -26.00    12200.00
04350             -26.00    12200.00
04351             -22.00    12000.00
04352             -18.00    11800.00
04353             -16.00    12000.00
04354             -18.00    11800.00
04355             -20.00    11600.00
04356             -24.00    11800.00
04357             -24.00    11600.00
04358             -24.00    11400.00
04359             -16.00    11400.00
04360             -14.00    11200.00
04361             -16.00    11200.00
04362             -22.00    11000.00
04363             -24.00    11000.00
04364             -24.00    10800.00
04365             -18.00    10600.00
04366             -14.00    10600.00
04367             -12.00    10400.00
04368             -16.00    10400.00
04369             -24.00    10400.00
04370             -24.00    10200.00
04371             -22.00    10000.00
04372             -18.00     9800.00
04373             -14.00     9600.00
04374             -12.00     9600.00
04375             -18.00     9600.00
04376             -22.00     9600.00
04377             -22.00     9400.00
04378             -18.00     9000.00
04379             -10.00     9000.00
04380             -10.00     9000.00
04381             -16.00     8600.00
04382             -24.00     8600.00
04383             -24.00     8400.00
04384             -18.00     8200.00
04385             -14.00     8200.00
04386             -10.00     8000.00
04387             -14.00     7800.00
04388             -16.00     7600.00
04389             -18.00     7600.00
04390             -16.00     7200.00
04391             -20.00     7200.00
04392             -14.00     7000.00
04393             -12.00     6800.00
04394             -14.00     6600.00
04395             -16.00     6400.00
04396             -16.00     6400.00
04397             -14.00     6000.00
04398             -14.00     5800.00
04399             -10.00     5600.00
04400             -10.00     5600.00
04401             -14.00     5400.00
04402             -14.00     5200.00
04403             -16.00     5000.00
04404             -16.00     4800.00
04405             -14.00     4800.00
04406              -8.00     4400.00
04407             -10.00     4200.00
04408             -10.00     4000.00
04409             -10.00     3800.00
04410             -12.00     3600.00
04411             -14.00     3400.00
04412              -8.00     3200.00
04413              -8.00     3200.00
04414              -4.00     2800.00
04415              -8.00     2600.00
04416             -12.00     2600.00
04417             -10.00     2400.00
04418             -10.00     2000.00
04419              -8.00     2000.00
04420               0.00     1800.00
04421              -4.00     1600.00
04422              -6.00     1400.00
04423              -8.00     1200.00
04424             -10.00     1000.00
04425              -4.00      800.00
04426               0.00      400.00
04427               0.00      200.00
04428               0.00        0.00
04429               0.00        0.00
04430              14.00     -400.00
04431              30.00     -400.00
04432               6.00     -600.00
04433             -14.00     -800.00
04434              -6.00     -800.00
04435              10.00    -1000.00
04436              18.00    -1400.00
04437              82.00    -1400.00
04438             246.00    -1800.00
04439              88.00    -2200.00
04440            -254.00    -2400.00
04441            -254.00    -2600.00
04442              12.00    -2800.00
04443             102.00    -2600.00
04444             246.00    -2800.00
04445             186.00    -3200.00
04446            -254.00    -3200.00
04447               0.00    -3600.00
04448             174.00    -4000.00
04449             -50.00    -3600.00
04450              34.00    -4400.00
04451             -66.00    -4400.00
04452              88.00    -4400.00
04453              54.00    -4800.00
04454            -108.00    -4800.00
04455             -10.00    -5200.00
04456             -38.00    -5200.00
04457             114.00    -5600.00
04458              48.00    -5600.00
04459             -80.00    -5600.00
04460              -2.00    -6200.00
04461              -6.00    -6000.00
04462              72.00    -6400.00
04463               0.00    -6400.00
04464             -16.00    -6400.00
04465               8.00    -7000.00
04466              14.00    -6800.00
04467              28.00    -7200.00
04468             -40.00    -7200.00
04469              22.00    -7600.00
04470              24.00    -7800.00
04471               6.00    -7800.00
04472              20.00    -8000.00
04473             -22.00    -8000.00
04474              16.00    -8400.00
04475              30.00    -8400.00
04476               0.00    -8600.00
04477              -2.00    -8800.00
04478              16.00    -8800.00
04479              16.00    -9200.00
04480              14.00    -9200.00
04481              12.00    -9200.00
04482               2.00    -9400.00
04483              10.00    -9400.00
04484              22.00    -9600.00
04485               6.00    -9600.00
04486              16.00   -10000.00
04487              18.00   -10000.00
04488               0.00   -10000.00
04489              10.00   -10200.00
04490               8.00   -10400.00
04491              16.00   -10400.00
04492              32.00   -10400.00
04493              16.00   -10600.00
04494               0.00   -10800.00
04495               8.00   -10800.00
04496              14.00   -10800.00
04497              18.00   -11000.00
04498              24.00   -11000.00
04499              16.00   -11200.00
04500              16.00   -11200.00
04501              16.00   -11200.00
04502               6.00   -11200.00
04503               8.00   -11400.00
04504              22.00   -11600.00
04505              24.00   -11600.00
04506              26.00   -11600.00
04507              14.00   -11600.00
04508              -2.00   -11800.00
04509              10.00   -11800.00
04510              22.00   -11800.00
04511              22.00   -12000.00
04512              22.00   -12000.00
04513              22.00   -11800.00
04514               8.00   -12000.00
04515               8.00   -12200.00
04516              14.00   -12000.00
04517              16.00   -12000.00
04518              22.00   -12000.00
04519              22.00   -12000.00
04520              18.00   -12200.00
04521              10.00   -12200.00
04522               6.00   -12000.00
04523              16.00   -12000.00
04524              24.00   -12200.00
04525              18.00   -12000.00
04526               8.00   -12000.00
04527              10.00   -12000.00
04528              18.00   -12000.00
04529              22.00   -12200.00
04530              18.00   -12000.00
04531              10.00   -12000.00
04532              10.00   -12000.00
04533              14.00   -12000.00
04534              16.00   -12000.00
04535              22.00   -11800.00
04536              16.00   -12000.00
04537               8.00   -11800.00
04538               0.00   -11800.00
04539              14.00   -11800.00
04540              32.00   -11600.00
04541              38.00   -11600.00
04542              18.00   -11600.00
04543              -8.00   -11600.00
04544              -8.00   -11400.00
04545              16.00   -11400.00
04546              32.00   -11200.00
04547              30.00   -11200.00
04548              14.00   -11200.00
04549               4.00   -11200.00
04550               8.00   -11000.00
04551              18.00   -10800.00
04552              18.00   -10800.00
04553              16.00   -10800.00
04554              10.00   -10800.00
04555              14.00   -10400.00
04556              14.00   -10400.00
04557              14.00   -10200.00
04558              16.00   -10200.00
04559              18.00   -10000.00
04560              16.00    -9800.00
04561              14.00    -9800.00
04562               8.00    -9800.00
04563               6.00    -9600.00
04564               8.00    -9600.00
04565              16.00    -9400.00
04566              18.00    -9200.00
04567              16.00    -9200.00
04568               8.00    -9000.00
04569               2.00    -8800.00
04570              10.00    -8800.00
04571              18.00    -8600.00
04572              16.00    -8400.00
04573               8.00    -8400.00
04574               2.00    -8200.00
04575               6.00    -8000.00
04576              16.00    -7800.00
04577              16.00    -7800.00
04578              10.00    -7400.00
04579               2.00    -7400.00
04580               2.00    -7200.00
04581               8.00    -7000.00
04582              10.00    -7000.00
04583               8.00    -6800.00
04584               6.00    -6400.00
04585               6.00    -6400.00
04586               8.00    -6200.00
04587               6.00    -6200.00
04588               2.00    -5800.00
04589               2.00    -5600.00
04590               6.00    -5600.00
04591               8.00    -5400.00
04592               8.00    -5200.00
04593               6.00    -4800.00
04594               4.00    -4800.00
04595               0.00    -4800.00
04596               2.00    -4400.00
04597               6.00    -4000.00
04598               6.00    -4000.00
04599               2.00    -3800.00
04600               2.00    -3600.00
04601               0.00    -3600.00
04602               2.00    -3200.00
04603               0.00    -3000.00
04604               2.00    -2800.00
04605               2.00    -2600.00
04606               6.00    -2600.00
04607               4.00    -2400.00
04608               0.00    -2200.00
04609              -6.00    -2000.00
04610              -2.00    -1600.00
04611               0.00    -1600.00
04612               2.00    -1200.00
04613               0.00    -1000.00
04614              -2.00     -800.00
04615              -2.00     -800.00
04616              -2.00     -400.00
04617               0.00     -200.00
04618               0.00        0.00
04619               2.00        0.00
04620               2.00      400.00
04621               2.00      400.00
04622              22.00      800.00
04623              30.00      800.00
04624               2.00     1000.00
04625             -16.00     1200.00
04626              -8.00     1600.00
04627              10.00     1600.00
04628              50.00     1600.00
04629             246.00     2000.00
04630             204.00     2400.00
04631            -254.00     2400.00
04632            -254.00     2800.00
04633            -106.00     2800.00
04634             136.00     3000.00
04635             246.00     3400.00
04636              96.00     3400.00
04637            -254.00     3400.00
04638             162.00     4000.00
04639             138.00     4000.00
04640            -164.00     4200.00
04641             138.00     4400.00
04642            -120.00     4400.00
04643              72.00     4600.00
04644              82.00     4800.00
04645            -208.00     5000.00
04646               6.00     5400.00
04647              22.00     5600.00
04648              64.00     5800.00
04649             -18.00     5600.00
04650             -42.00     6400.00
04651             -30.00     6200.00
04652             -40.00     6400.00
04653             100.00     6800.00
04654             -88.00     6600.00
04655             -28.00     6800.00
04656              20.00     7000.00
04657             -24.00     7200.00
04658              16.00     7400.00
04659             -56.00     7600.00
04660             -24.00     7600.00
04661              10.00     7800.00
04662              16.00     8200.00
04663             -48.00     8000.00
04664             -18.00     8400.00
04665             -10.00     8600.00
04666             -20.00     8800.00
04667               0.00     8800.00
04668             -26.00     9000.00
04669             -24.00     9200.00
04670             -10.00     9000.00
04671               6.00     9400.00
04672             -30.00     9600.00
04673              -8.00     9800.00
04674             -32.00     9800.00
04675             -24.00     9800.00
04676              -2.00    10000.00
04677             -16.00    10000.00
04678             -10.00    10400.00
04679             -16.00    10600.00
04680             -32.00    10600.00
04681             -34.00    10400.00
04682               0.00    10800.00
04683              -8.00    10800.00
04684             -10.00    10800.00
04685             -18.00    11000.00
04686             -40.00    11200.00
04687             -30.00    11200.00
04688             -10.00    11200.00
04689             -10.00    11400.00
04690              -8.00    11600.00
04691             -14.00    11800.00
04692             -28.00    11800.00
04693             -22.00    11800.00
04694             -24.00    11800.00
04695             -22.00    11800.00
04696             -10.00    12000.00
04697             -14.00    12000.00
04698             -24.00    12000.00
04699             -22.00    12200.00
04700             -24.00    12200.00
04701             -24.00    12200.00
04702             -16.00    12400.00
04703             -16.00    12200.00
04704             -16.00    12200.00
04705             -16.00    12400.00
04706             -26.00    12400.00
04707             -28.00    12400.00
04708             -22.00    12400.00
04709             -22.00    12400.00
04710             -16.00    12400.00
04711             -16.00    12400.00
04712             -24.00    12800.00
04713             -26.00    12600.00
04714             -26.00    12600.00
04715             -24.00    12400.00
04716             -18.00    12400.00
04717             -16.00    12600.00
04718             -22.00    12400.00
04719             -24.00    12400.00
04720             -26.00    12600.00
04721             -30.00    12600.00
04722             -20.00    12400.00
04723             -16.00    12400.00
04724             -16.00    12400.00
04725             -18.00    12400.00
04726             -26.00    12400.00
04727             -32.00    12400.00
04728             -24.00    12200.00
04729             -18.00    12200.00
04730             -16.00    12200.00
04731             -18.00    12200.00
04732             -26.00    12200.00
04733             -26.00    12000.00
04734             -24.00    12000.00
04735             -18.00    12000.00
04736             -16.00    12000.00
04737             -16.00    11800.00
04738             -24.00    11800.00
04739             -26.00    11600.00
04740             -26.00    11800.00
04741             -24.00    11600.00
04742             -18.00    11400.00
04743             -16.00    11400.00
04744             -16.00    11200.00
04745             -20.00    11200.00
04746             -22.00    11000.00
04747             -22.00    10800.00
04748             -20.00    10800.00
04749             -18.00    10600.00
04750             -16.00    10600.00
04751             -16.00    10400.00
04752             -22.00    10400.00
04753             -24.00    10200.00
04754             -24.00    10200.00
04755             -16.00    10000.00
04756             -14.00     9800.00
04757             -14.00     9600.00
04758             -16.00     9600.00
04759             -22.00     9400.00
04760             -22.00     9200.00
04761             -18.00     9200.00
04762             -16.00     9200.00
04763             -14.00     9000.00
04764             -14.00     8800.00
04765             -16.00     8600.00
04766             -18.00     8600.00
04767             -18.00     8400.00
04768             -16.00     8200.00
04769             -12.00     8000.00
04770             -10.00     8000.00
04771             -14.00     7800.00
04772             -16.00     7600.00
04773             -18.00     7200.00
04774             -18.00     7200.00
04775             -16.00     7200.00
04776             -14.00     6800.00
04777             -14.00     6600.00
04778             -14.00     6600.00
04779             -16.00     6400.00
04780             -14.00     6200.00
04781             -16.00     6000.00
04782             -16.00     5800.00
04783             -12.00     5600.00
04784              -8.00     5600.00
04785             -14.00     5200.00
04786             -14.00     5200.00
04787             -16.00     5000.00
04788             -16.00     4800.00
04789             -10.00     4600.00
04790              -8.00     4400.00
04791              -8.00     4000.00
04792             -10.00     4000.00
04793             -14.00     3600.00
04794             -10.00     3600.00
04795             -10.00     3400.00
04796              -8.00     3200.00
04797              -8.00     3200.00
04798              -8.00     2800.00
04799             -10.00     2600.00
04800             -10.00     2600.00
04801              -8.00     2400.00
04802              -8.00     2000.00
04803              -6.00     1800.00
04804              -6.00     1600.00
04805              -6.00     1400.00
04806              -6.00     1200.00
04807             -10.00     1000.00
04808             -10.00      800.00
04809              -2.00      600.00
04810               0.00      400.00
04811               0.00      400.00
04812               0.00        0.00
04813               4.00        0.00
04814              24.00     -400.00
04815              22.00     -400.00
04816              -8.00     -600.00
04817             -14.00     -800.00
04818               0.00     -800.00
04819              16.00    -1200.00
04820              34.00    -1400.00
04821             162.00    -1600.00
04822             246.00    -2000.00
04823            -144.00    -2400.00
04824            -254.00    -2400.00
04825            -174.00    -2600.00
04826              88.00    -2800.00
04827             138.00    -2400.00
04828             246.00    -3200.00
04829            -118.00    -3400.00
04830            -254.00    -3200.00
04831             192.00    -4000.00
04832              30.00    -3600.00
04833              -2.00    -3800.00
04834             -14.00    -4400.00
04835             -26.00    -4200.00
04836             136.00    -4800.00
04837             -66.00    -4800.00
04838             -62.00    -5000.00
04839             -22.00    -5200.00
04840              16.00    -5200.00
04841             134.00    -5600.00
04842             -54.00    -5400.00
04843             -40.00    -6000.00
04844             -10.00    -6000.00
04845              30.00    -6200.00
04846              62.00    -6600.00
04847             -34.00    -6200.00
04848               8.00    -6800.00
04849              -2.00    -7000.00
04850              34.00    -7000.00
04851              -8.00    -7200.00
04852             -22.00    -7200.00
04853              42.00    -7800.00
04854               2.00    -7400.00
04855              22.00    -8000.00
04856              -2.00    -7800.00
04857             -10.00    -8400.00
04858              32.00    -8400.00
04859              14.00    -8400.00
04860             -10.00    -8800.00
04861               6.00    -8800.00
04862              18.00    -8800.00
04863              16.00    -9200.00
04864              22.00    -9200.00
04865              10.00    -9400.00
04866               0.00    -9400.00
04867              22.00    -9600.00
04868              10.00    -9600.00
04869              10.00    -9800.00
04870              22.00   -10000.00
04871               6.00   -10000.00
04872               8.00   -10200.00
04873              12.00   -10200.00
04874               2.00   -10400.00
04875              22.00   -10400.00
04876              30.00   -10600.00
04877              12.00   -10600.00
04878               6.00   -10800.00
04879              12.00   -11000.00
04880               8.00   -11000.00
04881              22.00   -11000.00
04882              22.00   -11000.00
04883              14.00   -11200.00
04884              18.00   -11200.00
04885              14.00   -11200.00
04886               6.00   -11400.00
04887              18.00   -11400.00
04888              22.00   -11600.00
04889              18.00   -11600.00
04890              20.00   -11800.00
04891               8.00   -11600.00
04892              10.00   -11800.00
04893              16.00   -11800.00
04894              16.00   -12000.00
04895              18.00   -12000.00
04896              24.00   -12000.00
04897              16.00   -11800.00
04898              10.00   -12000.00
04899              16.00   -12200.00
04900              10.00   -12000.00
04901              18.00   -12000.00
04902              22.00   -12000.00
04903              18.00   -12000.00
04904              16.00   -12000.00
04905              10.00   -12000.00
04906               8.00   -12200.00
04907              16.00   -12000.00
04908              18.00   -12000.00
04909              16.00   -12000.00
04910              18.00   -12000.00
04911              16.00   -12000.00
04912              12.00   -12000.00
04913               8.00   -12200.00
04914              16.00   -12000.00
04915              20.00   -12000.00
04916              20.00   -12000.00
04917              16.00   -12000.00
04918               8.00   -12000.00
04919               8.00   -12000.00
04920              16.00   -12000.00
04921              20.00   -11800.00
04922              16.00   -11800.00
04923              14.00   -11800.00
04924              10.00   -11600.00
04925              18.00   -11600.00
04926              16.00   -11600.00
04927               8.00   -11600.00
04928              12.00   -11400.00
04929              22.00   -11200.00
04930              18.00   -11200.00
04931              16.00   -11200.00
04932               8.00   -11200.00
04933              10.00   -11000.00
04934              14.00   -11200.00
04935              14.00   -11000.00
04936              16.00   -10800.00
04937              16.00   -10800.00
04938              10.00   -10800.00
04939              10.00   -10400.00
04940              10.00   -10400.00
04941              10.00   -10200.00
04942              16.00   -10200.00
04943              18.00   -10000.00
04944              18.00   -10000.00
04945               6.00    -9800.00
04946               6.00    -9600.00
04947              10.00    -9600.00
04948              18.00    -9400.00
04949              18.00    -9400.00
04950              14.00    -9200.00
04951               8.00    -9200.00
04952               4.00    -8800.00
04953               8.00    -8800.00
04954              14.00    -8800.00
04955              16.00    -8600.00
04956              16.00    -8400.00
04957               8.00    -8200.00
04958               6.00    -8000.00
04959              10.00    -8000.00
04960              10.00    -7800.00
04961              12.00    -7600.00
04962              10.00    -7400.00
04963               8.00    -7400.00
04964               8.00    -7200.00
04965              10.00    -7000.00
04966               6.00    -6800.00
04967               6.00    -6800.00
04968               8.00    -6400.00
04969              10.00    -6400.00
04970              10.00    -6200.00
04971               4.00    -6000.00
04972               0.00    -5800.00
04973               4.00    -5600.00
04974               6.00    -5400.00
04975               8.00    -5400.00
04976               6.00    -5000.00
04977               6.00    -4800.00
04978               2.00    -4800.00
04979               2.00    -4600.00
04980               0.00    -4400.00
04981               0.00    -4200.00
04982               8.00    -3800.00
04983               6.00    -3600.00
04984               0.00    -3600.00
04985               0.00    -3400.00
04986               2.00    -3200.00
04987               0.00    -3000.00
04988              -6.00    -2800.00
04989               2.00    -2400.00
04990               8.00    -2400.00
04991               6.00    -2400.00
04992              -6.00    -2200.00
04993             -10.00    -1800.00
04994              -2.00    -1400.00
04995               2.00    -1400.00
04996              12.00    -1000.00
04997               8.00    -1000.00
04998             -10.00     -800.00
04999             -18.00     -600.00
05000              -6.00     -400.00
