Unit:(mV)
                     CH1         CH2
Frequency              ? 260.737 kHz
00001               0.00    -3000.00
00002               6.00    -2800.00
00003               6.00    -2400.00
00004              -2.00    -2200.00
00005              -2.00    -2200.00
00006              -2.00    -2000.00
00007               0.00    -1800.00
00008               0.00    -1600.00
00009              -2.00    -1400.00
00010               0.00    -1000.00
00011               2.00     -800.00
00012              -2.00     -800.00
00013              -6.00     -600.00
00014              -2.00     -400.00
00015               0.00        0.00
00016               0.00        0.00
00017               2.00      200.00
00018               0.00      400.00
00019              16.00      600.00
00020              26.00      800.00
00021               0.00     1000.00
00022             -12.00     1200.00
00023              -6.00     1200.00
00024               8.00     1600.00
00025              36.00     1800.00
00026             214.00     2000.00
00027             242.00     2400.00
00028            -254.00     2400.00
00029            -254.00     2400.00
00030            -142.00     2800.00
00031              50.00     2800.00
00032             246.00     3200.00
00033             246.00     3400.00
00034            -254.00     3200.00
00035              64.00     3600.00
00036             196.00     4000.00
00037            -218.00     4000.00
00038             144.00     4400.00
00039             -54.00     4400.00
00040              -6.00     4400.00
00041             118.00     5000.00
00042            -192.00     5000.00
00043             -22.00     5400.00
00044              34.00     5400.00
00045              42.00     5600.00
00046             -16.00     5600.00
00047             -44.00     6000.00
00048               6.00     6000.00
00049             -70.00     6400.00
00050              86.00     6600.00
00051             -50.00     6600.00
00052             -58.00     6800.00
00053              40.00     7000.00
00054             -34.00     7200.00
00055               6.00     7200.00
00056             -40.00     7600.00
00057             -18.00     7600.00
00058               6.00     7800.00
00059              18.00     8000.00
00060             -38.00     8000.00
00061             -32.00     8200.00
00062               2.00     8400.00
00063             -26.00     8400.00
00064              -8.00     8800.00
00065             -20.00     9000.00
00066             -26.00     9000.00
00067             -22.00     9200.00
00068               6.00     9400.00
00069             -26.00     9400.00
00070              -8.00     9600.00
00071             -18.00     9800.00
00072             -32.00     9800.00
00073              -6.00    10000.00
00074             -16.00    10000.00
00075             -14.00    10200.00
00076             -16.00    10400.00
00077             -24.00    10400.00
00078             -32.00    10400.00
00079              -8.00    10600.00
00080              -8.00    10800.00
00081             -14.00    10600.00
00082             -16.00    10800.00
00083             -32.00    11000.00
00084             -32.00    11200.00
00085             -14.00    11200.00
00086             -10.00    11200.00
00087             -16.00    11400.00
00088             -16.00    11400.00
00089             -26.00    11800.00
00090             -18.00    11600.00
00091             -18.00    11800.00
00092             -24.00    11800.00
00093             -18.00    11800.00
00094             -10.00    12000.00
00095             -22.00    12000.00
00096             -26.00    12200.00
00097             -22.00    12000.00
00098             -24.00    12000.00
00099             -18.00    12200.00
00100             -16.00    12200.00
00101             -18.00    12200.00
00102             -18.00    12200.00
00103             -26.00    12200.00
00104             -32.00    12200.00
00105             -26.00    12400.00
00106             -18.00    12400.00
00107             -16.00    12400.00
00108             -14.00    12400.00
00109             -26.00    12400.00
00110             -30.00    12400.00
00111             -26.00    12600.00
00112             -24.00    12400.00
00113             -16.00    12400.00
00114             -10.00    12400.00
00115             -22.00    12400.00
00116             -28.00    12200.00
00117             -32.00    12600.00
00118             -26.00    12200.00
00119             -16.00    12400.00
00120             -14.00    12200.00
00121             -18.00    12400.00
00122             -18.00    12200.00
00123             -24.00    12200.00
00124             -30.00    12200.00
00125             -26.00    12200.00
00126             -18.00    12200.00
00127             -14.00    12200.00
00128             -16.00    12000.00
00129             -26.00    12000.00
00130             -26.00    12000.00
00131             -24.00    12000.00
00132             -20.00    12000.00
00133             -16.00    11600.00
00134             -16.00    11800.00
00135             -18.00    11600.00
00136             -22.00    11800.00
00137             -26.00    11400.00
00138             -22.00    11400.00
00139             -16.00    11400.00
00140             -12.00    11200.00
00141             -16.00    11200.00
00142             -22.00    11200.00
00143             -24.00    10800.00
00144             -22.00    10800.00
00145             -22.00    10800.00
00146             -16.00    10400.00
00147             -14.00    10400.00
00148             -16.00    10400.00
00149             -22.00    10200.00
00150             -24.00    10200.00
00151             -26.00    10000.00
00152             -16.00    10000.00
00153             -10.00     9800.00
00154             -10.00     9800.00
00155             -16.00     9600.00
00156             -20.00     9400.00
00157             -22.00     9200.00
00158             -18.00     9200.00
00159             -14.00     8800.00
00160             -14.00     8800.00
00161             -16.00     8600.00
00162             -26.00     8400.00
00163             -24.00     8400.00
00164             -14.00     8200.00
00165             -14.00     8000.00
00166             -14.00     8000.00
00167             -16.00     8000.00
00168             -16.00     7600.00
00169             -16.00     7600.00
00170             -16.00     7200.00
00171             -24.00     7200.00
00172             -18.00     7000.00
00173             -14.00     6800.00
00174             -10.00     6600.00
00175             -14.00     6600.00
00176             -16.00     6400.00
00177             -16.00     6000.00
00178             -14.00     6000.00
00179             -14.00     5800.00
00180             -10.00     5600.00
00181             -10.00     5400.00
00182             -16.00     5200.00
00183             -18.00     5200.00
00184             -16.00     5000.00
00185             -10.00     4600.00
00186              -6.00     4600.00
00187             -10.00     4400.00
00188             -12.00     4200.00
00189             -10.00     4000.00
00190             -10.00     3800.00
00191             -10.00     3400.00
00192             -10.00     3400.00
00193             -10.00     3200.00
00194              -8.00     3000.00
00195              -6.00     2800.00
00196              -8.00     2600.00
00197              -8.00     2400.00
00198             -10.00     2400.00
00199             -10.00     2000.00
00200             -10.00     1600.00
00201              -6.00     1600.00
00202              -2.00     1600.00
00203              -2.00     1200.00
00204             -10.00     1000.00
00205              -6.00      800.00
00206              -6.00      400.00
00207              -2.00      400.00
00208              -2.00      200.00
00209              -2.00      200.00
00210               6.00        0.00
00211              30.00     -400.00
00212              22.00     -600.00
00213              -6.00     -600.00
00214             -16.00     -800.00
00215              -2.00    -1000.00
00216              10.00    -1200.00
00217              24.00    -1200.00
00218             132.00    -1600.00
00219             246.00    -2000.00
00220             -72.00    -2400.00
00221            -254.00    -2400.00
00222            -208.00    -2800.00
00223              56.00    -2800.00
00224              84.00    -2600.00
00225             246.00    -3000.00
00226               2.00    -3400.00
00227            -254.00    -3200.00
00228             160.00    -3800.00
00229              42.00    -3800.00
00230             -50.00    -3600.00
00231              50.00    -4600.00
00232             -44.00    -4200.00
00233             102.00    -4600.00
00234             -16.00    -4600.00
00235             -80.00    -4800.00
00236             -22.00    -5200.00
00237               6.00    -5000.00
00238             118.00    -5600.00
00239             -42.00    -5400.00
00240             -22.00    -6000.00
00241               8.00    -6000.00
00242             -12.00    -6000.00
00243              70.00    -6600.00
00244             -28.00    -6200.00
00245              -8.00    -6800.00
00246               8.00    -6800.00
00247              22.00    -7000.00
00248              -2.00    -7400.00
00249             -16.00    -7200.00
00250              32.00    -7600.00
00251               8.00    -7600.00
00252              32.00    -7800.00
00253               2.00    -8000.00
00254             -18.00    -8000.00
00255              26.00    -8400.00
00256              10.00    -8400.00
00257             -10.00    -8600.00
00258               2.00    -8600.00
00259               6.00    -8800.00
00260              20.00    -9000.00
00261              30.00    -9200.00
00262              10.00    -9400.00
00263               6.00    -9600.00
00264              24.00    -9400.00
00265              12.00    -9600.00
00266               0.00    -9800.00
00267               2.00   -10000.00
00268              -2.00   -10000.00
00269               8.00   -10000.00
00270              22.00   -10200.00
00271              22.00   -10400.00
00272              34.00   -10400.00
00273              20.00   -10400.00
00274              -2.00   -10800.00
00275               0.00   -10800.00
00276               8.00   -10800.00
00277              14.00   -11000.00
00278              16.00   -11000.00
00279              16.00   -11000.00
00280              14.00   -11200.00
00281              22.00   -11200.00
00282              14.00   -11200.00
00283              10.00   -11200.00
00284              16.00   -11200.00
00285              16.00   -11600.00
00286              16.00   -11600.00
00287              16.00   -11600.00
00288               6.00   -11800.00
00289               6.00   -11800.00
00290              10.00   -11800.00
00291              14.00   -11800.00
00292              24.00   -12000.00
00293              30.00   -11800.00
00294              22.00   -11800.00
00295               8.00   -12000.00
00296               2.00   -12000.00
00297              -2.00   -12000.00
00298               8.00   -12000.00
00299              22.00   -12000.00
00300              24.00   -12000.00
00301              18.00   -12200.00
00302              14.00   -12000.00
00303               6.00   -12200.00
00304              10.00   -12000.00
00305              14.00   -12000.00
00306              16.00   -12200.00
00307              16.00   -12000.00
00308              10.00   -12000.00
00309               8.00   -12000.00
00310              10.00   -12000.00
00311              16.00   -12000.00
00312              18.00   -12000.00
00313              22.00   -12000.00
00314              16.00   -11800.00
00315              10.00   -12000.00
00316               6.00   -12000.00
00317               6.00   -12000.00
00318              10.00   -11800.00
00319              18.00   -11800.00
00320              22.00   -11800.00
00321              18.00   -11800.00
00322              14.00   -11600.00
00323               8.00   -11600.00
00324               8.00   -11600.00
00325              14.00   -11200.00
00326              18.00   -11200.00
00327              18.00   -11200.00
00328              16.00   -11200.00
00329               2.00   -11200.00
00330              10.00   -11200.00
00331              16.00   -11000.00
00332              18.00   -10800.00
00333              14.00   -10800.00
00334              14.00   -10600.00
00335              12.00   -10600.00
00336              12.00   -10400.00
00337              14.00   -10200.00
00338              10.00   -10200.00
00339              14.00   -10200.00
00340              14.00   -10000.00
00341              14.00   -10000.00
00342              14.00    -9800.00
00343               8.00    -9600.00
00344               8.00    -9400.00
00345               8.00    -9400.00
00346              14.00    -9400.00
00347              18.00    -9200.00
00348              10.00    -9200.00
00349               2.00    -9000.00
00350               2.00    -8800.00
00351              10.00    -8600.00
00352              18.00    -8600.00
00353              16.00    -8400.00
00354               4.00    -8400.00
00355               2.00    -8000.00
00356               6.00    -8000.00
00357               6.00    -7600.00
00358              10.00    -7600.00
00359              10.00    -7400.00
00360              16.00    -7200.00
00361               8.00    -7200.00
00362              -2.00    -7000.00
00363              -6.00    -7000.00
00364               6.00    -6800.00
00365              14.00    -6600.00
00366              10.00    -6400.00
00367               6.00    -6200.00
00368              -2.00    -6000.00
00369               2.00    -5800.00
00370               8.00    -5600.00
00371              10.00    -5600.00
00372               4.00    -5400.00
00373              -2.00    -5200.00
00374               0.00    -5000.00
00375               2.00    -4600.00
00376               6.00    -4400.00
00377               6.00    -4400.00
00378               0.00    -4000.00
00379              -4.00    -4000.00
00380               2.00    -3800.00
00381               6.00    -3600.00
00382               6.00    -3400.00
00383              -6.00    -3200.00
00384              -6.00    -3000.00
00385               0.00    -2800.00
00386               4.00    -2800.00
00387               6.00    -2400.00
00388               6.00    -2200.00
00389              -2.00    -2200.00
00390              -6.00    -1800.00
00391              -6.00    -1600.00
00392               0.00    -1400.00
00393               6.00    -1200.00
00394               2.00    -1000.00
00395              -6.00     -800.00
00396             -10.00     -600.00
00397              -2.00     -400.00
00398               0.00     -400.00
00399               2.00        0.00
00400              -2.00      200.00
00401               0.00      200.00
00402               8.00      400.00
00403              24.00      800.00
00404              16.00      800.00
00405              -8.00     1000.00
00406             -10.00     1200.00
00407               2.00     1600.00
00408              10.00     1600.00
00409              88.00     1800.00
00410             246.00     2400.00
00411              32.00     2400.00
00412            -254.00     2400.00
00413            -254.00     2600.00
00414             -40.00     2800.00
00415             212.00     3000.00
00416             246.00     3600.00
00417            -226.00     3200.00
00418            -254.00     3600.00
00419             246.00     4000.00
00420            -106.00     4000.00
00421             -60.00     4200.00
00422             120.00     4400.00
00423            -130.00     4400.00
00424             152.00     4800.00
00425             -56.00     4800.00
00426            -154.00     5400.00
00427              46.00     5400.00
00428              18.00     5600.00
00429              48.00     5600.00
00430             -62.00     5800.00
00431               6.00     6000.00
00432             -58.00     6000.00
00433              -2.00     6400.00
00434              60.00     6600.00
00435            -104.00     6600.00
00436              30.00     6800.00
00437              -2.00     7000.00
00438             -16.00     7200.00
00439             -14.00     7400.00
00440             -46.00     7600.00
00441              -4.00     7600.00
00442              14.00     7600.00
00443               0.00     8000.00
00444             -58.00     8000.00
00445              -2.00     8400.00
00446             -16.00     8400.00
00447              -8.00     8800.00
00448              -8.00     9000.00
00449             -24.00     9000.00
00450             -32.00     9000.00
00451              -2.00     9200.00
00452               0.00     9600.00
00453             -24.00     9600.00
00454              -6.00     9800.00
00455             -40.00     9600.00
00456             -18.00    10000.00
00457             -10.00    10000.00
00458             -10.00    10000.00
00459             -10.00    10200.00
00460             -14.00    10400.00
00461             -36.00    10400.00
00462             -26.00    10600.00
00463              -2.00    10600.00
00464             -14.00    10800.00
00465             -10.00    10800.00
00466             -22.00    10800.00
00467             -32.00    11200.00
00468             -22.00    11200.00
00469             -10.00    11200.00
00470             -20.00    11200.00
00471             -14.00    11400.00
00472             -14.00    11800.00
00473             -26.00    11800.00
00474             -22.00    11800.00
00475             -26.00    11800.00
00476             -18.00    12000.00
00477             -10.00    12000.00
00478             -16.00    12000.00
00479             -26.00    12000.00
00480             -22.00    12200.00
00481             -22.00    12200.00
00482             -22.00    12000.00
00483             -12.00    12200.00
00484             -10.00    12200.00
00485             -16.00    12400.00
00486             -30.00    12200.00
00487             -42.00    12200.00
00488             -26.00    12200.00
00489              -6.00    12400.00
00490              -6.00    12200.00
00491             -22.00    12200.00
00492             -42.00    12400.00
00493             -32.00    12400.00
00494              -8.00    12400.00
00495             -10.00    12400.00
00496             -24.00    12400.00
00497             -32.00    12400.00
00498             -24.00    12400.00
00499             -20.00    12400.00
00500             -24.00    12400.00
00501             -22.00    12200.00
00502             -22.00    12400.00
00503             -20.00    12400.00
00504             -18.00    12200.00
00505             -18.00    12200.00
00506             -24.00    12400.00
00507             -24.00    12200.00
00508             -30.00    12200.00
00509             -26.00    12200.00
00510             -18.00    12200.00
00511             -16.00    12000.00
00512             -10.00    12000.00
00513             -18.00    12000.00
00514             -28.00    11800.00
00515             -34.00    12000.00
00516             -24.00    11800.00
00517             -14.00    11800.00
00518             -14.00    11600.00
00519             -18.00    11800.00
00520             -24.00    11400.00
00521             -26.00    11400.00
00522             -22.00    11400.00
00523             -24.00    11200.00
00524             -22.00    11200.00
00525             -18.00    11000.00
00526             -14.00    11000.00
00527             -10.00    10800.00
00528             -24.00    10800.00
00529             -26.00    10800.00
00530             -24.00    10400.00
00531             -16.00    10600.00
00532             -14.00    10200.00
00533             -16.00    10200.00
00534             -22.00    10000.00
00535             -22.00    10000.00
00536             -24.00     9800.00
00537             -22.00     9800.00
00538             -16.00     9800.00
00539             -10.00     9600.00
00540             -14.00     9200.00
00541             -18.00     9200.00
00542             -24.00     9000.00
00543             -22.00     9000.00
00544             -16.00     8800.00
00545             -14.00     8600.00
00546             -10.00     8400.00
00547             -10.00     8200.00
00548             -20.00     8200.00
00549             -24.00     8000.00
00550             -22.00     7800.00
00551             -16.00     7600.00
00552             -10.00     7600.00
00553             -14.00     7400.00
00554             -20.00     7200.00
00555             -16.00     7200.00
00556             -18.00     6800.00
00557             -10.00     6600.00
00558             -10.00     6600.00
00559             -16.00     6400.00
00560             -16.00     6200.00
00561             -16.00     6000.00
00562             -18.00     5800.00
00563             -10.00     5600.00
00564              -8.00     5600.00
00565             -12.00     5400.00
00566             -18.00     5200.00
00567             -18.00     5000.00
00568             -16.00     4800.00
00569              -6.00     4400.00
00570             -10.00     4400.00
00571             -10.00     4200.00
00572             -10.00     4000.00
00573             -16.00     3800.00
00574             -12.00     3600.00
00575              -8.00     3600.00
00576              -8.00     3400.00
00577              -4.00     3000.00
00578              -6.00     2800.00
00579             -14.00     2800.00
00580             -14.00     2600.00
00581             -12.00     2200.00
00582              -6.00     2000.00
00583              -2.00     2000.00
00584              -2.00     1600.00
00585              -8.00     1600.00
00586             -10.00     1200.00
00587             -14.00     1000.00
00588              -8.00     1000.00
00589              -2.00      800.00
00590              -2.00      600.00
00591              -2.00      400.00
00592              -2.00      200.00
00593               0.00        0.00
00594              14.00     -200.00
00595              24.00     -400.00
00596               6.00     -600.00
00597             -14.00     -800.00
00598             -10.00    -1000.00
00599               8.00    -1200.00
00600              14.00    -1200.00
00601              58.00    -1400.00
00602             222.00    -1800.00
00603             150.00    -2200.00
00604            -254.00    -2400.00
00605            -254.00    -2400.00
00606             -38.00    -2800.00
00607              64.00    -2800.00
00608             184.00    -2600.00
00609             246.00    -3200.00
00610            -254.00    -3200.00
00611             -80.00    -3200.00
00612             202.00    -4000.00
00613             -80.00    -3600.00
00614              42.00    -4200.00
00615             -18.00    -4400.00
00616              22.00    -4400.00
00617              86.00    -4800.00
00618             -86.00    -4600.00
00619             -34.00    -5200.00
00620             -30.00    -5200.00
00621              88.00    -5400.00
00622              58.00    -5600.00
00623             -74.00    -5600.00
00624              18.00    -6200.00
00625             -30.00    -6000.00
00626              42.00    -6400.00
00627              34.00    -6600.00
00628             -34.00    -6400.00
00629              14.00    -6800.00
00630              10.00    -6800.00
00631              18.00    -7200.00
00632             -32.00    -7200.00
00633              14.00    -7400.00
00634              22.00    -7600.00
00635               8.00    -7600.00
00636              26.00    -7800.00
00637             -26.00    -8000.00
00638              14.00    -8000.00
00639              32.00    -8400.00
00640              -6.00    -8400.00
00641               0.00    -8800.00
00642              10.00    -8800.00
00643              14.00    -9000.00
00644              22.00    -9200.00
00645              12.00    -9200.00
00646              -8.00    -9400.00
00647              10.00    -9400.00
00648              16.00    -9600.00
00649               8.00    -9600.00
00650              16.00    -9600.00
00651              16.00   -10000.00
00652               0.00   -10000.00
00653              14.00   -10200.00
00654               2.00   -10200.00
00655              12.00   -10400.00
00656              30.00   -10400.00
00657              16.00   -10400.00
00658               2.00   -10600.00
00659               6.00   -10800.00
00660               8.00   -11000.00
00661              14.00   -11000.00
00662              22.00   -11000.00
00663              16.00   -11000.00
00664              16.00   -11000.00
00665              16.00   -11200.00
00666               6.00   -11200.00
00667               8.00   -11400.00
00668              22.00   -11600.00
00669              16.00   -11600.00
00670              20.00   -11600.00
00671              16.00   -11600.00
00672               6.00   -11600.00
00673              12.00   -11800.00
00674              14.00   -11800.00
00675              12.00   -11800.00
00676              22.00   -12000.00
00677              22.00   -12000.00
00678              10.00   -12000.00
00679              10.00   -12000.00
00680               8.00   -12000.00
00681              10.00   -12000.00
00682              22.00   -12000.00
00683              22.00   -12000.00
00684              14.00   -12200.00
00685              14.00   -12000.00
00686               8.00   -12000.00
00687               8.00   -12000.00
00688              18.00   -12000.00
00689              16.00   -12000.00
00690              18.00   -12000.00
00691              16.00   -12000.00
00692               6.00   -12000.00
00693              10.00   -12000.00
00694              14.00   -12000.00
00695              14.00   -11800.00
00696              18.00   -12000.00
00697              16.00   -12000.00
00698              14.00   -12000.00
00699              14.00   -12000.00
00700              10.00   -11800.00
00701               8.00   -11800.00
00702              18.00   -11800.00
00703              18.00   -11800.00
00704              14.00   -11600.00
00705              10.00   -11600.00
00706              10.00   -11600.00
00707              10.00   -11600.00
00708              14.00   -11400.00
00709              16.00   -11400.00
00710              20.00   -11200.00
00711              16.00   -11200.00
00712              10.00   -11200.00
00713              10.00   -11200.00
00714              10.00   -11000.00
00715              14.00   -11000.00
00716              14.00   -10800.00
00717              14.00   -10800.00
00718              16.00   -10600.00
00719              10.00   -10400.00
00720               8.00   -10400.00
00721              10.00   -10400.00
00722              14.00   -10000.00
00723              18.00   -10000.00
00724              14.00   -10000.00
00725              10.00   -10000.00
00726               8.00    -9800.00
00727              10.00    -9600.00
00728              10.00    -9600.00
00729              14.00    -9200.00
00730              16.00    -9200.00
00731              10.00    -9200.00
00732               8.00    -9000.00
00733               6.00    -8800.00
00734               8.00    -8600.00
00735              16.00    -8800.00
00736              14.00    -8400.00
00737              10.00    -8200.00
00738              10.00    -8000.00
00739               6.00    -8000.00
00740               6.00    -7800.00
00741               8.00    -7800.00
00742               8.00    -7400.00
00743              10.00    -7400.00
00744              10.00    -7200.00
00745               6.00    -7000.00
00746               6.00    -7000.00
00747               6.00    -6800.00
00748               6.00    -6600.00
00749               8.00    -6400.00
00750               4.00    -6200.00
00751               8.00    -6200.00
00752               6.00    -6000.00
00753               0.00    -5800.00
00754               2.00    -5600.00
00755               6.00    -5200.00
00756               8.00    -5200.00
00757               6.00    -5000.00
00758               2.00    -4800.00
00759               0.00    -4800.00
00760               2.00    -4600.00
00761               0.00    -4400.00
00762               2.00    -4000.00
00763               6.00    -3800.00
00764               6.00    -3800.00
00765               0.00    -3600.00
00766              -2.00    -3200.00
00767              -6.00    -3000.00
00768               2.00    -2800.00
00769               2.00    -2800.00
00770               0.00    -2600.00
00771              -2.00    -2200.00
00772              -2.00    -2200.00
00773              -6.00    -2000.00
00774               0.00    -1800.00
00775              -2.00    -1600.00
00776               0.00    -1400.00
00777               0.00    -1000.00
00778               0.00    -1000.00
00779              -2.00     -800.00
00780               0.00     -600.00
00781              -2.00     -400.00
00782              -6.00     -200.00
00783              -2.00        0.00
00784               0.00      200.00
00785               2.00      400.00
00786              16.00      600.00
00787              26.00      800.00
00788               6.00     1000.00
00789             -10.00     1200.00
00790              -8.00     1200.00
00791               8.00     1600.00
00792              32.00     1600.00
00793             208.00     2000.00
00794             246.00     2400.00
00795            -248.00     2600.00
00796            -254.00     2600.00
00797            -152.00     2600.00
00798              40.00     3000.00
00799             246.00     3200.00
00800             246.00     3400.00
00801            -254.00     3200.00
00802              50.00     3800.00
00803             208.00     4000.00
00804            -224.00     4000.00
00805             136.00     4400.00
00806             -46.00     4400.00
00807             -10.00     4600.00
00808             128.00     4800.00
00809            -186.00     5000.00
00810             -26.00     5400.00
00811              32.00     5400.00
00812              40.00     5600.00
00813              -6.00     5600.00
00814             -46.00     6000.00
00815               6.00     6000.00
00816             -78.00     6200.00
00817              82.00     6600.00
00818             -38.00     6600.00
00819             -58.00     6600.00
00820              38.00     7200.00
00821             -32.00     7200.00
00822               6.00     7400.00
00823             -40.00     7400.00
00824             -24.00     7600.00
00825              -2.00     7600.00
00826              20.00     8000.00
00827             -32.00     8200.00
00828             -38.00     8200.00
00829               2.00     8600.00
00830             -24.00     8400.00
00831              -6.00     8800.00
00832             -18.00     8800.00
00833             -24.00     9000.00
00834             -24.00     9200.00
00835               8.00     9200.00
00836             -26.00     9400.00
00837             -14.00     9600.00
00838             -18.00     9800.00
00839             -34.00     9800.00
00840              -6.00    10000.00
00841             -16.00    10000.00
00842              -8.00    10200.00
00843             -16.00    10200.00
00844             -26.00    10400.00
00845             -38.00    10400.00
00846              -6.00    10800.00
00847              -6.00    10600.00
00848             -16.00    10800.00
00849             -18.00    11000.00
00850             -32.00    10800.00
00851             -26.00    11200.00
00852             -10.00    11200.00
00853             -14.00    11200.00
00854             -16.00    11200.00
00855             -10.00    11400.00
00856             -24.00    11800.00
00857             -22.00    11600.00
00858             -24.00    11800.00
00859             -26.00    11800.00
00860             -10.00    11800.00
00861             -10.00    12000.00
00862             -22.00    11800.00
00863             -22.00    12000.00
00864             -22.00    12000.00
00865             -26.00    12000.00
00866             -18.00    12200.00
00867             -14.00    12200.00
00868             -16.00    12200.00
00869             -18.00    12200.00
00870             -24.00    12200.00
00871             -24.00    12400.00
00872             -24.00    12400.00
00873             -18.00    12200.00
00874             -16.00    12400.00
00875             -16.00    12400.00
00876             -18.00    12400.00
00877             -24.00    12400.00
00878             -30.00    12400.00
00879             -26.00    12400.00
00880             -14.00    12400.00
00881             -10.00    12400.00
00882             -16.00    12400.00
00883             -34.00    12400.00
00884             -38.00    12200.00
00885             -24.00    12400.00
00886             -10.00    12400.00
00887             -10.00    12400.00
00888             -16.00    12400.00
00889             -26.00    12200.00
00890             -30.00    12000.00
00891             -34.00    12200.00
00892             -24.00    12200.00
00893             -10.00    12200.00
00894             -14.00    12200.00
00895             -26.00    12000.00
00896             -36.00    12000.00
00897             -32.00    12000.00
00898             -14.00    11800.00
00899              -8.00    11800.00
00900             -18.00    11800.00
00901             -30.00    11600.00
00902             -30.00    11800.00
00903             -24.00    11600.00
00904             -16.00    11400.00
00905             -20.00    11400.00
00906             -26.00    11400.00
00907             -20.00    11200.00
00908             -14.00    11200.00
00909             -14.00    11000.00
00910             -18.00    10800.00
00911             -26.00    10800.00
00912             -26.00    10600.00
00913             -18.00    10800.00
00914             -18.00    10400.00
00915             -16.00    10400.00
00916             -16.00    10200.00
00917             -22.00    10000.00
00918             -18.00    10000.00
00919             -16.00     9800.00
00920             -16.00     9800.00
00921             -16.00     9800.00
00922             -18.00     9600.00
00923             -18.00     9400.00
00924             -18.00     9200.00
00925             -22.00     9200.00
00926             -22.00     9000.00
00927             -16.00     9000.00
00928             -14.00     8800.00
00929             -10.00     8400.00
00930             -14.00     8400.00
00931             -24.00     8200.00
00932             -24.00     8000.00
00933             -18.00     8000.00
00934             -10.00     8000.00
00935              -8.00     7600.00
00936             -14.00     7400.00
00937             -20.00     7400.00
00938             -18.00     7200.00
00939             -14.00     7200.00
00940             -10.00     6800.00
00941             -14.00     6600.00
00942             -14.00     6600.00
00943             -14.00     6400.00
00944             -16.00     6200.00
00945             -16.00     5800.00
00946             -10.00     5800.00
00947             -10.00     5600.00
00948             -10.00     5400.00
00949             -18.00     5200.00
00950             -16.00     5200.00
00951             -10.00     4800.00
00952             -10.00     4600.00
00953             -14.00     4400.00
00954             -10.00     4200.00
00955             -10.00     4000.00
00956              -8.00     4000.00
00957              -8.00     3600.00
00958             -14.00     3400.00
00959             -10.00     3400.00
00960             -10.00     3200.00
00961             -10.00     3000.00
00962             -10.00     2800.00
00963             -10.00     2400.00
00964              -8.00     2400.00
00965              -2.00     2200.00
00966             -10.00     2000.00
00967             -10.00     1800.00
00968              -6.00     1600.00
00969              -2.00     1200.00
00970              -6.00     1200.00
00971              -8.00     1200.00
00972             -10.00      800.00
00973              -2.00      600.00
00974               0.00      600.00
00975              -2.00      400.00
00976               0.00        0.00
00977               0.00     -200.00
00978              22.00     -200.00
00979              22.00     -600.00
00980              -2.00     -600.00
00981             -14.00     -800.00
00982               2.00    -1000.00
00983              14.00    -1200.00
00984              24.00    -1400.00
00985             126.00    -1400.00
00986             246.00    -2000.00
00987             -56.00    -2400.00
00988            -254.00    -2600.00
00989            -210.00    -2600.00
00990              56.00    -2800.00
00991              70.00    -2800.00
00992             246.00    -2800.00
00993              26.00    -3400.00
00994            -254.00    -3000.00
00995             154.00    -3800.00
00996              62.00    -3800.00
00997             -50.00    -3600.00
00998              48.00    -4600.00
00999             -50.00    -4000.00
01000              94.00    -4600.00
01001              -8.00    -4800.00
01002             -72.00    -4800.00
01003             -20.00    -5200.00
01004               8.00    -5200.00
01005             122.00    -5600.00
01006             -44.00    -5400.00
01007             -26.00    -6000.00
01008               8.00    -6200.00
01009             -14.00    -6000.00
01010              74.00    -6600.00
01011             -22.00    -6400.00
01012             -10.00    -6800.00
01013              10.00    -7000.00
01014              22.00    -6800.00
01015               0.00    -7200.00
01016             -18.00    -7200.00
01017              32.00    -7600.00
01018               6.00    -7600.00
01019              22.00    -7800.00
01020              -2.00    -8000.00
01021             -16.00    -8000.00
01022              38.00    -8400.00
01023              14.00    -8600.00
01024             -10.00    -8600.00
01025               2.00    -8800.00
01026              14.00    -8800.00
01027              18.00    -9200.00
01028              18.00    -9200.00
01029               2.00    -9400.00
01030              -2.00    -9400.00
01031              16.00    -9400.00
01032              14.00    -9600.00
01033               8.00    -9600.00
01034              22.00    -9800.00
01035               8.00   -10000.00
01036               4.00   -10200.00
01037               6.00   -10200.00
01038               0.00   -10400.00
01039              22.00   -10400.00
01040              28.00   -10600.00
01041               8.00   -10600.00
01042               6.00   -10800.00
01043               8.00   -10800.00
01044               2.00   -11000.00
01045              16.00   -11000.00
01046              22.00   -11200.00
01047              16.00   -11200.00
01048              18.00   -11200.00
01049              10.00   -11200.00
01050               0.00   -11400.00
01051              12.00   -11600.00
01052              18.00   -11400.00
01053              18.00   -11600.00
01054              24.00   -11600.00
01055               8.00   -11800.00
01056               6.00   -11800.00
01057              14.00   -11800.00
01058              12.00   -12000.00
01059              16.00   -11800.00
01060              22.00   -11800.00
01061              16.00   -12000.00
01062              14.00   -12000.00
01063              10.00   -12000.00
01064               8.00   -12000.00
01065              14.00   -12000.00
01066              22.00   -12000.00
01067              18.00   -12000.00
01068              18.00   -12000.00
01069              14.00   -12200.00
01070               6.00   -12200.00
01071              14.00   -12000.00
01072              16.00   -12000.00
01073              18.00   -12000.00
01074              18.00   -12000.00
01075              10.00   -12000.00
01076               8.00   -12200.00
01077               8.00   -12000.00
01078              14.00   -12000.00
01079              16.00   -12000.00
01080              20.00   -12000.00
01081              16.00   -12000.00
01082              10.00   -12000.00
01083              10.00   -12000.00
01084              10.00   -11800.00
01085              16.00   -11800.00
01086              16.00   -11800.00
01087              14.00   -11600.00
01088              10.00   -11600.00
01089              14.00   -11600.00
01090              12.00   -11600.00
01091              14.00   -11600.00
01092              16.00   -11200.00
01093              16.00   -11400.00
01094              14.00   -11400.00
01095              14.00   -11200.00
01096              10.00   -11200.00
01097              10.00   -11000.00
01098              10.00   -11000.00
01099              12.00   -10800.00
01100              16.00   -10800.00
01101              18.00   -10800.00
01102              14.00   -10800.00
01103               6.00   -10400.00
01104               6.00   -10400.00
01105              14.00   -10200.00
01106              18.00   -10000.00
01107              16.00   -10000.00
01108               8.00   -10000.00
01109               6.00   -10000.00
01110               6.00    -9800.00
01111               6.00    -9600.00
01112              14.00    -9400.00
01113              18.00    -9400.00
01114              14.00    -9200.00
01115               8.00    -9000.00
01116               2.00    -9000.00
01117               2.00    -8800.00
01118              14.00    -8600.00
01119              12.00    -8600.00
01120              10.00    -8400.00
01121              12.00    -8200.00
01122               8.00    -8000.00
01123               6.00    -7800.00
01124               4.00    -7800.00
01125               6.00    -7400.00
01126              14.00    -7600.00
01127              14.00    -7200.00
01128               8.00    -7200.00
01129               6.00    -7000.00
01130               2.00    -6800.00
01131               2.00    -6800.00
01132              10.00    -6400.00
01133              10.00    -6200.00
01134               8.00    -6200.00
01135               6.00    -6000.00
01136               0.00    -5800.00
01137               2.00    -5600.00
01138               6.00    -5400.00
01139               8.00    -5200.00
01140               6.00    -5200.00
01141               4.00    -4800.00
01142               2.00    -4800.00
01143               6.00    -4400.00
01144               0.00    -4400.00
01145               0.00    -4200.00
01146               4.00    -3800.00
01147               6.00    -3600.00
01148               2.00    -3800.00
01149               0.00    -3400.00
01150              -2.00    -3200.00
01151               2.00    -3000.00
01152               0.00    -2800.00
01153               0.00    -2800.00
01154               2.00    -2400.00
01155               0.00    -2400.00
01156              -2.00    -2200.00
01157              -2.00    -2000.00
01158              -2.00    -1600.00
01159               0.00    -1400.00
01160               0.00    -1400.00
01161              -2.00    -1000.00
01162              -6.00     -800.00
01163              -4.00     -600.00
01164              -2.00     -400.00
01165              -4.00     -200.00
01166              -2.00     -200.00
01167              -2.00      200.00
01168               2.00      400.00
01169               6.00      400.00
01170              24.00      800.00
01171              18.00      800.00
01172              -6.00     1000.00
01173             -14.00     1200.00
01174               0.00     1400.00
01175              14.00     1600.00
01176              90.00     1800.00
01177             246.00     2400.00
01178              42.00     2400.00
01179            -254.00     2600.00
01180            -254.00     2600.00
01181             -40.00     2800.00
01182             202.00     3000.00
01183             246.00     3400.00
01184            -200.00     3400.00
01185            -254.00     3400.00
01186             246.00     4000.00
01187             -82.00     3800.00
01188             -68.00     4200.00
01189             128.00     4400.00
01190            -130.00     4400.00
01191             146.00     4800.00
01192             -42.00     5000.00
01193            -154.00     5200.00
01194              46.00     5200.00
01195              16.00     5600.00
01196              52.00     5600.00
01197             -58.00     5600.00
01198               8.00     6200.00
01199             -50.00     6000.00
01200              -6.00     6400.00
01201              70.00     6600.00
01202            -104.00     6600.00
01203              16.00     7000.00
01204               0.00     7000.00
01205             -12.00     7200.00
01206              -8.00     7200.00
01207             -44.00     7600.00
01208             -10.00     7600.00
01209              14.00     8000.00
01210               6.00     8000.00
01211             -56.00     8000.00
01212              -6.00     8400.00
01213             -16.00     8400.00
01214             -10.00     8600.00
01215             -10.00     9000.00
01216             -24.00     8800.00
01217             -30.00     9200.00
01218              -2.00     9200.00
01219              -6.00     9200.00
01220             -32.00     9600.00
01221               0.00     9800.00
01222             -38.00     9800.00
01223             -16.00     9800.00
01224             -14.00    10000.00
01225             -16.00    10000.00
01226             -10.00    10200.00
01227             -18.00    10400.00
01228             -40.00    10400.00
01229             -26.00    10400.00
01230               0.00    10600.00
01231             -12.00    10600.00
01232             -16.00    10800.00
01233             -26.00    11200.00
01234             -32.00    11000.00
01235             -18.00    11200.00
01236             -10.00    11400.00
01237             -18.00    11200.00
01238             -16.00    11400.00
01239             -22.00    11400.00
01240             -26.00    11800.00
01241             -18.00    11800.00
01242             -24.00    11800.00
01243             -20.00    11800.00
01244             -14.00    12000.00
01245             -18.00    12000.00
01246             -22.00    12000.00
01247             -20.00    12000.00
01248             -26.00    12200.00
01249             -26.00    12200.00
01250             -16.00    12200.00
01251             -14.00    12200.00
01252             -18.00    12400.00
01253             -20.00    12400.00
01254             -30.00    12200.00
01255             -26.00    12400.00
01256             -18.00    12400.00
01257             -18.00    12400.00
01258             -16.00    12400.00
01259             -16.00    12600.00
01260             -26.00    12400.00
01261             -26.00    12400.00
01262             -24.00    12400.00
01263             -24.00    12400.00
01264             -16.00    12400.00
01265             -14.00    12400.00
01266             -22.00    12400.00
01267             -24.00    12400.00
01268             -26.00    12400.00
01269             -26.00    12400.00
01270             -18.00    12400.00
01271             -16.00    12200.00
01272             -18.00    12200.00
01273             -26.00    12200.00
01274             -30.00    12200.00
01275             -30.00    12000.00
01276             -18.00    12200.00
01277             -16.00    12000.00
01278             -18.00    12000.00
01279             -22.00    12000.00
01280             -26.00    12000.00
01281             -26.00    12000.00
01282             -26.00    12000.00
01283             -22.00    11800.00
01284             -16.00    11600.00
01285             -18.00    11600.00
01286             -26.00    11400.00
01287             -26.00    11600.00
01288             -24.00    11400.00
01289             -24.00    11400.00
01290             -18.00    11400.00
01291             -18.00    11200.00
01292             -18.00    11000.00
01293             -18.00    11000.00
01294             -26.00    10800.00
01295             -24.00    10800.00
01296             -18.00    10600.00
01297             -16.00    10600.00
01298             -16.00    10400.00
01299             -22.00    10400.00
01300             -22.00    10200.00
01301             -22.00    10000.00
01302             -20.00    10000.00
01303             -22.00     9800.00
01304             -16.00     9800.00
01305             -16.00     9600.00
01306             -18.00     9600.00
01307             -22.00     9600.00
01308             -24.00     9200.00
01309             -22.00     9200.00
01310             -10.00     9000.00
01311             -14.00     9000.00
01312             -16.00     8600.00
01313             -16.00     8400.00
01314             -18.00     8200.00
01315             -22.00     8200.00
01316             -16.00     8000.00
01317             -14.00     8000.00
01318              -8.00     7800.00
01319             -10.00     7600.00
01320             -22.00     7400.00
01321             -22.00     7200.00
01322             -14.00     7200.00
01323             -10.00     6800.00
01324             -10.00     6800.00
01325             -16.00     6600.00
01326             -16.00     6400.00
01327              -6.00     6400.00
01328             -14.00     6000.00
01329             -20.00     5800.00
01330             -16.00     5600.00
01331              -6.00     5600.00
01332              -6.00     5400.00
01333             -10.00     5000.00
01334             -18.00     5200.00
01335             -20.00     5000.00
01336             -16.00     4600.00
01337              -8.00     4400.00
01338              -2.00     4200.00
01339              -8.00     4000.00
01340             -16.00     3800.00
01341             -18.00     3600.00
01342              -8.00     3400.00
01343              -2.00     3200.00
01344             -10.00     3000.00
01345             -10.00     2800.00
01346             -10.00     2600.00
01347             -10.00     2600.00
01348             -10.00     2400.00
01349             -10.00     2000.00
01350              -2.00     2000.00
01351              -2.00     1800.00
01352             -10.00     1600.00
01353             -16.00     1200.00
01354              -8.00     1000.00
01355              -6.00      800.00
01356               0.00      800.00
01357              -2.00      600.00
01358              -8.00      400.00
01359              -4.00      200.00
01360               0.00        0.00
01361               8.00     -200.00
01362              38.00     -400.00
01363              16.00     -600.00
01364             -16.00     -800.00
01365             -16.00    -1000.00
01366               0.00    -1200.00
01367              16.00    -1400.00
01368              66.00    -1400.00
01369             214.00    -1600.00
01370             158.00    -2400.00
01371            -254.00    -2400.00
01372            -254.00    -2400.00
01373             -42.00    -2800.00
01374              66.00    -2800.00
01375             176.00    -2800.00
01376             246.00    -3400.00
01377            -254.00    -3200.00
01378             -98.00    -3200.00
01379             212.00    -3800.00
01380             -78.00    -3600.00
01381              38.00    -4000.00
01382             -14.00    -4200.00
01383              14.00    -4400.00
01384              94.00    -4800.00
01385             -80.00    -4600.00
01386             -36.00    -5200.00
01387             -30.00    -5000.00
01388              86.00    -5200.00
01389              62.00    -5600.00
01390             -74.00    -5600.00
01391              20.00    -6200.00
01392             -26.00    -6000.00
01393              42.00    -6200.00
01394              40.00    -6400.00
01395             -34.00    -6400.00
01396              18.00    -6800.00
01397               8.00    -6800.00
01398              18.00    -7200.00
01399             -26.00    -7200.00
01400              12.00    -7400.00
01401              24.00    -7600.00
01402               8.00    -7600.00
01403              22.00    -8000.00
01404             -26.00    -8000.00
01405              12.00    -8400.00
01406              32.00    -8400.00
01407              -6.00    -8400.00
01408               0.00    -8800.00
01409              10.00    -8800.00
01410               6.00    -9000.00
01411              16.00    -8800.00
01412              14.00    -9200.00
01413               0.00    -9400.00
01414              14.00    -9400.00
01415              16.00    -9600.00
01416               6.00    -9600.00
01417              14.00    -9800.00
01418              14.00   -10000.00
01419               0.00   -10000.00
01420              14.00   -10000.00
01421               0.00   -10200.00
01422               6.00   -10400.00
01423              30.00   -10600.00
01424              14.00   -10600.00
01425               2.00   -10800.00
01426               8.00   -10800.00
01427               8.00   -11000.00
01428              16.00   -10800.00
01429              22.00   -11000.00
01430               8.00   -11000.00
01431              10.00   -11200.00
01432              16.00   -11200.00
01433               8.00   -11200.00
01434              10.00   -11400.00
01435              16.00   -11400.00
01436              10.00   -11600.00
01437              22.00   -11600.00
01438              20.00   -11600.00
01439              10.00   -11800.00
01440               8.00   -11800.00
01441               8.00   -11800.00
01442               8.00   -11800.00
01443              26.00   -12000.00
01444              28.00   -11800.00
01445              14.00   -12000.00
01446               0.00   -12000.00
01447              -2.00   -12000.00
01448               8.00   -12000.00
01449              30.00   -12000.00
01450              30.00   -12000.00
01451              22.00   -12000.00
01452              12.00   -12000.00
01453               2.00   -12000.00
01454               6.00   -12000.00
01455              18.00   -12000.00
01456              22.00   -12000.00
01457              20.00   -12000.00
01458              22.00   -12000.00
01459              14.00   -12000.00
01460               6.00   -12000.00
01461               4.00   -12000.00
01462              14.00   -12000.00
01463              24.00   -12000.00
01464              24.00   -12000.00
01465              14.00   -12000.00
01466               6.00   -11800.00
01467               6.00   -12000.00
01468              10.00   -11800.00
01469              18.00   -11600.00
01470              22.00   -11800.00
01471              18.00   -11600.00
01472              10.00   -11600.00
01473               6.00   -11600.00
01474               8.00   -11600.00
01475              16.00   -11600.00
01476              22.00   -11400.00
01477              14.00   -11200.00
01478              10.00   -11200.00
01479              12.00   -11200.00
01480              14.00   -11000.00
01481              14.00   -11000.00
01482              12.00   -10800.00
01483               8.00   -10800.00
01484              16.00   -10800.00
01485              16.00   -10400.00
01486               8.00   -10600.00
01487              10.00   -10400.00
01488              14.00   -10200.00
01489              10.00   -10200.00
01490              12.00   -10000.00
01491               6.00   -10200.00
01492              14.00    -9800.00
01493              16.00    -9600.00
01494              10.00    -9600.00
01495               8.00    -9400.00
01496              14.00    -9200.00
01497              12.00    -9400.00
01498              12.00    -9200.00
01499               8.00    -8800.00
01500               4.00    -9000.00
01501              10.00    -8600.00
01502               8.00    -8600.00
01503              10.00    -8400.00
01504              16.00    -8400.00
01505              12.00    -8200.00
01506               8.00    -8000.00
01507               4.00    -7800.00
01508               6.00    -7600.00
01509              10.00    -7600.00
01510              14.00    -7400.00
01511              10.00    -7200.00
01512               2.00    -7200.00
01513               6.00    -7000.00
01514               6.00    -6800.00
01515              10.00    -6400.00
01516              10.00    -6400.00
01517              14.00    -6200.00
01518               8.00    -6200.00
01519               4.00    -5800.00
01520              -2.00    -5600.00
01521               2.00    -5400.00
01522               6.00    -5200.00
01523              10.00    -5200.00
01524               8.00    -4800.00
01525               6.00    -4800.00
01526              -2.00    -4600.00
01527               4.00    -4400.00
01528               2.00    -4400.00
01529               8.00    -4000.00
01530               6.00    -3800.00
01531               2.00    -3800.00
01532               0.00    -3600.00
01533              -2.00    -3200.00
01534              -2.00    -3200.00
01535               0.00    -3000.00
01536               2.00    -2800.00
01537               2.00    -2600.00
01538               2.00    -2400.00
01539              -2.00    -2200.00
01540              -4.00    -2000.00
01541              -6.00    -2000.00
01542               0.00    -1600.00
01543               2.00    -1400.00
01544               0.00    -1000.00
01545              -2.00     -800.00
01546              -4.00     -800.00
01547              -6.00     -600.00
01548              -4.00     -400.00
01549              -2.00     -200.00
01550               0.00        0.00
01551               0.00      200.00
01552               0.00      400.00
01553              14.00      800.00
01554              30.00      800.00
01555               8.00     1000.00
01556             -16.00     1000.00
01557             -12.00     1400.00
01558               8.00     1400.00
01559              34.00     1600.00
01560             200.00     2000.00
01561             246.00     2400.00
01562            -230.00     2400.00
01563            -254.00     2600.00
01564            -162.00     2600.00
01565              32.00     2800.00
01566             246.00     3200.00
01567             246.00     3600.00
01568            -254.00     3200.00
01569              22.00     4000.00
01570             224.00     4000.00
01571            -224.00     4200.00
01572             124.00     4400.00
01573             -34.00     4400.00
01574             -22.00     4600.00
01575             142.00     4800.00
01576            -182.00     5000.00
01577             -38.00     5400.00
01578              32.00     5400.00
01579              46.00     5600.00
01580               0.00     5600.00
01581             -46.00     6000.00
01582              12.00     6200.00
01583             -80.00     6200.00
01584              80.00     6600.00
01585             -30.00     6600.00
01586             -64.00     6800.00
01587              46.00     7000.00
01588             -30.00     7200.00
01589               6.00     7400.00
01590             -42.00     7400.00
01591             -24.00     7600.00
01592               2.00     7800.00
01593              26.00     8000.00
01594             -32.00     8000.00
01595             -42.00     8200.00
01596               0.00     8400.00
01597             -24.00     8400.00
01598              -2.00     8800.00
01599             -18.00     9000.00
01600             -26.00     9000.00
01601             -24.00     9200.00
01602               6.00     9600.00
01603             -26.00     9400.00
01604             -10.00     9600.00
01605             -14.00     9600.00
01606             -38.00     9800.00
01607              -8.00    10000.00
01608             -16.00    10000.00
01609             -10.00    10200.00
01610             -16.00    10200.00
01611             -30.00    10400.00
01612             -38.00    10400.00
01613              -6.00    10600.00
01614              -4.00    10800.00
01615             -22.00    10800.00
01616             -22.00    10800.00
01617             -32.00    11200.00
01618             -26.00    11200.00
01619             -16.00    11200.00
01620             -14.00    11200.00
01621             -18.00    11400.00
01622             -14.00    11400.00
01623             -24.00    11600.00
01624             -24.00    11800.00
01625             -18.00    11800.00
01626             -24.00    11800.00
01627             -18.00    12000.00
01628             -16.00    12000.00
01629             -22.00    12000.00
01630             -24.00    12200.00
01631             -24.00    12200.00
01632             -26.00    12200.00
01633             -24.00    12200.00
01634             -12.00    12200.00
01635             -16.00    12200.00
01636             -22.00    12200.00
01637             -26.00    12400.00
01638             -26.00    12200.00
01639             -22.00    12400.00
01640             -18.00    12400.00
01641             -22.00    12400.00
01642             -16.00    12400.00
01643             -18.00    12400.00
01644             -24.00    12400.00
01645             -28.00    12400.00
01646             -26.00    12400.00
01647             -22.00    12400.00
01648             -10.00    12400.00
01649             -10.00    12400.00
01650             -24.00    12400.00
01651             -32.00    12400.00
01652             -32.00    12400.00
01653             -16.00    12400.00
01654              -8.00    12400.00
01655             -18.00    12400.00
01656             -32.00    12200.00
01657             -22.00    12200.00
01658             -12.00    12200.00
01659             -18.00    12200.00
01660             -30.00    12200.00
01661             -32.00    12200.00
01662             -16.00    12000.00
01663              -8.00    12000.00
01664             -18.00    12000.00
01665             -26.00    11800.00
01666             -30.00    11800.00
01667             -26.00    11800.00
01668             -18.00    11600.00
01669             -10.00    11600.00
01670             -14.00    11800.00
01671             -18.00    11400.00
01672             -26.00    11400.00
01673             -26.00    11200.00
01674             -24.00    11200.00
01675             -22.00    11200.00
01676             -10.00    11000.00
01677             -14.00    10800.00
01678             -26.00    10800.00
01679             -32.00    10600.00
01680             -24.00    10600.00
01681             -12.00    10400.00
01682             -12.00    10400.00
01683             -24.00    10400.00
01684             -26.00    10000.00
01685             -22.00    10000.00
01686             -14.00    10000.00
01687             -10.00     9800.00
01688             -14.00     9800.00
01689             -28.00     9600.00
01690             -32.00     9400.00
01691             -26.00     9200.00
01692              -8.00     9200.00
01693               2.00     9000.00
01694              -6.00     9000.00
01695             -26.00     8800.00
01696             -40.00     8400.00
01697             -30.00     8400.00
01698             -10.00     8200.00
01699               0.00     8200.00
01700              -6.00     8000.00
01701             -18.00     7800.00
01702             -26.00     7600.00
01703             -16.00     7400.00
01704             -10.00     7400.00
01705             -14.00     7200.00
01706             -18.00     7200.00
01707             -12.00     7000.00
01708              -2.00     6800.00
01709              -6.00     6400.00
01710             -14.00     6400.00
01711             -26.00     6200.00
01712             -24.00     6000.00
01713             -10.00     5800.00
01714               2.00     5600.00
01715               0.00     5400.00
01716             -10.00     5400.00
01717             -22.00     5000.00
01718             -22.00     5000.00
01719             -14.00     4800.00
01720              -6.00     4400.00
01721              -2.00     4200.00
01722              -8.00     4200.00
01723             -10.00     4000.00
01724             -16.00     4000.00
01725             -14.00     3600.00
01726              -8.00     3400.00
01727              -6.00     3200.00
01728              -6.00     3000.00
01729              -6.00     2800.00
01730              -6.00     2600.00
01731             -10.00     2600.00
01732             -10.00     2200.00
01733             -14.00     2000.00
01734              -6.00     1800.00
01735              -2.00     1800.00
01736              -6.00     1400.00
01737              -8.00     1200.00
01738             -10.00     1200.00
01739              -6.00      800.00
01740              -2.00      600.00
01741              -6.00      400.00
01742              -4.00      200.00
01743              -2.00        0.00
01744               0.00     -200.00
01745              24.00     -400.00
01746              24.00     -600.00
01747              -6.00     -600.00
01748             -16.00     -800.00
01749              -8.00    -1000.00
01750               8.00    -1200.00
01751              26.00    -1400.00
01752             122.00    -1400.00
01753             246.00    -2000.00
01754             -38.00    -2400.00
01755            -254.00    -2400.00
01756            -232.00    -2800.00
01757              46.00    -2800.00
01758              70.00    -2600.00
01759             246.00    -3000.00
01760              48.00    -3600.00
01761            -254.00    -3200.00
01762             136.00    -3800.00
01763              66.00    -3800.00
01764             -58.00    -3800.00
01765              54.00    -4400.00
01766             -46.00    -4000.00
01767              94.00    -4600.00
01768              -2.00    -4600.00
01769             -82.00    -4800.00
01770             -22.00    -5200.00
01771               2.00    -5200.00
01772             126.00    -5600.00
01773             -34.00    -5400.00
01774             -30.00    -5800.00
01775              10.00    -6200.00
01776             -16.00    -6000.00
01777              70.00    -6400.00
01778             -18.00    -6200.00
01779             -10.00    -6800.00
01780              16.00    -6800.00
01781              22.00    -7000.00
01782               0.00    -7200.00
01783             -22.00    -7200.00
01784              32.00    -7600.00
01785               8.00    -7600.00
01786              22.00    -7800.00
01787               2.00    -8000.00
01788             -22.00    -8000.00
01789              32.00    -8400.00
01790              16.00    -8400.00
01791              -6.00    -8600.00
01792              10.00    -8600.00
01793              10.00    -8800.00
01794              10.00    -9000.00
01795              18.00    -9200.00
01796               6.00    -9400.00
01797               0.00    -9400.00
01798              16.00    -9400.00
01799               6.00    -9600.00
01800               8.00    -9800.00
01801              24.00    -9800.00
01802               8.00   -10000.00
01803               4.00   -10000.00
01804               8.00   -10200.00
01805              -2.00   -10200.00
01806              22.00   -10400.00
01807              24.00   -10600.00
01808               6.00   -10800.00
01809               6.00   -10800.00
01810               8.00   -10800.00
01811               6.00   -11000.00
01812              20.00   -11000.00
01813              22.00   -11000.00
01814               8.00   -11200.00
01815              14.00   -11200.00
01816              10.00   -11200.00
01817               4.00   -11400.00
01818              16.00   -11400.00
01819              10.00   -11600.00
01820              14.00   -11600.00
01821              24.00   -11600.00
01822              14.00   -11600.00
01823               8.00   -11600.00
01824              10.00   -11800.00
01825               8.00   -11800.00
01826              14.00   -12000.00
01827              22.00   -11800.00
01828              18.00   -12000.00
01829              14.00   -12000.00
01830              16.00   -12000.00
01831               8.00   -12000.00
01832              10.00   -12000.00
01833              16.00   -12000.00
01834              16.00   -12000.00
01835              18.00   -12200.00
01836              16.00   -12000.00
01837              14.00   -12000.00
01838              16.00   -12000.00
01839              16.00   -12000.00
01840              16.00   -12000.00
01841              18.00   -12200.00
01842              16.00   -12000.00
01843              14.00   -12000.00
01844               6.00   -12000.00
01845              16.00   -12000.00
01846              16.00   -12000.00
01847              24.00   -12000.00
01848              18.00   -12000.00
01849              10.00   -12000.00
01850               8.00   -11800.00
01851              10.00   -11800.00
01852              16.00   -11800.00
01853              22.00   -11600.00
01854              22.00   -11600.00
01855              14.00   -11800.00
01856               8.00   -11600.00
01857               6.00   -11600.00
01858              10.00   -11600.00
01859              18.00   -11600.00
01860              20.00   -11400.00
01861              14.00   -11200.00
01862              10.00   -11200.00
01863               6.00   -11200.00
01864               8.00   -11200.00
01865              10.00   -11000.00
01866              16.00   -10800.00
01867              18.00   -10800.00
01868              14.00   -10800.00
01869               8.00   -10400.00
01870               8.00   -10400.00
01871               8.00   -10400.00
01872              12.00   -10200.00
01873              16.00   -10000.00
01874              16.00   -10200.00
01875              14.00   -10000.00
01876              10.00    -9800.00
01877               6.00    -9600.00
01878               6.00    -9600.00
01879               8.00    -9600.00
01880              14.00    -9400.00
01881              14.00    -9200.00
01882              14.00    -9200.00
01883               6.00    -9000.00
01884               6.00    -8800.00
01885               2.00    -8800.00
01886              10.00    -8600.00
01887              18.00    -8400.00
01888              14.00    -8000.00
01889               6.00    -8000.00
01890               2.00    -7800.00
01891               6.00    -7800.00
01892              10.00    -7400.00
01893              12.00    -7400.00
01894               8.00    -7200.00
01895               8.00    -7200.00
01896               8.00    -7000.00
01897               8.00    -6800.00
01898               6.00    -6800.00
01899               6.00    -6400.00
01900              10.00    -6200.00
01901              10.00    -6000.00
01902               6.00    -6000.00
01903               6.00    -5800.00
01904               6.00    -5600.00
01905               6.00    -5400.00
01906               6.00    -5200.00
01907               6.00    -5200.00
01908               6.00    -5000.00
01909               8.00    -4800.00
01910               2.00    -4600.00
01911               0.00    -4400.00
01912               6.00    -4200.00
01913               2.00    -3800.00
01914               6.00    -3600.00
01915               0.00    -3600.00
01916               0.00    -3400.00
01917               6.00    -3200.00
01918               2.00    -3000.00
01919               0.00    -2800.00
01920               2.00    -2600.00
01921               2.00    -2400.00
01922               0.00    -2200.00
01923              -4.00    -2000.00
01924             -10.00    -2000.00
01925              -2.00    -1600.00
01926               4.00    -1400.00
01927               2.00    -1200.00
01928              -2.00    -1000.00
01929              -2.00     -800.00
01930              -4.00     -800.00
01931              -2.00     -600.00
01932              -2.00     -200.00
01933              -2.00        0.00
01934              -2.00      200.00
01935               0.00      200.00
01936               6.00      400.00
01937              26.00      800.00
01938              20.00      800.00
01939              -8.00     1000.00
01940             -16.00     1200.00
01941              -4.00     1400.00
01942              14.00     1600.00
01943              86.00     1800.00
01944             246.00     2400.00
01945              62.00     2400.00
01946            -254.00     2600.00
01947            -254.00     2800.00
01948             -48.00     2800.00
01949             190.00     3200.00
01950             246.00     3400.00
01951            -162.00     3200.00
01952            -254.00     3400.00
01953             246.00     4000.00
01954             -68.00     3800.00
01955             -82.00     4200.00
01956             136.00     4400.00
01957            -130.00     4400.00
01958             138.00     4800.00
01959             -32.00     4800.00
01960            -170.00     5200.00
01961              40.00     5400.00
01962              24.00     5600.00
01963              56.00     5600.00
01964             -56.00     5800.00
01965               2.00     6200.00
01966             -50.00     6000.00
01967             -10.00     6400.00
01968              74.00     6600.00
01969            -104.00     6600.00
01970              18.00     6800.00
01971               2.00     6800.00
01972             -16.00     7200.00
01973              -8.00     7600.00
01974             -42.00     7600.00
01975              -6.00     7600.00
01976              14.00     8000.00
01977               6.00     8000.00
01978             -56.00     8000.00
01979              -2.00     8400.00
01980             -10.00     8800.00
01981             -14.00     8800.00
01982             -10.00     8800.00
01983             -24.00     8800.00
01984             -26.00     9200.00
01985              -6.00     9200.00
01986               0.00     9400.00
01987             -30.00     9600.00
01988              -2.00     9800.00
01989             -40.00     9800.00
01990             -22.00     9800.00
01991              -8.00    10000.00
01992             -10.00    10200.00
01993             -14.00    10000.00
01994             -22.00    10400.00
01995             -34.00    10400.00
01996             -24.00    10600.00
01997               0.00    10800.00
01998             -16.00    10800.00
01999             -16.00    10600.00
02000             -24.00    11000.00
02001             -32.00    11200.00
02002             -22.00    11200.00
02003             -14.00    11200.00
02004             -18.00    11400.00
02005             -14.00    11400.00
02006             -18.00    11600.00
02007             -24.00    11800.00
02008             -18.00    11800.00
02009             -24.00    11800.00
02010             -22.00    11800.00
02011             -14.00    11800.00
02012             -16.00    12000.00
02013             -22.00    12000.00
02014             -24.00    12000.00
02015             -28.00    12000.00
02016             -26.00    12200.00
02017             -14.00    12200.00
02018             -16.00    12200.00
02019             -18.00    12200.00
02020             -18.00    12400.00
02021             -26.00    12400.00
02022             -26.00    12400.00
02023             -24.00    12400.00
02024             -22.00    12200.00
02025             -14.00    12400.00
02026             -16.00    12400.00
02027             -26.00    12400.00
02028             -28.00    12400.00
02029             -24.00    12400.00
02030             -18.00    12400.00
02031             -16.00    12400.00
02032             -16.00    12400.00
02033             -22.00    12400.00
02034             -22.00    12400.00
02035             -26.00    12200.00
02036             -24.00    12400.00
02037             -16.00    12400.00
02038             -18.00    12400.00
02039             -16.00    12200.00
02040             -22.00    12400.00
02041             -24.00    12200.00
02042             -22.00    12200.00
02043             -18.00    12200.00
02044             -24.00    12200.00
02045             -22.00    12000.00
02046             -18.00    12000.00
02047             -24.00    12000.00
02048             -22.00    12000.00
02049             -18.00    12000.00
02050             -14.00    11800.00
02051             -14.00    11800.00
02052             -24.00    11800.00
02053             -22.00    11600.00
02054             -18.00    11400.00
02055             -22.00    11400.00
02056             -24.00    11400.00
02057             -26.00    11400.00
02058             -18.00    11200.00
02059             -14.00    11000.00
02060             -16.00    11200.00
02061             -24.00    10800.00
02062             -24.00    10800.00
02063             -18.00    10600.00
02064             -18.00    10600.00
02065             -16.00    10400.00
02066             -20.00    10400.00
02067             -20.00    10200.00
02068             -24.00    10400.00
02069             -26.00    10000.00
02070             -18.00     9800.00
02071             -10.00     9600.00
02072             -10.00     9600.00
02073             -18.00     9600.00
02074             -24.00     9400.00
02075             -26.00     9200.00
02076             -22.00     9000.00
02077             -16.00     9000.00
02078             -10.00     8800.00
02079             -10.00     8600.00
02080             -22.00     8400.00
02081             -22.00     8200.00
02082             -22.00     8000.00
02083             -16.00     8000.00
02084             -10.00     8000.00
02085             -16.00     7600.00
02086             -18.00     7600.00
02087             -10.00     7400.00
02088             -14.00     7400.00
02089             -12.00     7200.00
02090             -18.00     7200.00
02091             -16.00     6800.00
02092             -12.00     6800.00
02093             -12.00     6600.00
02094             -16.00     6400.00
02095             -10.00     6000.00
02096             -14.00     5800.00
02097             -10.00     5600.00
02098             -14.00     5600.00
02099             -10.00     5400.00
02100             -10.00     5200.00
02101             -10.00     5000.00
02102             -18.00     4800.00
02103             -14.00     4600.00
02104              -8.00     4400.00
02105              -6.00     4200.00
02106              -8.00     4000.00
02107             -14.00     4000.00
02108             -14.00     3600.00
02109             -12.00     3400.00
02110             -10.00     3400.00
02111              -8.00     3200.00
02112               0.00     2800.00
02113              -6.00     2600.00
02114             -14.00     2800.00
02115             -14.00     2400.00
02116             -14.00     2000.00
02117              -2.00     2000.00
02118              -2.00     1600.00
02119              -6.00     1600.00
02120             -10.00     1200.00
02121             -10.00     1000.00
02122             -10.00     1000.00
02123              -8.00      800.00
02124              -2.00      400.00
02125               0.00      400.00
02126               0.00      200.00
02127              -2.00        0.00
02128               6.00     -200.00
02129              24.00     -400.00
02130               8.00     -400.00
02131             -16.00     -800.00
02132             -10.00     -800.00
02133               6.00    -1200.00
02134              14.00    -1200.00
02135              52.00    -1400.00
02136             208.00    -1600.00
02137             174.00    -2200.00
02138            -254.00    -2400.00
02139            -254.00    -2400.00
02140             -58.00    -2600.00
02141              62.00    -2600.00
02142             168.00    -2600.00
02143             246.00    -3200.00
02144            -242.00    -3200.00
02145            -120.00    -3200.00
02146             210.00    -4000.00
02147             -72.00    -3600.00
02148              34.00    -4000.00
02149             -10.00    -4400.00
02150               8.00    -4200.00
02151              90.00    -4800.00
02152             -82.00    -4800.00
02153             -38.00    -5200.00
02154             -26.00    -5000.00
02155              80.00    -5400.00
02156              66.00    -5600.00
02157             -78.00    -5600.00
02158              18.00    -6000.00
02159             -22.00    -6000.00
02160              42.00    -6200.00
02161              40.00    -6400.00
02162             -40.00    -6400.00
02163              14.00    -7000.00
02164              10.00    -6800.00
02165              24.00    -7200.00
02166             -26.00    -7200.00
02167              10.00    -7400.00
02168              24.00    -7600.00
02169               6.00    -7400.00
02170              24.00    -7800.00
02171             -22.00    -8000.00
02172              10.00    -8200.00
02173              32.00    -8400.00
02174              -2.00    -8400.00
02175              -2.00    -8800.00
02176              12.00    -8600.00
02177               8.00    -8800.00
02178              18.00    -9000.00
02179              18.00    -9200.00
02180               0.00    -9400.00
02181              10.00    -9400.00
02182              16.00    -9600.00
02183               6.00    -9600.00
02184              16.00    -9600.00
02185              16.00   -10000.00
02186               0.00   -10000.00
02187              12.00   -10200.00
02188               2.00   -10200.00
02189               8.00   -10400.00
02190              26.00   -10400.00
02191              16.00   -10600.00
02192               6.00   -10800.00
02193               8.00   -10800.00
02194               6.00   -10800.00
02195               8.00   -11000.00
02196              14.00   -11200.00
02197              18.00   -11000.00
02198              18.00   -11200.00
02199              16.00   -11200.00
02200               2.00   -11400.00
02201               6.00   -11400.00
02202              16.00   -11400.00
02203              14.00   -11600.00
02204              22.00   -11600.00
02205              18.00   -11600.00
02206               8.00   -11800.00
02207              10.00   -11800.00
02208              10.00   -11800.00
02209               6.00   -11800.00
02210              16.00   -11800.00
02211              24.00   -12000.00
02212              22.00   -11800.00
02213              22.00   -12000.00
02214               6.00   -12000.00
02215              -4.00   -12000.00
02216              12.00   -12000.00
02217              26.00   -12000.00
02218              26.00   -12000.00
02219              16.00   -12000.00
02220               4.00   -12000.00
02221               8.00   -12000.00
02222              16.00   -12000.00
02223              22.00   -12000.00
02224              20.00   -12000.00
02225              16.00   -12000.00
02226              14.00   -12000.00
02227               8.00   -12000.00
02228              14.00   -12000.00
02229              20.00   -12000.00
02230              16.00   -12000.00
02231              16.00   -12000.00
02232              16.00   -12000.00
02233              14.00   -12000.00
02234              16.00   -11800.00
02235              16.00   -11800.00
02236              16.00   -11800.00
02237              14.00   -11800.00
02238              10.00   -11600.00
02239               8.00   -11600.00
02240              16.00   -11600.00
02241              22.00   -11600.00
02242              18.00   -11400.00
02243              16.00   -11200.00
02244               8.00   -11200.00
02245               8.00   -11200.00
02246              18.00   -11200.00
02247              16.00   -11000.00
02248              14.00   -11000.00
02249              10.00   -11000.00
02250              10.00   -10800.00
02251              16.00   -10800.00
02252              18.00   -10800.00
02253              10.00   -10600.00
02254               6.00   -10400.00
02255               6.00   -10400.00
02256              14.00   -10200.00
02257              22.00   -10000.00
02258              18.00   -10000.00
02259               2.00    -9800.00
02260               0.00    -9800.00
02261               6.00    -9600.00
02262              14.00    -9400.00
02263              16.00    -9400.00
02264              14.00    -9200.00
02265               8.00    -9200.00
02266               6.00    -8800.00
02267               2.00    -8800.00
02268               8.00    -8800.00
02269              14.00    -8600.00
02270              14.00    -8400.00
02271               8.00    -8400.00
02272               6.00    -8400.00
02273               6.00    -8000.00
02274               6.00    -7800.00
02275              10.00    -7600.00
02276               8.00    -7600.00
02277              10.00    -7400.00
02278              10.00    -7200.00
02279               6.00    -7200.00
02280               2.00    -6800.00
02281               4.00    -6800.00
02282               6.00    -6800.00
02283               8.00    -6400.00
02284              10.00    -6200.00
02285               6.00    -6000.00
02286               6.00    -5800.00
02287               2.00    -5600.00
02288               2.00    -5600.00
02289               8.00    -5200.00
02290               8.00    -5200.00
02291               6.00    -5000.00
02292               6.00    -4800.00
02293              -2.00    -4800.00
02294               0.00    -4400.00
02295               6.00    -4400.00
02296               2.00    -4000.00
02297               2.00    -3800.00
02298               2.00    -3600.00
02299               4.00    -3600.00
02300               6.00    -3200.00
02301               2.00    -3200.00
02302              -2.00    -3000.00
02303               0.00    -2800.00
02304               0.00    -2600.00
02305               0.00    -2400.00
02306               0.00    -2000.00
02307               0.00    -2000.00
02308               0.00    -1600.00
02309               0.00    -1400.00
02310              -6.00    -1400.00
02311               0.00    -1200.00
02312               2.00     -800.00
02313               0.00     -800.00
02314              -2.00     -400.00
02315              -8.00     -400.00
02316              -6.00     -200.00
02317              -2.00      200.00
02318               0.00      200.00
02319               0.00      400.00
02320              18.00      600.00
02321              32.00      800.00
02322               6.00     1000.00
02323             -18.00     1200.00
02324             -16.00     1200.00
02325               6.00     1600.00
02326              32.00     1600.00
02327             190.00     2000.00
02328             246.00     2600.00
02329            -214.00     2400.00
02330            -254.00     2600.00
02331            -176.00     2800.00
02332              26.00     3000.00
02333             246.00     3200.00
02334             246.00     3600.00
02335            -254.00     3200.00
02336             -10.00     3800.00
02337             240.00     4000.00
02338            -224.00     4000.00
02339             118.00     4400.00
02340             -26.00     4400.00
02341             -34.00     4600.00
02342             144.00     4800.00
02343            -178.00     5200.00
02344             -42.00     5400.00
02345              38.00     5400.00
02346              42.00     5600.00
02347               6.00     5600.00
02348             -54.00     6000.00
02349              10.00     6200.00
02350             -74.00     6200.00
02351              88.00     6600.00
02352             -34.00     6600.00
02353             -74.00     6800.00
02354              34.00     7200.00
02355             -34.00     7000.00
02356              18.00     7400.00
02357             -72.00     7400.00
02358              16.00     7800.00
02359              12.00     8000.00
02360              46.00     8000.00
02361             -50.00     8200.00
02362             -40.00     8000.00
02363              -8.00     8800.00
02364             -36.00     8400.00
02365             -20.00     8800.00
02366             -16.00     9200.00
02367               8.00     9000.00
02368             -16.00     9200.00
02369               8.00     9200.00
02370             -32.00     9600.00
02371               0.00     9600.00
02372             -14.00     9800.00
02373             -38.00     9800.00
02374             -10.00    10000.00
02375             -26.00    10000.00
02376             -30.00    10200.00
02377             -26.00    10400.00
02378               0.00    10400.00
02379              -6.00    10400.00
02380              -2.00    10600.00
02381             -32.00    10600.00
02382             -24.00    10800.00
02383              -6.00    10800.00
02384             -26.00    11000.00
02385             -42.00    11200.00
02386             -30.00    11200.00
02387             -16.00    11200.00
02388              -8.00    11400.00
02389              -2.00    11600.00
02390             -18.00    11800.00
02391             -14.00    11800.00
02392             -24.00    12000.00
02393             -32.00    12000.00
02394             -28.00    11800.00
02395             -22.00    12000.00
02396             -26.00    12000.00
02397             -20.00    12000.00
02398             -20.00    12200.00
02399             -22.00    12200.00
02400             -10.00    12200.00
02401             -14.00    12200.00
02402             -16.00    12200.00
02403             -26.00    12400.00
02404             -34.00    12200.00
02405             -32.00    12400.00
02406             -24.00    12400.00
02407             -18.00    12400.00
02408             -10.00    12400.00
02409              -4.00    12400.00
02410             -18.00    12400.00
02411             -26.00    12600.00
02412             -34.00    12400.00
02413             -32.00    12400.00
02414             -18.00    12400.00
02415             -10.00    12400.00
02416             -12.00    12600.00
02417             -16.00    12400.00
02418             -32.00    12400.00
02419             -34.00    12400.00
02420             -18.00    12400.00
02421             -10.00    12400.00
02422              -8.00    12400.00
02423             -14.00    12400.00
02424             -30.00    12200.00
02425             -34.00    12200.00
02426             -30.00    12000.00
02427             -22.00    12200.00
02428              -8.00    12200.00
02429              -8.00    12200.00
02430             -18.00    12000.00
02431             -32.00    12000.00
02432             -32.00    12000.00
02433             -26.00    12000.00
02434             -16.00    11600.00
02435             -10.00    11800.00
02436             -14.00    11800.00
02437             -22.00    11600.00
02438             -26.00    11600.00
02439             -28.00    11400.00
02440             -22.00    11400.00
02441             -14.00    11400.00
02442             -14.00    11000.00
02443             -18.00    11000.00
02444             -24.00    11000.00
02445             -24.00    10800.00
02446             -24.00    10600.00
02447             -18.00    10400.00
02448             -16.00    10400.00
02449             -16.00    10400.00
02450             -16.00    10200.00
02451             -24.00    10000.00
02452             -26.00    10000.00
02453             -22.00     9800.00
02454             -16.00     9800.00
02455             -14.00     9600.00
02456             -16.00     9600.00
02457             -22.00     9600.00
02458             -18.00     9200.00
02459             -18.00     9200.00
02460             -22.00     9000.00
02461             -16.00     9000.00
02462             -16.00     8800.00
02463             -18.00     8600.00
02464             -18.00     8400.00
02465             -18.00     8200.00
02466             -16.00     8200.00
02467             -12.00     8000.00
02468             -16.00     8000.00
02469             -18.00     7600.00
02470             -16.00     7600.00
02471             -14.00     7400.00
02472             -16.00     7200.00
02473             -14.00     7200.00
02474             -16.00     6800.00
02475             -10.00     6800.00
02476             -14.00     6600.00
02477             -18.00     6400.00
02478             -16.00     6000.00
02479             -10.00     6000.00
02480             -10.00     6000.00
02481             -10.00     5600.00
02482             -10.00     5400.00
02483              -8.00     5400.00
02484             -10.00     5000.00
02485             -16.00     5000.00
02486             -16.00     4600.00
02487             -10.00     4600.00
02488              -8.00     4200.00
02489              -6.00     4000.00
02490              -8.00     4000.00
02491             -14.00     3600.00
02492             -14.00     3600.00
02493             -10.00     3400.00
02494              -6.00     3200.00
02495              -2.00     3000.00
02496              -6.00     2800.00
02497             -10.00     2800.00
02498             -14.00     2400.00
02499             -10.00     2200.00
02500              -4.00     2000.00
02501              -2.00     1800.00
02502              -6.00     1600.00
02503              -6.00     1400.00
02504              -8.00     1200.00
02505              -8.00     1000.00
02506             -10.00      800.00
02507              -8.00      600.00
02508               0.00      400.00
02509              -2.00      200.00
02510              -2.00        0.00
02511               0.00        0.00
02512              22.00     -400.00
02513              22.00     -400.00
02514              -8.00     -600.00
02515             -16.00     -800.00
02516               2.00    -1200.00
02517              14.00    -1200.00
02518              22.00    -1400.00
02519             112.00    -1400.00
02520             246.00    -2000.00
02521             -26.00    -2400.00
02522            -254.00    -2400.00
02523            -242.00    -2800.00
02524              46.00    -2800.00
02525              66.00    -2600.00
02526             246.00    -3000.00
02527              64.00    -3400.00
02528            -254.00    -3200.00
02529             128.00    -3800.00
02530              82.00    -3800.00
02531             -70.00    -3800.00
02532              54.00    -4400.00
02533             -48.00    -4000.00
02534              90.00    -4600.00
02535               2.00    -4800.00
02536             -80.00    -4800.00
02537             -20.00    -5200.00
02538               0.00    -5200.00
02539             122.00    -5600.00
02540             -34.00    -5400.00
02541             -34.00    -6000.00
02542              14.00    -6200.00
02543             -20.00    -5800.00
02544              72.00    -6400.00
02545             -14.00    -6200.00
02546             -14.00    -6800.00
02547              16.00    -7000.00
02548              20.00    -7000.00
02549               0.00    -7400.00
02550             -18.00    -7200.00
02551              34.00    -7400.00
02552               8.00    -7600.00
02553              22.00    -7800.00
02554               6.00    -8200.00
02555             -22.00    -8000.00
02556              32.00    -8400.00
02557              16.00    -8400.00
02558              -2.00    -8600.00
02559              12.00    -8800.00
02560              10.00    -8800.00
02561              16.00    -8800.00
02562              22.00    -9200.00
02563               6.00    -9400.00
02564               0.00    -9400.00
02565              16.00    -9400.00
02566              12.00    -9600.00
02567               6.00    -9800.00
02568              22.00    -9800.00
02569               8.00   -10000.00
02570              10.00   -10200.00
02571              16.00   -10200.00
02572               2.00   -10200.00
02573              20.00   -10400.00
02574              26.00   -10400.00
02575              10.00   -10600.00
02576               6.00   -10800.00
02577               6.00   -10800.00
02578               8.00   -11000.00
02579              22.00   -11000.00
02580              22.00   -11000.00
02581               8.00   -11200.00
02582              14.00   -11200.00
02583              14.00   -11400.00
02584               6.00   -11400.00
02585              10.00   -11400.00
02586              14.00   -11600.00
02587              16.00   -11600.00
02588              22.00   -11600.00
02589              10.00   -11800.00
02590               6.00   -11800.00
02591              16.00   -11800.00
02592              14.00   -11800.00
02593              14.00   -11800.00
02594              18.00   -12000.00
02595              16.00   -12000.00
02596              14.00   -12000.00
02597              14.00   -12000.00
02598               6.00   -12000.00
02599              14.00   -12000.00
02600              22.00   -12000.00
02601              16.00   -12000.00
02602              14.00   -12000.00
02603              14.00   -12000.00
02604               8.00   -12000.00
02605              16.00   -12000.00
02606              16.00   -12000.00
02607              16.00   -12000.00
02608              18.00   -12200.00
02609              16.00   -12000.00
02610               8.00   -12000.00
02611              12.00   -12000.00
02612              14.00   -12000.00
02613              18.00   -12000.00
02614              18.00   -12000.00
02615              14.00   -12000.00
02616              10.00   -12000.00
02617              14.00   -11800.00
02618               8.00   -11800.00
02619              14.00   -11800.00
02620              20.00   -11800.00
02621              18.00   -11800.00
02622              14.00   -11800.00
02623              12.00   -11600.00
02624              10.00   -11600.00
02625              10.00   -11600.00
02626              18.00   -11400.00
02627              18.00   -11400.00
02628              18.00   -11400.00
02629              14.00   -11200.00
02630              10.00   -11200.00
02631              14.00   -11200.00
02632              14.00   -11000.00
02633              14.00   -10800.00
02634              18.00   -10800.00
02635              16.00   -10800.00
02636               8.00   -10600.00
02637              10.00   -10600.00
02638               8.00   -10400.00
02639              10.00   -10200.00
02640              14.00   -10200.00
02641              14.00   -10000.00
02642              14.00   -10000.00
02643              10.00    -9800.00
02644               6.00    -9600.00
02645               8.00    -9600.00
02646               8.00    -9400.00
02647              14.00    -9400.00
02648              10.00    -9200.00
02649              10.00    -9200.00
02650               4.00    -8800.00
02651               6.00    -8800.00
02652              10.00    -8800.00
02653              10.00    -8600.00
02654              10.00    -8400.00
02655              10.00    -8400.00
02656               6.00    -8000.00
02657               2.00    -8000.00
02658               8.00    -7800.00
02659               6.00    -7800.00
02660               8.00    -7400.00
02661               8.00    -7400.00
02662               6.00    -7200.00
02663               6.00    -7000.00
02664               6.00    -7000.00
02665               4.00    -6600.00
02666               8.00    -6400.00
02667               8.00    -6400.00
02668               6.00    -6200.00
02669               2.00    -6000.00
02670               6.00    -6000.00
02671               6.00    -5600.00
02672               2.00    -5400.00
02673               2.00    -5200.00
02674               6.00    -5000.00
02675               4.00    -5000.00
02676               2.00    -4600.00
02677               2.00    -4600.00
02678               0.00    -4400.00
02679               0.00    -4000.00
02680               8.00    -4000.00
02681               8.00    -3600.00
02682              -2.00    -3600.00
02683              -2.00    -3400.00
02684               2.00    -3200.00
02685               0.00    -3000.00
02686               2.00    -2800.00
02687               4.00    -2600.00
02688              -2.00    -2400.00
02689               0.00    -2200.00
02690               0.00    -2200.00
02691               4.00    -2000.00
02692               2.00    -1600.00
02693              -6.00    -1400.00
02694              -8.00    -1200.00
02695               2.00    -1000.00
02696               6.00     -800.00
02697               6.00     -600.00
02698              -6.00     -400.00
02699              -2.00     -400.00
02700              -2.00        0.00
02701              -2.00        0.00
02702               2.00      400.00
02703               8.00      400.00
02704              30.00      800.00
02705              16.00      800.00
02706             -16.00     1000.00
02707             -20.00     1200.00
02708              10.00     1400.00
02709              26.00     1600.00
02710              80.00     2000.00
02711             246.00     2200.00
02712              68.00     2400.00
02713            -254.00     2400.00
02714            -254.00     2600.00
02715             -48.00     2800.00
02716             168.00     3000.00
02717             246.00     3400.00
02718            -130.00     3400.00
02719            -254.00     3400.00
02720             246.00     4000.00
02721             -48.00     3800.00
02722            -102.00     4200.00
02723             138.00     4400.00
02724            -138.00     4400.00
02725             128.00     4800.00
02726             -14.00     5000.00
02727            -166.00     5200.00
02728              38.00     5400.00
02729              20.00     5600.00
02730              48.00     5600.00
02731             -56.00     5600.00
02732              -2.00     6000.00
02733             -44.00     6000.00
02734             -16.00     6400.00
02735              78.00     6800.00
02736            -104.00     6600.00
02737               8.00     7000.00
02738               6.00     6800.00
02739             -10.00     7200.00
02740              -2.00     7400.00
02741             -48.00     7600.00
02742             -14.00     7600.00
02743               8.00     7800.00
02744              14.00     8000.00
02745             -50.00     8000.00
02746              -2.00     8400.00
02747             -10.00     8600.00
02748             -14.00     8800.00
02749              -8.00     8800.00
02750             -22.00     9000.00
02751             -26.00     9200.00
02752              -6.00     9400.00
02753               0.00     9600.00
02754             -26.00     9400.00
02755               0.00     9800.00
02756             -36.00     9800.00
02757             -20.00     9800.00
02758              -6.00    10000.00
02759             -14.00    10000.00
02760             -10.00    10200.00
02761             -18.00    10400.00
02762             -32.00    10400.00
02763             -26.00    10600.00
02764               0.00    10800.00
02765             -14.00    10800.00
02766             -14.00    10800.00
02767             -22.00    11000.00
02768             -32.00    11000.00
02769             -24.00    11200.00
02770             -14.00    11200.00
02771             -22.00    11200.00
02772             -14.00    11400.00
02773             -16.00    11400.00
02774             -26.00    11600.00
02775             -18.00    11800.00
02776             -26.00    11600.00
02777             -24.00    11800.00
02778             -14.00    12000.00
02779             -16.00    12000.00
02780             -24.00    12000.00
02781             -24.00    12000.00
02782             -26.00    12200.00
02783             -26.00    12200.00
02784             -16.00    12200.00
02785             -18.00    12200.00
02786             -18.00    12400.00
02787             -18.00    12200.00
02788             -32.00    12400.00
02789             -26.00    12200.00
02790             -22.00    12400.00
02791             -18.00    12400.00
02792             -14.00    12400.00
02793             -16.00    12400.00
02794             -26.00    12400.00
02795             -26.00    12800.00
02796             -24.00    12400.00
02797             -22.00    12400.00
02798             -16.00    12400.00
02799             -16.00    12400.00
02800             -22.00    12400.00
02801             -24.00    12400.00
02802             -26.00    12400.00
02803             -26.00    12400.00
02804             -18.00    12200.00
02805             -16.00    12400.00
02806             -16.00    12200.00
02807             -22.00    12200.00
02808             -26.00    12400.00
02809             -28.00    12200.00
02810             -20.00    12200.00
02811             -14.00    12000.00
02812             -16.00    12200.00
02813             -18.00    12000.00
02814             -26.00    12000.00
02815             -28.00    12000.00
02816             -22.00    12000.00
02817             -16.00    11800.00
02818             -16.00    11800.00
02819             -18.00    11800.00
02820             -18.00    11600.00
02821             -22.00    11600.00
02822             -24.00    11400.00
02823             -22.00    11400.00
02824             -16.00    11400.00
02825             -16.00    11200.00
02826             -16.00    11200.00
02827             -22.00    11000.00
02828             -24.00    10800.00
02829             -22.00    10800.00
02830             -20.00    10600.00
02831             -16.00    10600.00
02832             -16.00    10400.00
02833             -16.00    10400.00
02834             -24.00    10400.00
02835             -22.00    10200.00
02836             -20.00    10000.00
02837             -18.00     9800.00
02838             -16.00     9800.00
02839             -16.00     9600.00
02840             -22.00     9400.00
02841             -22.00     9200.00
02842             -22.00     9200.00
02843             -20.00     9200.00
02844             -16.00     8800.00
02845             -14.00     8800.00
02846             -16.00     8800.00
02847             -24.00     8600.00
02848             -24.00     8400.00
02849             -16.00     8200.00
02850             -16.00     8000.00
02851             -10.00     8000.00
02852             -14.00     7600.00
02853             -16.00     7600.00
02854             -16.00     7400.00
02855             -16.00     7200.00
02856             -16.00     7000.00
02857             -16.00     7000.00
02858             -14.00     6800.00
02859             -18.00     6400.00
02860             -18.00     6400.00
02861             -14.00     6200.00
02862             -14.00     6000.00
02863             -14.00     6000.00
02864             -10.00     5800.00
02865             -14.00     5600.00
02866              -8.00     5400.00
02867             -10.00     5400.00
02868             -16.00     5000.00
02869             -14.00     4800.00
02870             -10.00     4600.00
02871             -10.00     4400.00
02872             -10.00     4200.00
02873             -10.00     4000.00
02874              -8.00     4000.00
02875             -10.00     3800.00
02876             -16.00     3400.00
02877              -8.00     3200.00
02878              -2.00     3200.00
02879              -2.00     2800.00
02880             -10.00     2800.00
02881             -16.00     2600.00
02882             -16.00     2400.00
02883              -4.00     2000.00
02884               2.00     1800.00
02885               0.00     1800.00
02886              -6.00     1600.00
02887             -10.00     1200.00
02888             -10.00     1200.00
02889              -8.00     1000.00
02890              -8.00      800.00
02891               0.00      800.00
02892               6.00      400.00
02893               0.00      200.00
02894               0.00        0.00
02895               8.00     -400.00
02896              26.00     -400.00
02897              10.00     -600.00
02898             -10.00     -800.00
02899              -6.00    -1000.00
02900               8.00    -1200.00
02901              10.00    -1400.00
02902              48.00    -1400.00
02903             198.00    -1600.00
02904             184.00    -2200.00
02905            -242.00    -2400.00
02906            -254.00    -2600.00
02907             -68.00    -2600.00
02908              62.00    -2800.00
02909             150.00    -2600.00
02910             246.00    -3200.00
02911            -222.00    -3400.00
02912            -130.00    -3200.00
02913             214.00    -4000.00
02914             -70.00    -3600.00
02915              24.00    -4200.00
02916              -8.00    -4400.00
02917               0.00    -4200.00
02918              96.00    -4800.00
02919             -74.00    -4800.00
02920             -34.00    -5200.00
02921             -30.00    -5200.00
02922              68.00    -5400.00
02923              70.00    -5600.00
02924             -74.00    -5400.00
02925              18.00    -6000.00
02926             -24.00    -6000.00
02927              34.00    -6200.00
02928              48.00    -6600.00
02929             -38.00    -6400.00
02930              10.00    -6800.00
02931               8.00    -7000.00
02932              24.00    -7200.00
02933             -22.00    -7400.00
02934               8.00    -7400.00
02935              30.00    -7600.00
02936               8.00    -7600.00
02937              24.00    -8000.00
02938             -24.00    -8000.00
02939               2.00    -8400.00
02940              32.00    -8400.00
02941               4.00    -8400.00
02942               6.00    -8800.00
02943              14.00    -8800.00
02944              12.00    -9200.00
02945              18.00    -9200.00
02946               8.00    -9200.00
02947              -2.00    -9400.00
02948               8.00    -9400.00
02949              24.00    -9400.00
02950              14.00    -9600.00
02951              14.00    -9800.00
02952              16.00   -10000.00
02953               2.00   -10000.00
02954              14.00   -10200.00
02955               6.00   -10200.00
02956               8.00   -10400.00
02957              30.00   -10400.00
02958              22.00   -10600.00
02959               2.00   -10800.00
02960               6.00   -10800.00
02961               8.00   -10800.00
02962              14.00   -11000.00
02963              24.00   -10800.00
02964              14.00   -11200.00
02965              12.00   -11200.00
02966              22.00   -11200.00
02967               8.00   -11400.00
02968               6.00   -11400.00
02969              14.00   -11600.00
02970              10.00   -11600.00
02971              22.00   -11600.00
02972              18.00   -11600.00
02973               2.00   -11800.00
02974               6.00   -11800.00
02975              10.00   -11800.00
02976              14.00   -12000.00
02977              22.00   -11800.00
02978              20.00   -12000.00
02979               8.00   -12000.00
02980               6.00   -12000.00
02981              10.00   -12000.00
02982               8.00   -12000.00
02983              18.00   -12000.00
02984              18.00   -12000.00
02985              14.00   -12200.00
02986              16.00   -12000.00
02987              10.00   -12000.00
02988               8.00   -12000.00
02989              16.00   -12200.00
02990              16.00   -12000.00
02991              18.00   -12000.00
02992              16.00   -12000.00
02993               8.00   -12000.00
02994               6.00   -11800.00
02995              14.00   -12000.00
02996              16.00   -12000.00
02997              18.00   -12000.00
02998              18.00   -11800.00
02999              14.00   -11800.00
03000              10.00   -11800.00
03001               8.00   -11800.00
03002              14.00   -11800.00
03003              18.00   -11800.00
03004              16.00   -11600.00
03005              12.00   -11600.00
03006              10.00   -11600.00
03007              12.00   -11600.00
03008              16.00   -11600.00
03009              14.00   -11400.00
03010              18.00   -11200.00
03011              14.00   -11200.00
03012              14.00   -11200.00
03013              12.00   -11200.00
03014              10.00   -11200.00
03015              14.00   -11000.00
03016              16.00   -11000.00
03017              14.00   -10800.00
03018              14.00   -10800.00
03019              14.00   -10600.00
03020              14.00   -10400.00
03021              10.00   -10400.00
03022              10.00   -10200.00
03023              12.00   -10200.00
03024              16.00   -10200.00
03025              14.00   -10000.00
03026               8.00    -9800.00
03027               8.00    -9800.00
03028              10.00    -9600.00
03029               8.00    -9400.00
03030              14.00    -9400.00
03031              10.00    -9200.00
03032              10.00    -9200.00
03033              10.00    -9000.00
03034               6.00    -8800.00
03035               6.00    -8800.00
03036              10.00    -8600.00
03037              14.00    -8400.00
03038              10.00    -8400.00
03039               8.00    -8000.00
03040               2.00    -8000.00
03041               8.00    -7800.00
03042               8.00    -7600.00
03043               6.00    -7400.00
03044               8.00    -7400.00
03045               8.00    -7200.00
03046               6.00    -7000.00
03047               6.00    -7000.00
03048               6.00    -6800.00
03049               6.00    -6600.00
03050               8.00    -6400.00
03051               6.00    -6200.00
03052               6.00    -6200.00
03053               6.00    -6000.00
03054               0.00    -5800.00
03055               0.00    -5600.00
03056               0.00    -5400.00
03057               6.00    -5200.00
03058               8.00    -5000.00
03059               6.00    -4800.00
03060               0.00    -4600.00
03061               2.00    -4400.00
03062               0.00    -4400.00
03063               6.00    -4000.00
03064               2.00    -3800.00
03065               2.00    -3600.00
03066               6.00    -3400.00
03067               0.00    -3200.00
03068              -2.00    -3000.00
03069               2.00    -3000.00
03070               2.00    -2800.00
03071               4.00    -2600.00
03072               2.00    -2400.00
03073              -2.00    -2200.00
03074               0.00    -2000.00
03075               0.00    -1600.00
03076              -2.00    -1600.00
03077               2.00    -1200.00
03078               6.00    -1200.00
03079               0.00    -1000.00
03080              -2.00     -600.00
03081              -6.00     -600.00
03082              -2.00     -400.00
03083               0.00     -200.00
03084               0.00        0.00
03085               0.00      200.00
03086               4.00      400.00
03087              12.00      800.00
03088              30.00      800.00
03089               6.00     1000.00
03090             -14.00     1000.00
03091              -4.00     1200.00
03092               6.00     1600.00
03093              26.00     1800.00
03094             182.00     2000.00
03095             246.00     2400.00
03096            -194.00     2600.00
03097            -254.00     2600.00
03098            -184.00     2800.00
03099              22.00     2800.00
03100             246.00     3200.00
03101             246.00     3400.00
03102            -254.00     3200.00
03103             -34.00     3600.00
03104             246.00     4000.00
03105            -226.00     4000.00
03106             104.00     4400.00
03107             -10.00     4400.00
03108             -46.00     4400.00
03109             150.00     4800.00
03110            -174.00     5000.00
03111             -50.00     5400.00
03112              38.00     5400.00
03113              38.00     5800.00
03114               8.00     5600.00
03115             -56.00     6000.00
03116              16.00     6200.00
03117             -80.00     6200.00
03118              72.00     6600.00
03119             -16.00     6400.00
03120             -74.00     6800.00
03121              40.00     7000.00
03122             -32.00     7200.00
03123               2.00     7400.00
03124             -34.00     7400.00
03125             -26.00     7800.00
03126              -2.00     7800.00
03127              22.00     8000.00
03128             -26.00     8200.00
03129             -42.00     8200.00
03130               6.00     8400.00
03131             -24.00     8600.00
03132              -6.00     8800.00
03133             -20.00     9000.00
03134             -26.00     9200.00
03135             -26.00     9000.00
03136              10.00     9200.00
03137             -24.00     9400.00
03138             -14.00     9600.00
03139             -16.00     9800.00
03140             -40.00     9800.00
03141              -2.00    10000.00
03142             -12.00    10200.00
03143             -10.00    10400.00
03144             -16.00    10400.00
03145             -26.00    10400.00
03146             -38.00    10400.00
03147              -8.00    10600.00
03148              -4.00    10800.00
03149             -14.00    10800.00
03150             -16.00    11000.00
03151             -32.00    11200.00
03152             -30.00    11200.00
03153             -14.00    11200.00
03154             -14.00    11200.00
03155             -16.00    11400.00
03156             -14.00    11400.00
03157             -22.00    11400.00
03158             -20.00    11800.00
03159             -24.00    11800.00
03160             -30.00    11800.00
03161             -16.00    12000.00
03162             -14.00    12000.00
03163             -22.00    12000.00
03164             -26.00    12000.00
03165             -24.00    12000.00
03166             -24.00    12200.00
03167             -18.00    12200.00
03168             -18.00    12200.00
03169             -20.00    12200.00
03170             -18.00    12400.00
03171             -24.00    12400.00
03172             -26.00    12400.00
03173             -24.00    12200.00
03174             -22.00    12400.00
03175             -18.00    12400.00
03176             -16.00    12600.00
03177             -22.00    12400.00
03178             -24.00    12400.00
03179             -26.00    12400.00
03180             -24.00    12400.00
03181             -24.00    12400.00
03182             -16.00    12400.00
03183             -18.00    12400.00
03184             -24.00    12400.00
03185             -26.00    12400.00
03186             -30.00    12400.00
03187             -22.00    12400.00
03188             -16.00    12400.00
03189             -16.00    12400.00
03190             -22.00    12400.00
03191             -26.00    12200.00
03192             -26.00    12200.00
03193             -24.00    12400.00
03194             -16.00    12200.00
03195             -16.00    12200.00
03196             -18.00    12000.00
03197             -24.00    12000.00
03198             -26.00    12000.00
03199             -24.00    12000.00
03200             -22.00    12000.00
03201             -16.00    11800.00
03202             -16.00    11600.00
03203             -18.00    11600.00
03204             -24.00    11600.00
03205             -26.00    11400.00
03206             -26.00    11400.00
03207             -16.00    11400.00
03208             -14.00    11200.00
03209             -18.00    11200.00
03210             -22.00    11200.00
03211             -18.00    11000.00
03212             -24.00    10800.00
03213             -22.00    10600.00
03214             -22.00    10600.00
03215             -20.00    10600.00
03216             -10.00    10400.00
03217             -14.00    10400.00
03218             -24.00    10200.00
03219             -26.00    10000.00
03220             -24.00    10000.00
03221             -16.00     9800.00
03222              -6.00     9800.00
03223             -10.00     9600.00
03224             -24.00     9600.00
03225             -26.00     9400.00
03226             -24.00     9200.00
03227             -14.00     9000.00
03228             -10.00     8800.00
03229             -16.00     8600.00
03230             -18.00     8600.00
03231             -16.00     8400.00
03232             -22.00     8200.00
03233             -24.00     8000.00
03234             -16.00     8000.00
03235             -10.00     7800.00
03236             -10.00     7600.00
03237             -16.00     7600.00
03238             -22.00     7400.00
03239             -18.00     7200.00
03240             -14.00     7200.00
03241             -14.00     6800.00
03242             -12.00     6600.00
03243             -16.00     6600.00
03244             -24.00     6400.00
03245             -16.00     6400.00
03246              -6.00     6000.00
03247             -10.00     5800.00
03248             -16.00     5600.00
03249             -18.00     5600.00
03250             -16.00     5200.00
03251             -12.00     5200.00
03252             -10.00     5000.00
03253             -14.00     4800.00
03254             -10.00     4400.00
03255             -10.00     4400.00
03256             -10.00     4000.00
03257              -6.00     3800.00
03258              -8.00     3600.00
03259             -16.00     3600.00
03260             -10.00     3400.00
03261              -6.00     3200.00
03262              -6.00     3200.00
03263             -10.00     2800.00
03264             -18.00     2600.00
03265             -14.00     2600.00
03266               0.00     2400.00
03267               0.00     2000.00
03268               0.00     1800.00
03269              -6.00     1600.00
03270             -10.00     1600.00
03271              -8.00     1200.00
03272               0.00     1000.00
03273              -6.00      800.00
03274             -10.00      400.00
03275             -14.00      400.00
03276              -8.00      400.00
03277               8.00      200.00
03278              14.00        0.00
03279              22.00     -400.00
03280              18.00     -400.00
03281              -8.00     -600.00
03282             -16.00     -800.00
03283               2.00    -1000.00
03284              16.00    -1200.00
03285              24.00    -1400.00
03286             110.00    -1400.00
03287             246.00    -2000.00
03288             -10.00    -2400.00
03289            -254.00    -2400.00
03290            -254.00    -2600.00
03291              40.00    -2800.00
03292              64.00    -2800.00
03293             246.00    -2800.00
03294              90.00    -3400.00
03295            -254.00    -3200.00
03296             112.00    -3800.00
03297              88.00    -3800.00
03298             -68.00    -3600.00
03299              64.00    -4600.00
03300             -46.00    -4000.00
03301              80.00    -4800.00
03302               6.00    -4800.00
03303             -88.00    -4800.00
03304             -22.00    -5200.00
03305              -2.00    -5200.00
03306             122.00    -5600.00
03307             -22.00    -5400.00
03308             -32.00    -5800.00
03309              14.00    -6200.00
03310             -26.00    -6000.00
03311              66.00    -6400.00
03312             -12.00    -6400.00
03313             -10.00    -6800.00
03314              16.00    -7000.00
03315              18.00    -6800.00
03316              -2.00    -7400.00
03317             -26.00    -7200.00
03318              32.00    -7600.00
03319              10.00    -7600.00
03320              22.00    -7800.00
03321               8.00    -8000.00
03322             -22.00    -8000.00
03323              32.00    -8400.00
03324              16.00    -8400.00
03325             -10.00    -8800.00
03326               6.00    -8600.00
03327              12.00    -8800.00
03328              14.00    -9000.00
03329              22.00    -9200.00
03330               8.00    -9200.00
03331               0.00    -9400.00
03332              16.00    -9400.00
03333              10.00    -9600.00
03334               6.00    -9600.00
03335              22.00   -10000.00
03336              10.00   -10000.00
03337               8.00   -10200.00
03338              10.00   -10200.00
03339              -2.00   -10200.00
03340              16.00   -10200.00
03341              30.00   -10400.00
03342              10.00   -10600.00
03343              10.00   -10600.00
03344               8.00   -11000.00
03345               8.00   -10800.00
03346              20.00   -11000.00
03347              22.00   -11000.00
03348              10.00   -11200.00
03349              14.00   -11200.00
03350              14.00   -11200.00
03351               6.00   -11400.00
03352              16.00   -11600.00
03353              14.00   -11600.00
03354              14.00   -11600.00
03355              18.00   -11600.00
03356              10.00   -11800.00
03357               8.00   -11800.00
03358              16.00   -11800.00
03359              10.00   -11800.00
03360              16.00   -12000.00
03361              22.00   -12000.00
03362              14.00   -12000.00
03363               6.00   -12000.00
03364              10.00   -12000.00
03365               8.00   -12000.00
03366              16.00   -12000.00
03367              22.00   -12000.00
03368              16.00   -12000.00
03369              14.00   -12200.00
03370              10.00   -12000.00
03371               6.00   -12000.00
03372              14.00   -12000.00
03373              16.00   -12000.00
03374              18.00   -12000.00
03375              16.00   -12000.00
03376              12.00   -12000.00
03377              10.00   -12000.00
03378              10.00   -12000.00
03379              14.00   -12000.00
03380              16.00   -12000.00
03381              18.00   -12000.00
03382              16.00   -12000.00
03383              14.00   -12000.00
03384               8.00   -12000.00
03385               8.00   -12000.00
03386              14.00   -11800.00
03387              16.00   -11600.00
03388              18.00   -11800.00
03389              14.00   -11600.00
03390              12.00   -11600.00
03391              10.00   -11600.00
03392              10.00   -11200.00
03393              14.00   -11400.00
03394              18.00   -11400.00
03395              16.00   -11200.00
03396              16.00   -11200.00
03397              10.00   -11200.00
03398              10.00   -11000.00
03399              14.00   -11000.00
03400              14.00   -11000.00
03401              14.00   -10800.00
03402              16.00   -10600.00
03403              12.00   -10800.00
03404               8.00   -10400.00
03405              10.00   -10400.00
03406              10.00   -10200.00
03407              14.00   -10000.00
03408              16.00   -10000.00
03409              10.00   -10000.00
03410              14.00    -9600.00
03411              12.00    -9600.00
03412               8.00    -9600.00
03413               8.00    -9400.00
03414              10.00    -9400.00
03415              14.00    -9200.00
03416              18.00    -9200.00
03417              10.00    -8800.00
03418               4.00    -8600.00
03419               8.00    -8800.00
03420               8.00    -8400.00
03421              14.00    -8400.00
03422              14.00    -8200.00
03423               8.00    -8000.00
03424               2.00    -8000.00
03425               2.00    -8000.00
03426               2.00    -7600.00
03427              10.00    -7400.00
03428              14.00    -7400.00
03429              12.00    -7200.00
03430               6.00    -7000.00
03431              -2.00    -6800.00
03432               0.00    -6800.00
03433               6.00    -6400.00
03434               8.00    -6400.00
03435              10.00    -6200.00
03436              10.00    -6000.00
03437               2.00    -5800.00
03438               2.00    -5600.00
03439               2.00    -5400.00
03440               8.00    -5400.00
03441              10.00    -5200.00
03442               2.00    -4800.00
03443               0.00    -4800.00
03444               0.00    -4400.00
03445               2.00    -4400.00
03446               2.00    -4400.00
03447               6.00    -4000.00
03448               4.00    -3800.00
03449               2.00    -3600.00
03450               0.00    -3400.00
03451               0.00    -3200.00
03452               6.00    -3000.00
03453               2.00    -2800.00
03454               0.00    -2800.00
03455               0.00    -2400.00
03456              -2.00    -2400.00
03457               0.00    -2200.00
03458               0.00    -2000.00
03459               0.00    -1600.00
03460               0.00    -1400.00
03461               2.00    -1200.00
03462               0.00    -1000.00
03463               0.00     -800.00
03464              -2.00     -600.00
03465              -2.00     -600.00
03466              -2.00     -200.00
03467               0.00        0.00
03468               0.00      200.00
03469               4.00      400.00
03470               6.00      400.00
03471              26.00      600.00
03472              22.00      800.00
03473              -2.00     1000.00
03474             -14.00     1200.00
03475               0.00     1400.00
03476              12.00     1600.00
03477              80.00     1800.00
03478             246.00     2200.00
03479              94.00     2400.00
03480            -254.00     2600.00
03481            -254.00     2600.00
03482             -50.00     2800.00
03483             166.00     3000.00
03484             246.00     3400.00
03485            -104.00     3400.00
03486            -254.00     3400.00
03487             246.00     4000.00
03488             -30.00     3800.00
03489            -114.00     4200.00
03490             144.00     4400.00
03491            -128.00     4400.00
03492             122.00     4800.00
03493              -8.00     5000.00
03494            -176.00     5200.00
03495              34.00     5400.00
03496              18.00     5600.00
03497              50.00     5600.00
03498             -54.00     5800.00
03499               0.00     6000.00
03500             -42.00     6000.00
03501             -30.00     6400.00
03502              80.00     6600.00
03503             -98.00     6400.00
03504               8.00     6800.00
03505               6.00     7000.00
03506             -22.00     7200.00
03507              -6.00     7400.00
03508             -46.00     7600.00
03509             -10.00     7800.00
03510               8.00     7800.00
03511              12.00     8000.00
03512             -56.00     8000.00
03513             -10.00     8400.00
03514             -16.00     8400.00
03515             -16.00     8400.00
03516              -4.00     8800.00
03517             -22.00     9000.00
03518             -30.00     9000.00
03519              -8.00     9200.00
03520              -2.00     9400.00
03521             -26.00     9600.00
03522               0.00     9800.00
03523             -38.00     9800.00
03524             -22.00     9800.00
03525              -8.00    10000.00
03526             -14.00    10000.00
03527             -10.00    10400.00
03528             -16.00    10400.00
03529             -30.00    10600.00
03530             -24.00    10600.00
03531              -2.00    10800.00
03532             -16.00    10800.00
03533             -16.00    10800.00
03534             -22.00    11200.00
03535             -30.00    11200.00
03536             -22.00    11200.00
03537             -14.00    11400.00
03538             -22.00    11400.00
03539             -10.00    11400.00
03540             -14.00    11400.00
03541             -30.00    11800.00
03542             -26.00    11800.00
03543             -24.00    12000.00
03544              -6.00    11800.00
03545              -6.00    12000.00
03546             -26.00    12000.00
03547             -38.00    12000.00
03548             -24.00    12000.00
03549             -10.00    12200.00
03550             -16.00    12000.00
03551             -16.00    12200.00
03552             -26.00    12000.00
03553             -28.00    12200.00
03554             -24.00    12400.00
03555             -22.00    12200.00
03556             -16.00    12400.00
03557             -16.00    12200.00
03558             -24.00    12400.00
03559             -26.00    12400.00
03560             -24.00    12600.00
03561             -26.00    12400.00
03562             -18.00    12600.00
03563             -16.00    12400.00
03564             -22.00    12400.00
03565             -24.00    12400.00
03566             -22.00    12400.00
03567             -24.00    12400.00
03568             -24.00    12400.00
03569             -28.00    12400.00
03570             -26.00    12400.00
03571             -22.00    12400.00
03572             -16.00    12200.00
03573             -16.00    12400.00
03574             -16.00    12400.00
03575             -26.00    12200.00
03576             -32.00    12200.00
03577             -26.00    12200.00
03578             -18.00    12000.00
03579             -14.00    12000.00
03580             -14.00    12000.00
03581             -26.00    12000.00
03582             -32.00    12000.00
03583             -26.00    11800.00
03584             -16.00    11800.00
03585             -10.00    11800.00
03586             -14.00    11600.00
03587             -24.00    11800.00
03588             -26.00    11600.00
03589             -24.00    11400.00
03590             -18.00    11400.00
03591             -16.00    11200.00
03592             -16.00    11200.00
03593             -18.00    11000.00
03594             -18.00    11000.00
03595             -24.00    10800.00
03596             -24.00    10800.00
03597             -18.00    10600.00
03598             -18.00    10600.00
03599             -14.00    10400.00
03600             -16.00    10400.00
03601             -22.00    10400.00
03602             -24.00    10000.00
03603             -22.00    10000.00
03604             -18.00     9800.00
03605             -14.00     9600.00
03606             -16.00     9600.00
03607             -16.00     9600.00
03608             -20.00     9600.00
03609             -16.00     9200.00
03610             -18.00     9200.00
03611             -16.00     9000.00
03612             -16.00     8800.00
03613             -14.00     8600.00
03614             -16.00     8400.00
03615             -16.00     8400.00
03616             -16.00     8400.00
03617             -16.00     8200.00
03618             -14.00     8000.00
03619             -14.00     7800.00
03620             -16.00     7600.00
03621             -14.00     7400.00
03622             -18.00     7200.00
03623             -22.00     7200.00
03624             -16.00     6800.00
03625             -10.00     6800.00
03626             -10.00     6600.00
03627             -12.00     6400.00
03628             -18.00     6400.00
03629             -16.00     6000.00
03630             -12.00     6000.00
03631              -8.00     5600.00
03632              -8.00     5600.00
03633             -16.00     5400.00
03634             -26.00     5200.00
03635             -22.00     5000.00
03636             -10.00     4800.00
03637               2.00     4600.00
03638               0.00     4400.00
03639             -16.00     4200.00
03640             -26.00     4000.00
03641             -26.00     3800.00
03642             -10.00     3600.00
03643               6.00     3400.00
03644               4.00     3400.00
03645             -10.00     3000.00
03646             -20.00     3000.00
03647             -16.00     2800.00
03648              -8.00     2600.00
03649              -4.00     2400.00
03650              -8.00     2000.00
03651             -10.00     2000.00
03652              -2.00     1800.00
03653               0.00     1600.00
03654              -6.00     1400.00
03655             -14.00     1200.00
03656             -16.00     1000.00
03657              -8.00      800.00
03658               4.00      600.00
03659               8.00      400.00
03660               6.00      200.00
03661              -8.00        0.00
03662              -2.00     -400.00
03663              22.00     -400.00
03664              14.00     -400.00
03665              -4.00     -600.00
03666              -2.00    -1000.00
03667               0.00    -1000.00
03668               8.00    -1200.00
03669              46.00    -1600.00
03670             200.00    -1600.00
03671             196.00    -2200.00
03672            -234.00    -2400.00
03673            -254.00    -2600.00
03674             -74.00    -2800.00
03675              64.00    -2600.00
03676             144.00    -2600.00
03677             246.00    -3200.00
03678            -210.00    -3400.00
03679            -148.00    -3200.00
03680             216.00    -4000.00
03681             -62.00    -3600.00
03682              24.00    -4200.00
03683              -2.00    -4400.00
03684              -8.00    -4200.00
03685             100.00    -4800.00
03686             -74.00    -4800.00
03687             -42.00    -5200.00
03688             -26.00    -5200.00
03689              66.00    -5400.00
03690              80.00    -5600.00
03691             -74.00    -5400.00
03692              14.00    -6200.00
03693             -24.00    -6000.00
03694              30.00    -6200.00
03695              46.00    -6400.00
03696             -34.00    -6400.00
03697              16.00    -6800.00
03698              10.00    -6800.00
03699              22.00    -7200.00
03700             -30.00    -7200.00
03701               0.00    -7400.00
03702              30.00    -7600.00
03703               6.00    -7400.00
03704              30.00    -8000.00
03705             -22.00    -8000.00
03706               0.00    -8400.00
03707              32.00    -8400.00
03708              -6.00    -8600.00
03709               0.00    -8600.00
03710              14.00    -8800.00
03711              10.00    -9000.00
03712              18.00    -9200.00
03713              14.00    -9200.00
03714              -2.00    -9400.00
03715               8.00    -9400.00
03716              18.00    -9600.00
03717               6.00    -9600.00
03718              14.00    -9600.00
03719              22.00    -9800.00
03720               2.00   -10000.00
03721               8.00   -10200.00
03722               2.00   -10200.00
03723               6.00   -10400.00
03724              30.00   -10400.00
03725              22.00   -10600.00
03726               8.00   -10800.00
03727               8.00   -10800.00
03728               0.00   -11000.00
03729              14.00   -11000.00
03730              22.00   -11000.00
03731              18.00   -11200.00
03732              14.00   -11200.00
03733              10.00   -11200.00
03734               0.00   -11200.00
03735              14.00   -11400.00
03736              22.00   -11400.00
03737              18.00   -11600.00
03738              16.00   -11600.00
03739              14.00   -11800.00
03740               6.00   -11800.00
03741               8.00   -11800.00
03742              14.00   -11800.00
03743              16.00   -11800.00
03744              24.00   -12000.00
03745              22.00   -12000.00
03746              14.00   -12000.00
03747               8.00   -12000.00
03748               6.00   -12000.00
03749               8.00   -12000.00
03750              18.00   -12000.00
03751              24.00   -12000.00
03752              18.00   -12000.00
03753              14.00   -12200.00
03754               2.00   -12000.00
03755               8.00   -12000.00
03756              18.00   -12200.00
03757              22.00   -12000.00
03758              18.00   -12200.00
03759              12.00   -12000.00
03760               8.00   -12200.00
03761               8.00   -12200.00
03762              16.00   -12000.00
03763              16.00   -12000.00
03764              16.00   -12000.00
03765              16.00   -12000.00
03766              14.00   -12000.00
03767               8.00   -12000.00
03768              10.00   -12000.00
03769              14.00   -11800.00
03770              18.00   -11600.00
03771              14.00   -11800.00
03772              14.00   -11600.00
03773              12.00   -11600.00
03774              16.00   -11600.00
03775              14.00   -11600.00
03776              10.00   -11600.00
03777              14.00   -11600.00
03778              16.00   -11200.00
03779              16.00   -11200.00
03780              14.00   -11200.00
03781               8.00   -11000.00
03782              10.00   -11000.00
03783              14.00   -10800.00
03784              14.00   -10800.00
03785              16.00   -10800.00
03786              14.00   -10600.00
03787               6.00   -10800.00
03788               8.00   -10400.00
03789              14.00   -10400.00
03790              18.00   -10200.00
03791              22.00   -10000.00
03792              14.00   -10000.00
03793               8.00    -9800.00
03794               8.00    -9600.00
03795               6.00    -9400.00
03796              10.00    -9400.00
03797              16.00    -9400.00
03798              16.00    -9400.00
03799              14.00    -9000.00
03800               6.00    -9000.00
03801               2.00    -8800.00
03802              10.00    -8600.00
03803              14.00    -8600.00
03804              14.00    -8400.00
03805              10.00    -8400.00
03806              10.00    -8000.00
03807              10.00    -8000.00
03808               6.00    -7800.00
03809               2.00    -7800.00
03810              14.00    -7400.00
03811              16.00    -7200.00
03812              10.00    -7200.00
03813               8.00    -7000.00
03814               0.00    -6800.00
03815               2.00    -6800.00
03816               6.00    -6600.00
03817               6.00    -6400.00
03818              10.00    -6400.00
03819               8.00    -6000.00
03820               6.00    -5800.00
03821               6.00    -5800.00
03822               2.00    -5600.00
03823               6.00    -5400.00
03824               8.00    -5200.00
03825               2.00    -5200.00
03826               0.00    -4800.00
03827               2.00    -4600.00
03828               0.00    -4400.00
03829               2.00    -4200.00
03830               2.00    -4000.00
03831               2.00    -4000.00
03832               6.00    -3600.00
03833               2.00    -3600.00
03834              -2.00    -3400.00
03835               0.00    -3000.00
03836              -2.00    -2800.00
03837               0.00    -2800.00
03838               2.00    -2400.00
03839               0.00    -2400.00
03840               0.00    -2200.00
03841               0.00    -2000.00
03842              -2.00    -1800.00
03843              -2.00    -1600.00
03844               2.00    -1400.00
03845               2.00    -1200.00
03846               0.00     -800.00
03847              -6.00     -800.00
03848              -8.00     -600.00
03849              -6.00     -400.00
03850              -2.00     -200.00
03851               2.00      200.00
03852               2.00      400.00
03853               0.00      400.00
03854              10.00      600.00
03855              26.00      800.00
03856               8.00     1000.00
03857             -14.00     1000.00
03858              -8.00     1200.00
03859               8.00     1600.00
03860              26.00     1800.00
03861             176.00     2000.00
03862             246.00     2400.00
03863            -176.00     2400.00
03864            -254.00     2600.00
03865            -192.00     2800.00
03866              14.00     2800.00
03867             246.00     3200.00
03868             246.00     3400.00
03869            -254.00     3400.00
03870             -54.00     3600.00
03871             246.00     4000.00
03872            -226.00     4000.00
03873              96.00     4400.00
03874               2.00     4400.00
03875             -50.00     4600.00
03876             158.00     4800.00
03877            -170.00     5000.00
03878             -64.00     5400.00
03879              38.00     5400.00
03880              40.00     5800.00
03881              14.00     5600.00
03882             -56.00     6000.00
03883              12.00     6200.00
03884             -88.00     6000.00
03885              66.00     6600.00
03886             -10.00     6600.00
03887             -80.00     6800.00
03888              42.00     7000.00
03889             -28.00     7200.00
03890               6.00     7400.00
03891             -32.00     7400.00
03892             -32.00     7800.00
03893              -2.00     7600.00
03894              22.00     8000.00
03895             -26.00     8000.00
03896             -42.00     8200.00
03897               4.00     8400.00
03898             -24.00     8400.00
03899              -6.00     8800.00
03900             -20.00     9000.00
03901             -26.00     9200.00
03902             -28.00     9200.00
03903               8.00     9200.00
03904             -18.00     9600.00
03905             -16.00     9600.00
03906             -18.00     9800.00
03907             -44.00     9800.00
03908             -10.00    10000.00
03909             -14.00    10200.00
03910              -6.00    10200.00
03911             -10.00    10400.00
03912             -24.00    10400.00
03913             -38.00    10600.00
03914              -8.00    10800.00
03915              -2.00    10800.00
03916             -18.00    10800.00
03917             -18.00    11000.00
03918             -32.00    11200.00
03919             -26.00    11200.00
03920             -10.00    11400.00
03921             -10.00    11200.00
03922             -18.00    11400.00
03923             -16.00    11800.00
03924             -26.00    11600.00
03925             -22.00    11800.00
03926             -16.00    11800.00
03927             -26.00    11800.00
03928             -18.00    12000.00
03929             -10.00    12000.00
03930             -22.00    12000.00
03931             -24.00    12000.00
03932             -22.00    12000.00
03933             -26.00    12200.00
03934             -18.00    12200.00
03935             -10.00    12200.00
03936             -16.00    12200.00
03937             -18.00    12400.00
03938             -26.00    12400.00
03939             -28.00    12400.00
03940             -18.00    12400.00
03941             -16.00    12400.00
03942             -18.00    12400.00
03943             -18.00    12200.00
03944             -22.00    12200.00
03945             -26.00    12400.00
03946             -24.00    12400.00
03947             -26.00    12400.00
03948             -22.00    12400.00
03949             -14.00    12400.00
03950             -18.00    12400.00
03951             -24.00    12600.00
03952             -26.00    12400.00
03953             -30.00    12400.00
03954             -22.00    12400.00
03955             -16.00    12200.00
03956             -16.00    12400.00
03957             -18.00    12200.00
03958             -26.00    12400.00
03959             -30.00    12200.00
03960             -26.00    12200.00
03961             -20.00    12000.00
03962             -16.00    12200.00
03963             -18.00    12000.00
03964             -24.00    12000.00
03965             -30.00    12000.00
03966             -26.00    12000.00
03967             -24.00    12000.00
03968             -16.00    11600.00
03969             -14.00    11800.00
03970             -18.00    11800.00
03971             -26.00    11600.00
03972             -30.00    11400.00
03973             -26.00    11400.00
03974             -16.00    11400.00
03975             -10.00    11200.00
03976             -14.00    11200.00
03977             -20.00    11200.00
03978             -26.00    10800.00
03979             -26.00    10800.00
03980             -22.00    10600.00
03981             -16.00    10600.00
03982             -16.00    10600.00
03983             -16.00    10400.00
03984             -22.00    10200.00
03985             -20.00    10200.00
03986             -22.00    10000.00
03987             -24.00    10000.00
03988             -18.00     9800.00
03989             -10.00     9800.00
03990              -8.00     9600.00
03991             -14.00     9600.00
03992             -24.00     9400.00
03993             -26.00     9200.00
03994             -24.00     9000.00
03995             -10.00     9000.00
03996              -6.00     8800.00
03997             -10.00     8400.00
03998             -22.00     8600.00
03999             -22.00     8200.00
04000             -16.00     8000.00
04001             -12.00     8000.00
04002             -10.00     7800.00
04003             -14.00     7600.00
04004             -18.00     7600.00
04005             -18.00     7400.00
04006             -16.00     7200.00
04007             -10.00     7200.00
04008              -8.00     6800.00
04009             -10.00     6600.00
04010             -16.00     6600.00
04011             -22.00     6400.00
04012             -18.00     6200.00
04013             -10.00     6000.00
04014             -10.00     5800.00
04015             -10.00     5600.00
04016             -10.00     5600.00
04017             -16.00     5400.00
04018             -16.00     5200.00
04019             -14.00     5000.00
04020             -10.00     4600.00
04021             -10.00     4600.00
04022              -8.00     4400.00
04023             -10.00     4200.00
04024             -10.00     4000.00
04025             -14.00     3600.00
04026             -14.00     3600.00
04027             -10.00     3400.00
04028              -8.00     3200.00
04029              -6.00     2800.00
04030              -8.00     2800.00
04031             -10.00     2600.00
04032             -14.00     2400.00
04033             -10.00     2400.00
04034              -8.00     2000.00
04035              -2.00     1800.00
04036              -2.00     1600.00
04037              -8.00     1400.00
04038             -10.00     1200.00
04039             -10.00     1000.00
04040              -6.00      800.00
04041              -4.00      600.00
04042              -2.00      600.00
04043               0.00      200.00
04044               0.00        0.00
04045              -2.00        0.00
04046              16.00     -400.00
04047              22.00     -600.00
04048               0.00     -600.00
04049             -10.00     -800.00
04050               0.00    -1000.00
04051              10.00    -1200.00
04052              18.00    -1400.00
04053             104.00    -1600.00
04054             246.00    -2000.00
04055               4.00    -2400.00
04056            -254.00    -2400.00
04057            -254.00    -2800.00
04058              34.00    -2600.00
04059              60.00    -2800.00
04060             246.00    -2800.00
04061             106.00    -3600.00
04062            -254.00    -3200.00
04063             104.00    -3800.00
04064              98.00    -4000.00
04065             -70.00    -3600.00
04066              58.00    -4400.00
04067             -54.00    -4200.00
04068              82.00    -4600.00
04069              24.00    -4800.00
04070             -82.00    -4800.00
04071             -26.00    -5200.00
04072             -14.00    -5200.00
04073             124.00    -5600.00
04074             -20.00    -5600.00
04075             -46.00    -6000.00
04076              16.00    -6200.00
04077             -18.00    -6000.00
04078              74.00    -6600.00
04079             -14.00    -6400.00
04080             -24.00    -6800.00
04081              10.00    -7000.00
04082              20.00    -7000.00
04083              14.00    -7400.00
04084             -16.00    -7200.00
04085              32.00    -7600.00
04086              -2.00    -7800.00
04087               8.00    -7800.00
04088              10.00    -8000.00
04089             -14.00    -8000.00
04090              38.00    -8400.00
04091              14.00    -8400.00
04092             -16.00    -8600.00
04093               6.00    -8800.00
04094              10.00    -8800.00
04095              14.00    -9200.00
04096              18.00    -9000.00
04097               6.00    -9400.00
04098               0.00    -9400.00
04099              18.00    -9600.00
04100               8.00    -9600.00
04101               6.00    -9600.00
04102              22.00    -9600.00
04103               8.00   -10000.00
04104               6.00   -10200.00
04105              10.00   -10200.00
04106               0.00   -10400.00
04107              30.00   -10400.00
04108              30.00   -10400.00
04109               6.00   -10400.00
04110               0.00   -10800.00
04111               2.00   -10800.00
04112               8.00   -10800.00
04113              26.00   -11000.00
04114              24.00   -11200.00
04115              10.00   -11000.00
04116              10.00   -11200.00
04117               8.00   -11200.00
04118               8.00   -11600.00
04119              18.00   -11400.00
04120              18.00   -11600.00
04121              18.00   -11600.00
04122              22.00   -11600.00
04123               8.00   -11600.00
04124               6.00   -11800.00
04125              14.00   -11800.00
04126              16.00   -11800.00
04127              22.00   -12000.00
04128              22.00   -11800.00
04129              10.00   -12000.00
04130               8.00   -11800.00
04131              14.00   -12000.00
04132              18.00   -12000.00
04133              20.00   -12000.00
04134              18.00   -12000.00
04135              14.00   -12000.00
04136              14.00   -12000.00
04137              10.00   -12000.00
04138              14.00   -12000.00
04139              18.00   -12000.00
04140              22.00   -12200.00
04141              22.00   -12000.00
04142              14.00   -12200.00
04143              10.00   -12000.00
04144              10.00   -12000.00
04145              14.00   -12000.00
04146               8.00   -12000.00
04147              10.00   -12000.00
04148              16.00   -12000.00
04149              22.00   -12000.00
04150              20.00   -12000.00
04151              10.00   -12000.00
04152               0.00   -11800.00
04153               6.00   -11800.00
04154              16.00   -11800.00
04155              26.00   -11800.00
04156              24.00   -11600.00
04157              14.00   -11600.00
04158               2.00   -11600.00
04159               2.00   -11400.00
04160              12.00   -11400.00
04161              24.00   -11600.00
04162              22.00   -11400.00
04163              14.00   -11200.00
04164               6.00   -11200.00
04165               4.00   -11000.00
04166               8.00   -11000.00
04167              16.00   -10800.00
04168              20.00   -10800.00
04169              18.00   -10800.00
04170              10.00   -10600.00
04171               8.00   -10600.00
04172               8.00   -10400.00
04173              14.00   -10200.00
04174              10.00   -10200.00
04175              10.00   -10000.00
04176              14.00   -10000.00
04177              14.00   -10000.00
04178               8.00    -9600.00
04179               6.00    -9600.00
04180               8.00    -9400.00
04181              16.00    -9400.00
04182              16.00    -9200.00
04183               8.00    -9000.00
04184               6.00    -9000.00
04185               8.00    -8800.00
04186              12.00    -8800.00
04187              14.00    -8600.00
04188              10.00    -8400.00
04189              10.00    -8400.00
04190              10.00    -8000.00
04191               6.00    -8000.00
04192               6.00    -7800.00
04193               8.00    -7400.00
04194              10.00    -7400.00
04195              12.00    -7400.00
04196               8.00    -7200.00
04197               6.00    -7000.00
04198               6.00    -6800.00
04199               8.00    -6800.00
04200               6.00    -6600.00
04201              10.00    -6400.00
04202              12.00    -6200.00
04203               6.00    -6000.00
04204               2.00    -6000.00
04205               0.00    -5600.00
04206               2.00    -5600.00
04207               8.00    -5400.00
04208               6.00    -5200.00
04209               2.00    -5000.00
04210               0.00    -4800.00
04211               0.00    -4600.00
04212               0.00    -4400.00
04213               4.00    -4200.00
04214               6.00    -3800.00
04215               6.00    -3800.00
04216               2.00    -3600.00
04217               0.00    -3400.00
04218               0.00    -3200.00
04219               0.00    -3200.00
04220               0.00    -2800.00
04221               0.00    -2600.00
04222               0.00    -2400.00
04223               2.00    -2200.00
04224              -2.00    -2200.00
04225              -2.00    -2000.00
04226              -2.00    -1600.00
04227              -2.00    -1400.00
04228               0.00    -1200.00
04229               0.00    -1000.00
04230              -2.00     -800.00
04231              -2.00     -600.00
04232              -2.00     -400.00
04233              -2.00     -200.00
04234               0.00        0.00
04235               0.00      200.00
04236               2.00      400.00
04237               2.00      600.00
04238              22.00      800.00
04239              18.00      800.00
04240              -4.00     1000.00
04241             -14.00     1200.00
04242              -2.00     1600.00
04243              10.00     1600.00
04244              70.00     1800.00
04245             246.00     2000.00
04246             106.00     2400.00
04247            -254.00     2600.00
04248            -254.00     2600.00
04249             -58.00     2800.00
04250             150.00     3000.00
04251             246.00     3400.00
04252             -72.00     3200.00
04253            -254.00     3400.00
04254             246.00     4000.00
04255             -14.00     4000.00
04256            -122.00     4200.00
04257             152.00     4400.00
04258            -128.00     4400.00
04259             112.00     4800.00
04260               8.00     5000.00
04261            -176.00     5400.00
04262              34.00     5400.00
04263              18.00     5600.00
04264              50.00     5800.00
04265             -50.00     5800.00
04266              -2.00     6200.00
04267             -26.00     6000.00
04268             -30.00     6400.00
04269              78.00     6600.00
04270            -106.00     6600.00
04271               6.00     7000.00
04272              22.00     7000.00
04273             -16.00     7200.00
04274             -10.00     7400.00
04275             -52.00     7600.00
04276             -10.00     7800.00
04277              16.00     7800.00
04278              18.00     8000.00
04279             -56.00     8000.00
04280             -14.00     8400.00
04281             -10.00     8400.00
04282             -16.00     8600.00
04283             -10.00     8800.00
04284             -26.00     8800.00
04285             -26.00     9000.00
04286               0.00     9200.00
04287               6.00     9400.00
04288             -38.00     9600.00
04289             -14.00     9600.00
04290             -32.00     9800.00
04291             -14.00     9800.00
04292               0.00    10000.00
04293             -16.00    10000.00
04294             -18.00    10400.00
04295             -18.00    10400.00
04296             -26.00    10400.00
04297             -30.00    10400.00
04298               0.00    10800.00
04299             -14.00    10800.00
04300             -16.00    10800.00
04301             -24.00    11200.00
04302             -26.00    11200.00
04303             -14.00    11400.00
04304              -4.00    11200.00
04305             -26.00    11400.00
04306             -26.00    11400.00
04307             -24.00    11800.00
04308             -18.00    11600.00
04309              -2.00    11800.00
04310             -14.00    12000.00
04311             -34.00    11800.00
04312             -30.00    12000.00
04313             -12.00    12000.00
04314              -4.00    12000.00
04315             -10.00    12000.00
04316             -32.00    12000.00
04317             -38.00    12200.00
04318             -22.00    12200.00
04319             -14.00    12400.00
04320             -16.00    12200.00
04321             -14.00    12200.00
04322             -24.00    12400.00
04323             -26.00    12200.00
04324             -22.00    12400.00
04325             -18.00    12400.00
04326             -12.00    12400.00
04327             -14.00    12400.00
04328             -26.00    12400.00
04329             -30.00    12400.00
04330             -24.00    12400.00
04331             -18.00    12400.00
04332             -10.00    12400.00
04333             -10.00    12400.00
04334             -26.00    12400.00
04335             -34.00    12400.00
04336             -28.00    12400.00
04337             -24.00    12400.00
04338             -12.00    12400.00
04339             -12.00    12400.00
04340             -16.00    12200.00
04341             -22.00    12200.00
04342             -32.00    12200.00
04343             -32.00    12200.00
04344             -26.00    12200.00
04345             -16.00    12200.00
04346             -10.00    12200.00
04347             -16.00    12000.00
04348             -26.00    12000.00
04349             -36.00    12000.00
04350             -28.00    12000.00
04351             -18.00    11600.00
04352             -10.00    11800.00
04353             -10.00    11800.00
04354             -22.00    11600.00
04355             -30.00    11400.00
04356             -32.00    11400.00
04357             -26.00    11400.00
04358             -16.00    11400.00
04359             -10.00    11200.00
04360             -14.00    11200.00
04361             -18.00    11200.00
04362             -26.00    10800.00
04363             -32.00    10600.00
04364             -24.00    10400.00
04365             -16.00    10600.00
04366              -8.00    10400.00
04367             -10.00    10400.00
04368             -20.00    10400.00
04369             -28.00    10200.00
04370             -26.00    10000.00
04371             -22.00    10000.00
04372             -10.00     9800.00
04373             -10.00     9800.00
04374             -14.00     9600.00
04375             -20.00     9400.00
04376             -22.00     9200.00
04377             -22.00     9200.00
04378             -16.00     9000.00
04379             -10.00     8800.00
04380             -10.00     8800.00
04381             -16.00     8400.00
04382             -18.00     8400.00
04383             -18.00     8200.00
04384             -14.00     8000.00
04385             -12.00     7800.00
04386             -16.00     7800.00
04387             -14.00     7600.00
04388             -10.00     7600.00
04389             -18.00     7400.00
04390             -16.00     7200.00
04391             -16.00     6800.00
04392             -16.00     6800.00
04393             -10.00     6600.00
04394             -10.00     6400.00
04395             -16.00     6400.00
04396             -10.00     6000.00
04397             -12.00     6000.00
04398             -10.00     5800.00
04399             -14.00     5600.00
04400             -14.00     5400.00
04401             -16.00     5200.00
04402             -12.00     5000.00
04403             -10.00     4800.00
04404             -14.00     4800.00
04405             -10.00     4400.00
04406             -10.00     4200.00
04407             -14.00     4000.00
04408             -10.00     4000.00
04409             -10.00     3600.00
04410             -10.00     3600.00
04411              -8.00     3200.00
04412              -8.00     3200.00
04413              -6.00     3000.00
04414              -8.00     2600.00
04415             -10.00     2600.00
04416             -10.00     2400.00
04417              -8.00     2000.00
04418              -6.00     2000.00
04419              -2.00     1800.00
04420              -6.00     1600.00
04421              -8.00     1400.00
04422             -10.00     1200.00
04423             -10.00      800.00
04424              -8.00      800.00
04425              -4.00      600.00
04426               0.00      400.00
04427               0.00      200.00
04428              -2.00        0.00
04429               8.00        0.00
04430              24.00     -400.00
04431              10.00     -400.00
04432              -8.00     -600.00
04433              -8.00     -800.00
04434               6.00    -1000.00
04435              14.00    -1200.00
04436              42.00    -1400.00
04437             192.00    -1600.00
04438             200.00    -2200.00
04439            -220.00    -2400.00
04440            -254.00    -2400.00
04441             -86.00    -2800.00
04442              64.00    -2800.00
04443             142.00    -2400.00
04444             246.00    -3200.00
04445            -198.00    -3200.00
04446            -162.00    -3200.00
04447             214.00    -4000.00
04448             -58.00    -3600.00
04449              20.00    -4000.00
04450               6.00    -4400.00
04451              -8.00    -4400.00
04452              98.00    -4800.00
04453             -72.00    -4800.00
04454             -42.00    -5200.00
04455             -24.00    -5200.00
04456              66.00    -5200.00
04457              80.00    -5600.00
04458             -78.00    -5600.00
04459              16.00    -6000.00
04460             -16.00    -6000.00
04461              30.00    -6200.00
04462              50.00    -6400.00
04463             -38.00    -6400.00
04464              14.00    -6800.00
04465              10.00    -6800.00
04466              24.00    -7200.00
04467             -24.00    -7400.00
04468               2.00    -7200.00
04469              30.00    -7600.00
04470               4.00    -7400.00
04471              30.00    -7800.00
04472             -18.00    -7800.00
04473               2.00    -8200.00
04474              32.00    -8400.00
04475              -2.00    -8600.00
04476               2.00    -8800.00
04477              16.00    -8800.00
04478               8.00    -9000.00
04479              14.00    -9000.00
04480              16.00    -9200.00
04481               0.00    -9400.00
04482               4.00    -9400.00
04483              22.00    -9600.00
04484               6.00    -9600.00
04485              14.00   -10000.00
04486              18.00   -10000.00
04487               0.00   -10000.00
04488               8.00   -10000.00
04489               6.00   -10200.00
04490              10.00   -10200.00
04491              34.00   -10400.00
04492              20.00   -10600.00
04493              -6.00   -10800.00
04494               0.00   -10800.00
04495              10.00   -11000.00
04496              22.00   -10800.00
04497              30.00   -11000.00
04498              16.00   -11200.00
04499               6.00   -11200.00
04500              10.00   -11200.00
04501               6.00   -11200.00
04502              14.00   -11400.00
04503              24.00   -11200.00
04504              16.00   -11600.00
04505              10.00   -11600.00
04506               8.00   -11600.00
04507              10.00   -11800.00
04508              30.00   -11800.00
04509              24.00   -11800.00
04510               6.00   -11800.00
04511               6.00   -11800.00
04512              16.00   -11800.00
04513              22.00   -12000.00
04514              24.00   -12000.00
04515              10.00   -12000.00
04516               4.00   -12000.00
04517              18.00   -12000.00
04518              24.00   -12000.00
04519              22.00   -12000.00
04520              18.00   -12200.00
04521               8.00   -12000.00
04522               8.00   -12000.00
04523              14.00   -12000.00
04524              16.00   -12000.00
04525              20.00   -12200.00
04526              22.00   -12000.00
04527              18.00   -12000.00
04528              10.00   -12000.00
04529              12.00   -12000.00
04530              14.00   -11800.00
04531              16.00   -12000.00
04532              16.00   -12000.00
04533              14.00   -11800.00
04534              10.00   -12000.00
04535               8.00   -11800.00
04536               6.00   -11800.00
04537              16.00   -11800.00
04538              22.00   -11800.00
04539              18.00   -11600.00
04540              14.00   -11600.00
04541               8.00   -11800.00
04542               8.00   -11600.00
04543              14.00   -11600.00
04544              18.00   -11400.00
04545              16.00   -11200.00
04546              12.00   -11200.00
04547               8.00   -11200.00
04548               6.00   -11200.00
04549              14.00   -11000.00
04550              16.00   -11000.00
04551              14.00   -10800.00
04552              14.00   -10800.00
04553              10.00   -10600.00
04554               8.00   -10600.00
04555               8.00   -10400.00
04556              10.00   -10400.00
04557              14.00   -10200.00
04558              14.00   -10000.00
04559              12.00   -10000.00
04560              10.00   -10000.00
04561              10.00    -9600.00
04562               8.00    -9600.00
04563              10.00    -9600.00
04564              10.00    -9400.00
04565              14.00    -9400.00
04566              14.00    -9200.00
04567              10.00    -9000.00
04568               8.00    -8800.00
04569               6.00    -8800.00
04570               8.00    -8600.00
04571              10.00    -8400.00
04572              12.00    -8400.00
04573              10.00    -8000.00
04574               8.00    -8000.00
04575               6.00    -7800.00
04576               6.00    -7800.00
04577               8.00    -7600.00
04578              14.00    -7400.00
04579              10.00    -7200.00
04580               8.00    -7000.00
04581               6.00    -7000.00
04582               6.00    -6800.00
04583               8.00    -6400.00
04584              10.00    -6400.00
04585              10.00    -6200.00
04586               8.00    -6200.00
04587               6.00    -6000.00
04588               2.00    -5600.00
04589               2.00    -5400.00
04590               6.00    -5400.00
04591               8.00    -5200.00
04592               8.00    -5000.00
04593               6.00    -4800.00
04594               0.00    -4600.00
04595               0.00    -4400.00
04596               4.00    -4400.00
04597               4.00    -4000.00
04598               2.00    -4000.00
04599               6.00    -3600.00
04600               0.00    -3600.00
04601              -2.00    -3200.00
04602              -2.00    -3000.00
04603              -2.00    -2800.00
04604               2.00    -2800.00
04605               6.00    -2400.00
04606               2.00    -2400.00
04607              -2.00    -2200.00
04608              -6.00    -2000.00
04609              -2.00    -1800.00
04610              -2.00    -1600.00
04611               0.00    -1400.00
04612               0.00    -1000.00
04613              -2.00     -800.00
04614              -2.00     -800.00
04615              -4.00     -600.00
04616              -4.00     -400.00
04617               0.00     -200.00
04618               0.00        0.00
04619               0.00      200.00
04620               0.00      400.00
04621               8.00      600.00
04622              30.00      800.00
04623               6.00      800.00
04624             -10.00     1200.00
04625             -10.00     1400.00
04626               6.00     1600.00
04627              26.00     1800.00
04628             166.00     2000.00
04629             246.00     2400.00
04630            -162.00     2400.00
04631            -254.00     2600.00
04632            -202.00     2600.00
04633               8.00     2800.00
04634             246.00     3200.00
04635             246.00     3400.00
04636            -254.00     3200.00
04637             -74.00     3800.00
04638             246.00     4000.00
04639            -218.00     4000.00
04640              86.00     4400.00
04641              16.00     4400.00
04642             -62.00     4400.00
04643             164.00     5000.00
04644            -160.00     5000.00
04645             -66.00     5400.00
04646              42.00     5400.00
04647              38.00     5800.00
04648              16.00     5600.00
04649             -56.00     6000.00
04650              18.00     6000.00
04651             -80.00     6000.00
04652              66.00     6600.00
04653              -2.00     6600.00
04654             -80.00     6800.00
04655              46.00     7200.00
04656             -26.00     7000.00
04657               4.00     7200.00
04658             -32.00     7400.00
04659             -30.00     7800.00
04660               0.00     7600.00
04661              20.00     8000.00
04662             -24.00     8000.00
04663             -46.00     8200.00
04664               6.00     8400.00
04665             -24.00     8400.00
04666              -6.00     8800.00
04667             -16.00     8800.00
04668             -26.00     9000.00
04669             -26.00     9200.00
04670               6.00     9200.00
04671             -22.00     9400.00
04672             -16.00     9600.00
04673             -14.00     9800.00
04674             -42.00     9800.00
04675              -8.00    10000.00
04676             -14.00    10000.00
04677             -10.00    10200.00
04678             -14.00    10200.00
04679             -24.00    10400.00
04680             -40.00    10400.00
04681             -10.00    10600.00
04682              -2.00    10800.00
04683             -18.00    10800.00
04684             -16.00    11000.00
04685             -32.00    11000.00
04686             -32.00    11200.00
04687             -16.00    11200.00
04688             -10.00    11400.00
04689             -18.00    11400.00
04690             -12.00    11600.00
04691             -24.00    11800.00
04692             -22.00    11600.00
04693             -22.00    11800.00
04694             -24.00    12000.00
04695             -16.00    12000.00
04696             -10.00    11800.00
04697             -22.00    12000.00
04698             -24.00    12000.00
04699             -22.00    12000.00
04700             -26.00    12200.00
04701             -20.00    12000.00
04702             -14.00    12200.00
04703             -16.00    12200.00
04704             -18.00    12400.00
04705             -22.00    12400.00
04706             -28.00    12400.00
04707             -24.00    12400.00
04708             -16.00    12400.00
04709             -16.00    12400.00
04710             -14.00    12400.00
04711             -22.00    12400.00
04712             -26.00    12400.00
04713             -24.00    12400.00
04714             -22.00    12400.00
04715             -20.00    12400.00
04716             -16.00    12400.00
04717             -16.00    12400.00
04718             -24.00    12400.00
04719             -26.00    12400.00
04720             -26.00    12200.00
04721             -22.00    12600.00
04722             -14.00    12400.00
04723             -16.00    12400.00
04724             -20.00    12200.00
04725             -26.00    12400.00
04726             -26.00    12200.00
04727             -24.00    12200.00
04728             -22.00    12200.00
04729             -16.00    12000.00
04730             -16.00    12200.00
04731             -18.00    12000.00
04732             -26.00    12000.00
04733             -30.00    12000.00
04734             -26.00    11800.00
04735             -22.00    12000.00
04736             -20.00    11800.00
04737             -16.00    11600.00
04738             -18.00    11600.00
04739             -24.00    11400.00
04740             -26.00    11400.00
04741             -26.00    11400.00
04742             -20.00    11200.00
04743             -16.00    11200.00
04744             -18.00    11000.00
04745             -22.00    10800.00
04746             -26.00    10800.00
04747             -26.00    10600.00
04748             -24.00    10600.00
04749             -16.00    10600.00
04750             -16.00    10400.00
04751             -18.00    10400.00
04752             -22.00    10200.00
04753             -22.00    10000.00
04754             -22.00    10000.00
04755             -22.00     9800.00
04756             -14.00     9800.00
04757             -14.00     9600.00
04758             -18.00     9400.00
04759             -24.00     9200.00
04760             -22.00     9200.00
04761             -16.00     9000.00
04762             -16.00     9000.00
04763             -16.00     8800.00
04764             -16.00     8400.00
04765             -18.00     8400.00
04766             -18.00     8200.00
04767             -16.00     8200.00
04768             -14.00     8000.00
04769             -10.00     8000.00
04770             -14.00     7600.00
04771             -12.00     7400.00
04772             -16.00     7400.00
04773             -16.00     7200.00
04774             -14.00     7000.00
04775             -14.00     6800.00
04776             -16.00     6600.00
04777             -14.00     6600.00
04778             -10.00     6400.00
04779             -10.00     6400.00
04780             -14.00     6000.00
04781             -16.00     5800.00
04782             -18.00     5600.00
04783             -10.00     5400.00
04784              -6.00     5400.00
04785              -8.00     5200.00
04786             -16.00     4800.00
04787             -16.00     4800.00
04788             -14.00     4600.00
04789              -6.00     4400.00
04790              -8.00     4200.00
04791             -10.00     4000.00
04792             -10.00     3800.00
04793             -10.00     3400.00
04794             -10.00     3400.00
04795             -10.00     3200.00
04796             -10.00     3000.00
04797             -10.00     2800.00
04798              -8.00     2600.00
04799              -8.00     2400.00
04800              -6.00     2200.00
04801             -10.00     2000.00
04802             -10.00     2000.00
04803              -6.00     1600.00
04804              -6.00     1600.00
04805              -4.00     1200.00
04806              -6.00     1000.00
04807              -8.00     1000.00
04808              -8.00      600.00
04809              -6.00      400.00
04810              -2.00      200.00
04811               0.00      200.00
04812               2.00        0.00
04813              18.00     -400.00
04814              24.00     -400.00
04815              -2.00     -600.00
04816             -16.00     -800.00
04817              -6.00    -1000.00
04818               8.00    -1200.00
04819              22.00    -1400.00
04820             104.00    -1400.00
04821             246.00    -2000.00
04822              14.00    -2400.00
04823            -254.00    -2400.00
04824            -254.00    -2800.00
04825              34.00    -2800.00
04826              62.00    -2600.00
04827             246.00    -2800.00
04828             120.00    -3400.00
04829            -254.00    -3200.00
04830              90.00    -3600.00
04831             114.00    -4000.00
04832             -78.00    -3600.00
04833              62.00    -4400.00
04834             -46.00    -4200.00
04835              80.00    -4600.00
04836              24.00    -4800.00
04837             -88.00    -4800.00
04838             -20.00    -5200.00
04839              -8.00    -5200.00
04840             120.00    -5600.00
04841             -16.00    -5400.00
04842             -46.00    -6000.00
04843              22.00    -6200.00
04844             -22.00    -5800.00
04845              72.00    -6400.00
04846              -8.00    -6200.00
04847             -18.00    -6800.00
04848              16.00    -6800.00
04849              20.00    -6800.00
04850               6.00    -7200.00
04851             -24.00    -7200.00
04852              32.00    -7600.00
04853              12.00    -7600.00
04854              16.00    -7800.00
04855              10.00    -8000.00
04856             -24.00    -8000.00
04857              30.00    -8400.00
04858              22.00    -8400.00
04859              -8.00    -8600.00
04860               6.00    -8800.00
04861               8.00    -8800.00
04862              10.00    -9000.00
04863              18.00    -9200.00
04864               8.00    -9200.00
04865               2.00    -9600.00
04866              18.00    -9400.00
04867               8.00    -9800.00
04868               2.00    -9800.00
04869              20.00    -9800.00
04870               8.00   -10000.00
04871               6.00   -10200.00
04872              14.00   -10200.00
04873               0.00   -10400.00
04874              18.00   -10400.00
04875              26.00   -10400.00
04876               8.00   -10800.00
04877               6.00   -10600.00
04878               8.00   -11000.00
04879               6.00   -11000.00
04880              18.00   -11000.00
04881              24.00   -11000.00
04882              14.00   -11200.00
04883              14.00   -11200.00
04884               8.00   -11600.00
04885               2.00   -11400.00
04886              16.00   -11600.00
04887              22.00   -11600.00
04888              16.00   -11600.00
04889              18.00   -11600.00
04890              10.00   -11600.00
04891               6.00   -11800.00
04892              10.00   -11800.00
04893              14.00   -11800.00
04894              16.00   -12000.00
04895              22.00   -11800.00
04896              16.00   -12000.00
04897              10.00   -12000.00
04898              14.00   -12000.00
04899              10.00   -12000.00
04900              14.00   -12000.00
04901              22.00   -12000.00
04902              18.00   -12200.00
04903              16.00   -12000.00
04904              14.00   -12000.00
04905               6.00   -12200.00
04906              14.00   -12000.00
04907              18.00   -12000.00
04908              18.00   -12000.00
04909              18.00   -12000.00
04910              14.00   -12000.00
04911               8.00   -12000.00
04912              10.00   -12000.00
04913              14.00   -12000.00
04914              16.00   -12000.00
04915              20.00   -12000.00
04916              18.00   -12000.00
04917              10.00   -12000.00
04918              12.00   -12000.00
04919              14.00   -11800.00
04920              16.00   -11800.00
04921              20.00   -11800.00
04922              14.00   -11800.00
04923              14.00   -11600.00
04924              10.00   -11600.00
04925              14.00   -11600.00
04926              10.00   -11600.00
04927              12.00   -11400.00
04928              16.00   -11200.00
04929              16.00   -11200.00
04930              14.00   -11200.00
04931               8.00   -11200.00
04932               8.00   -11200.00
04933              10.00   -11000.00
04934              14.00   -11000.00
04935              14.00   -10800.00
04936              16.00   -10800.00
04937              10.00   -10600.00
04938               6.00   -10400.00
04939               8.00   -10400.00
04940               8.00   -10200.00
04941              16.00   -10200.00
04942              16.00   -10000.00
04943              10.00   -10000.00
04944               8.00    -9800.00
04945               6.00    -9600.00
04946               6.00    -9600.00
04947              10.00    -9400.00
04948              14.00    -9400.00
04949              10.00    -9200.00
04950              12.00    -9200.00
04951               8.00    -9000.00
04952               2.00    -8800.00
04953               8.00    -8600.00
04954              14.00    -8400.00
04955              14.00    -8400.00
04956              14.00    -8200.00
04957               6.00    -8000.00
04958               2.00    -8000.00
04959               2.00    -7800.00
04960               8.00    -7400.00
04961              14.00    -7400.00
04962              14.00    -7400.00
04963               8.00    -7200.00
04964               6.00    -7000.00
04965               2.00    -7000.00
04966               6.00    -6800.00
04967              10.00    -6400.00
04968              10.00    -6400.00
04969               8.00    -6000.00
04970               6.00    -6000.00
04971               2.00    -5800.00
04972               2.00    -5600.00
04973               6.00    -5400.00
04974               6.00    -5400.00
04975               8.00    -5000.00
04976               6.00    -4800.00
04977               2.00    -4600.00
04978               0.00    -4600.00
04979               0.00    -4400.00
04980               2.00    -4000.00
04981               6.00    -4000.00
04982               6.00    -3800.00
04983               6.00    -3600.00
04984               0.00    -3400.00
04985               0.00    -3200.00
04986              -2.00    -3000.00
04987               0.00    -2800.00
04988               4.00    -2600.00
04989               2.00    -2600.00
04990               0.00    -2200.00
04991              -2.00    -2000.00
04992              -4.00    -2000.00
04993              -2.00    -1600.00
04994               0.00    -1400.00
04995               2.00    -1400.00
04996               0.00    -1000.00
04997              -4.00     -800.00
04998              -6.00     -800.00
04999              -6.00     -400.00
05000               0.00     -200.00
