Unit:(mV)
                     CH1         CH2
Frequency              ? 260.723 kHz
00001               2.00    -3000.00
00002               6.00    -2800.00
00003               2.00    -2600.00
00004               2.00    -2400.00
00005               0.00    -2200.00
00006              -2.00    -2000.00
00007              -2.00    -2000.00
00008               0.00    -1600.00
00009               2.00    -1000.00
00010               2.00    -1200.00
00011              -2.00    -1000.00
00012              -2.00     -800.00
00013              -2.00     -400.00
00014              -2.00     -400.00
00015              -4.00     -200.00
00016               0.00        0.00
00017               2.00      200.00
00018               0.00      400.00
00019              10.00      600.00
00020              26.00      800.00
00021               8.00     1000.00
00022             -10.00     1200.00
00023             -10.00     1200.00
00024               6.00     1600.00
00025              32.00     1800.00
00026             206.00     2000.00
00027             246.00     2400.00
00028            -248.00     2400.00
00029            -254.00     2600.00
00030            -184.00     2800.00
00031              96.00     3000.00
00032             246.00     3400.00
00033             246.00     3400.00
00034            -254.00     3200.00
00035             -26.00     3600.00
00036             246.00     4000.00
00037            -162.00     4000.00
00038              88.00     4600.00
00039             -84.00     4400.00
00040             -22.00     4600.00
00041             176.00     5000.00
00042            -176.00     5400.00
00043             -78.00     5400.00
00044              32.00     5600.00
00045              64.00     5800.00
00046              -2.00     5600.00
00047             -56.00     6000.00
00048             -14.00     6200.00
00049             -72.00     6400.00
00050             102.00     6800.00
00051             -46.00     6600.00
00052             -72.00     7000.00
00053              38.00     7200.00
00054             -32.00     7200.00
00055               8.00     7600.00
00056             -42.00     7600.00
00057             -34.00     7800.00
00058               6.00     7800.00
00059              22.00     8200.00
00060             -48.00     8200.00
00061             -34.00     8400.00
00062               0.00     8400.00
00063             -28.00     8600.00
00064              -8.00     8800.00
00065             -26.00     9000.00
00066             -26.00     9000.00
00067             -26.00     9400.00
00068              -2.00     9600.00
00069             -26.00     9600.00
00070              -8.00     9800.00
00071             -26.00     9800.00
00072             -46.00     9800.00
00073             -10.00    10000.00
00074             -16.00    10200.00
00075              -8.00    10400.00
00076             -16.00    10600.00
00077             -38.00    10400.00
00078             -40.00    10600.00
00079              -8.00    10800.00
00080              -2.00    10800.00
00081             -14.00    10800.00
00082             -26.00    11200.00
00083             -46.00    11200.00
00084             -32.00    11400.00
00085             -14.00    11200.00
00086             -14.00    11600.00
00087             -16.00    11800.00
00088             -18.00    11800.00
00089             -30.00    11800.00
00090             -26.00    12000.00
00091             -32.00    12000.00
00092             -30.00    12000.00
00093             -16.00    12200.00
00094             -12.00    12200.00
00095             -24.00    12000.00
00096             -26.00    12000.00
00097             -32.00    12200.00
00098             -34.00    12400.00
00099             -24.00    12400.00
00100             -16.00    12400.00
00101             -16.00    12400.00
00102             -24.00    12600.00
00103             -36.00    12400.00
00104             -34.00    12600.00
00105             -22.00    12600.00
00106             -18.00    12600.00
00107             -22.00    12800.00
00108             -24.00    12600.00
00109             -30.00    12600.00
00110             -26.00    12600.00
00111             -26.00    12600.00
00112             -26.00    12800.00
00113             -26.00    12800.00
00114             -22.00    12800.00
00115             -24.00    12600.00
00116             -24.00    12800.00
00117             -28.00    12800.00
00118             -30.00    12600.00
00119             -26.00    12600.00
00120             -22.00    12400.00
00121             -24.00    12400.00
00122             -24.00    12400.00
00123             -30.00    12400.00
00124             -32.00    12400.00
00125             -30.00    12200.00
00126             -26.00    12200.00
00127             -20.00    12400.00
00128             -24.00    12200.00
00129             -26.00    12200.00
00130             -32.00    12200.00
00131             -30.00    12200.00
00132             -24.00    12000.00
00133             -22.00    12000.00
00134             -24.00    12000.00
00135             -26.00    11800.00
00136             -26.00    11800.00
00137             -30.00    11600.00
00138             -24.00    11800.00
00139             -22.00    11600.00
00140             -22.00    11400.00
00141             -22.00    11400.00
00142             -24.00    11200.00
00143             -26.00    11200.00
00144             -32.00    10800.00
00145             -26.00    10800.00
00146             -18.00    10800.00
00147             -18.00    10800.00
00148             -22.00    10600.00
00149             -24.00    10600.00
00150             -24.00    10400.00
00151             -26.00    10400.00
00152             -22.00    10000.00
00153             -16.00    10000.00
00154             -14.00     9800.00
00155             -20.00     9800.00
00156             -24.00     9600.00
00157             -26.00     9600.00
00158             -24.00     9200.00
00159             -16.00     9200.00
00160             -16.00     9000.00
00161             -18.00     9000.00
00162             -18.00     8800.00
00163             -18.00     8600.00
00164             -24.00     8400.00
00165             -24.00     8400.00
00166             -16.00     8200.00
00167             -16.00     8000.00
00168             -18.00     8000.00
00169             -14.00     7600.00
00170             -16.00     7400.00
00171             -24.00     7400.00
00172             -22.00     7200.00
00173             -16.00     7000.00
00174             -14.00     6800.00
00175             -14.00     6800.00
00176             -14.00     6400.00
00177             -12.00     6200.00
00178             -18.00     6000.00
00179             -26.00     6000.00
00180             -18.00     5800.00
00181             -10.00     5600.00
00182              -2.00     5600.00
00183              -8.00     5200.00
00184             -18.00     5000.00
00185             -26.00     4800.00
00186             -20.00     4800.00
00187              -8.00     4400.00
00188               0.00     4400.00
00189              -4.00     4000.00
00190             -22.00     4000.00
00191             -32.00     3600.00
00192             -22.00     3600.00
00193               2.00     3400.00
00194              14.00     3200.00
00195               0.00     2800.00
00196             -26.00     2800.00
00197             -32.00     2600.00
00198             -14.00     2200.00
00199               2.00     2000.00
00200               6.00     1800.00
00201              -8.00     1600.00
00202             -14.00     1400.00
00203             -14.00     1200.00
00204              -6.00     1000.00
00205              -2.00     1000.00
00206              -2.00      800.00
00207              -6.00      600.00
00208              -2.00      400.00
00209               0.00      200.00
00210               0.00        0.00
00211              22.00     -200.00
00212              24.00     -400.00
00213              -2.00     -800.00
00214             -16.00     -600.00
00215              -2.00    -1000.00
00216              14.00    -1200.00
00217              24.00    -1400.00
00218             116.00    -1600.00
00219             246.00    -2000.00
00220             -18.00    -2400.00
00221            -254.00    -2400.00
00222            -254.00    -2600.00
00223              80.00    -2600.00
00224             126.00    -2800.00
00225             246.00    -3000.00
00226              32.00    -3400.00
00227            -254.00    -3200.00
00228             130.00    -3800.00
00229             138.00    -3800.00
00230             -48.00    -3600.00
00231              26.00    -4600.00
00232             -66.00    -4000.00
00233             106.00    -4600.00
00234              30.00    -4800.00
00235             -96.00    -4800.00
00236             -40.00    -5200.00
00237              16.00    -5000.00
00238             142.00    -5600.00
00239             -26.00    -5400.00
00240             -50.00    -5800.00
00241               0.00    -6000.00
00242               6.00    -6000.00
00243              88.00    -6800.00
00244             -26.00    -6400.00
00245             -22.00    -6800.00
00246              14.00    -7000.00
00247              30.00    -7000.00
00248              16.00    -7400.00
00249             -32.00    -7200.00
00250              30.00    -7600.00
00251              20.00    -7800.00
00252              22.00    -7800.00
00253               2.00    -8400.00
00254             -16.00    -8000.00
00255              32.00    -8400.00
00256              24.00    -8400.00
00257              -6.00    -8800.00
00258               0.00    -8800.00
00259              18.00    -8800.00
00260              24.00    -9000.00
00261              14.00    -9200.00
00262               8.00    -9400.00
00263               2.00    -9600.00
00264              20.00    -9600.00
00265              18.00    -9600.00
00266               6.00    -9600.00
00267              18.00   -10000.00
00268              16.00   -10000.00
00269              12.00   -10200.00
00270              14.00   -10400.00
00271               8.00   -10400.00
00272              22.00   -10400.00
00273              32.00   -10800.00
00274              16.00   -10800.00
00275               8.00   -10800.00
00276               8.00   -11000.00
00277              14.00   -11000.00
00278              22.00   -11200.00
00279              22.00   -11000.00
00280              16.00   -11200.00
00281              20.00   -11200.00
00282              18.00   -11200.00
00283              10.00   -11600.00
00284              16.00   -11600.00
00285              22.00   -11600.00
00286              24.00   -11600.00
00287              22.00   -11800.00
00288              12.00   -11600.00
00289              10.00   -11800.00
00290              22.00   -12000.00
00291              22.00   -12000.00
00292              22.00   -12000.00
00293              20.00   -12000.00
00294              22.00   -12000.00
00295              22.00   -12000.00
00296              22.00   -12000.00
00297              16.00   -12200.00
00298              16.00   -12200.00
00299              26.00   -12000.00
00300              26.00   -12200.00
00301              22.00   -12200.00
00302              18.00   -12000.00
00303              14.00   -12000.00
00304              16.00   -12200.00
00305              22.00   -12200.00
00306              24.00   -12200.00
00307              22.00   -12200.00
00308              20.00   -12200.00
00309              14.00   -12400.00
00310              12.00   -12000.00
00311              16.00   -12200.00
00312              22.00   -12200.00
00313              26.00   -12000.00
00314              18.00   -12000.00
00315              14.00   -12000.00
00316              16.00   -12000.00
00317              22.00   -12000.00
00318              22.00   -12000.00
00319              20.00   -11800.00
00320              16.00   -11800.00
00321              18.00   -11800.00
00322              18.00   -11800.00
00323              16.00   -11600.00
00324              10.00   -11600.00
00325              16.00   -11400.00
00326              22.00   -11600.00
00327              24.00   -11400.00
00328              20.00   -11200.00
00329              14.00   -11200.00
00330              14.00   -11200.00
00331              14.00   -11000.00
00332              18.00   -11000.00
00333              18.00   -11000.00
00334              18.00   -10800.00
00335              16.00   -10800.00
00336              16.00   -10600.00
00337              14.00   -10400.00
00338              16.00   -10400.00
00339              18.00   -10200.00
00340              20.00   -10200.00
00341              22.00   -10000.00
00342              12.00   -10000.00
00343               4.00    -9600.00
00344              14.00    -9600.00
00345              22.00    -9600.00
00346              16.00    -9400.00
00347              20.00    -9200.00
00348              16.00    -9200.00
00349              14.00    -9000.00
00350              10.00    -8800.00
00351               8.00    -8800.00
00352              10.00    -8600.00
00353              16.00    -8400.00
00354              22.00    -8400.00
00355              24.00    -8000.00
00356               6.00    -8000.00
00357              -2.00    -7800.00
00358              12.00    -7600.00
00359              30.00    -7600.00
00360              20.00    -7200.00
00361               2.00    -7200.00
00362               0.00    -7200.00
00363              12.00    -6800.00
00364              14.00    -6800.00
00365               8.00    -6600.00
00366              10.00    -6400.00
00367              14.00    -6200.00
00368               8.00    -6000.00
00369               6.00    -5800.00
00370               6.00    -5600.00
00371               6.00    -5600.00
00372               6.00    -5200.00
00373               6.00    -5200.00
00374               6.00    -5000.00
00375               2.00    -4800.00
00376               8.00    -4600.00
00377               6.00    -4400.00
00378               2.00    -4200.00
00379              -2.00    -4000.00
00380               2.00    -3800.00
00381               6.00    -3600.00
00382               4.00    -3400.00
00383              -2.00    -3200.00
00384              -2.00    -3000.00
00385               2.00    -2800.00
00386               6.00    -2600.00
00387               6.00    -2600.00
00388              -4.00    -2400.00
00389              -8.00    -2200.00
00390              -6.00    -1800.00
00391               6.00    -1600.00
00392              10.00    -1600.00
00393               0.00    -1000.00
00394             -10.00    -1000.00
00395              -8.00     -800.00
00396               2.00     -600.00
00397               2.00     -400.00
00398               0.00     -200.00
00399              -2.00        0.00
00400              -2.00      200.00
00401               0.00      400.00
00402               2.00      400.00
00403              24.00      600.00
00404              24.00     1000.00
00405               0.00     1000.00
00406             -16.00     1200.00
00407              -6.00     1400.00
00408              10.00     1600.00
00409              78.00     1800.00
00410             246.00     2200.00
00411              96.00     2400.00
00412            -254.00     2600.00
00413            -254.00     2800.00
00414             -34.00     3000.00
00415             246.00     3000.00
00416             246.00     3600.00
00417            -202.00     3200.00
00418            -254.00     3400.00
00419             246.00     4200.00
00420              48.00     4000.00
00421             -90.00     4200.00
00422              88.00     4400.00
00423            -146.00     4800.00
00424             150.00     4800.00
00425              10.00     5000.00
00426            -208.00     5400.00
00427               4.00     5200.00
00428              42.00     5800.00
00429              24.00     5600.00
00430             -20.00     6000.00
00431               8.00     6400.00
00432             -26.00     6000.00
00433              -8.00     6800.00
00434              78.00     6600.00
00435            -122.00     6800.00
00436             -26.00     7200.00
00437             -30.00     7200.00
00438             -16.00     7200.00
00439              32.00     7600.00
00440             -48.00     7600.00
00441              -6.00     7800.00
00442              24.00     8000.00
00443              20.00     8200.00
00444             -74.00     8200.00
00445             -26.00     8400.00
00446             -24.00     8600.00
00447             -24.00     8800.00
00448             -24.00     9000.00
00449             -40.00     9000.00
00450             -10.00     9000.00
00451              18.00     9400.00
00452              -6.00     9600.00
00453             -40.00     9600.00
00454              -2.00     9800.00
00455             -40.00     9800.00
00456             -34.00    10000.00
00457             -32.00    10000.00
00458             -24.00    10200.00
00459              -8.00    10400.00
00460             -16.00    10600.00
00461             -34.00    10400.00
00462             -16.00    10800.00
00463              10.00    11000.00
00464             -18.00    10800.00
00465             -26.00    11000.00
00466             -42.00    11200.00
00467             -48.00    11200.00
00468             -30.00    11400.00
00469             -14.00    11400.00
00470             -10.00    11600.00
00471              -2.00    11600.00
00472             -14.00    11600.00
00473             -32.00    11800.00
00474             -26.00    12000.00
00475             -34.00    12000.00
00476             -32.00    12000.00
00477             -18.00    12000.00
00478             -16.00    12000.00
00479             -24.00    12200.00
00480             -18.00    12400.00
00481             -24.00    12400.00
00482             -26.00    12400.00
00483             -16.00    12200.00
00484             -24.00    12400.00
00485             -26.00    12600.00
00486             -30.00    12400.00
00487             -36.00    12600.00
00488             -26.00    12600.00
00489             -16.00    12600.00
00490             -18.00    12400.00
00491             -16.00    12600.00
00492             -20.00    12800.00
00493             -32.00    12800.00
00494             -34.00    12800.00
00495             -30.00    12800.00
00496             -24.00    12800.00
00497             -20.00    12800.00
00498             -16.00    12600.00
00499             -24.00    12600.00
00500             -26.00    12400.00
00501             -34.00    12600.00
00502             -30.00    12600.00
00503             -24.00    12600.00
00504             -22.00    12600.00
00505             -24.00    12400.00
00506             -26.00    12400.00
00507             -32.00    12400.00
00508             -30.00    12400.00
00509             -24.00    12400.00
00510             -20.00    12200.00
00511             -22.00    12200.00
00512             -26.00    12200.00
00513             -32.00    12200.00
00514             -32.00    12200.00
00515             -30.00    12000.00
00516             -26.00    12000.00
00517             -16.00    12000.00
00518             -16.00    12000.00
00519             -26.00    11800.00
00520             -32.00    11600.00
00521             -30.00    11800.00
00522             -24.00    11600.00
00523             -22.00    11800.00
00524             -18.00    11400.00
00525             -22.00    11200.00
00526             -24.00    11200.00
00527             -26.00    11200.00
00528             -26.00    11000.00
00529             -24.00    10800.00
00530             -22.00    10800.00
00531             -22.00    10800.00
00532             -18.00    10400.00
00533             -24.00    10400.00
00534             -28.00    10400.00
00535             -26.00    10200.00
00536             -20.00    10000.00
00537             -16.00    10000.00
00538             -16.00     9800.00
00539             -22.00     9600.00
00540             -30.00     9600.00
00541             -26.00     9600.00
00542             -24.00     9400.00
00543             -14.00     9200.00
00544             -14.00     9000.00
00545             -18.00     9000.00
00546             -22.00     8600.00
00547             -22.00     8600.00
00548             -22.00     8400.00
00549             -22.00     8200.00
00550             -14.00     8000.00
00551             -14.00     7800.00
00552             -14.00     7600.00
00553             -22.00     7600.00
00554             -22.00     7400.00
00555             -16.00     7200.00
00556             -14.00     7200.00
00557             -16.00     7000.00
00558             -16.00     6600.00
00559             -16.00     6600.00
00560             -18.00     6400.00
00561             -16.00     6200.00
00562             -16.00     6000.00
00563             -10.00     6000.00
00564             -14.00     5600.00
00565             -14.00     5400.00
00566             -14.00     5400.00
00567             -14.00     5200.00
00568             -16.00     5000.00
00569             -16.00     4800.00
00570             -10.00     4600.00
00571             -10.00     4400.00
00572             -10.00     4200.00
00573             -10.00     4000.00
00574             -14.00     3800.00
00575             -16.00     3600.00
00576             -10.00     3400.00
00577             -10.00     3200.00
00578             -10.00     3000.00
00579             -10.00     2800.00
00580             -14.00     2600.00
00581             -10.00     2400.00
00582              -8.00     2200.00
00583              -6.00     2000.00
00584              -4.00     1800.00
00585              -6.00     1600.00
00586             -10.00     1400.00
00587             -14.00     1200.00
00588              -8.00     1000.00
00589              -6.00     1000.00
00590              -4.00      800.00
00591              -2.00      400.00
00592              -2.00      200.00
00593               0.00      200.00
00594               8.00     -200.00
00595              26.00     -400.00
00596              12.00     -600.00
00597             -10.00     -600.00
00598             -16.00     -800.00
00599               6.00    -1000.00
00600              18.00    -1200.00
00601              48.00    -1400.00
00602             202.00    -1600.00
00603             210.00    -2200.00
00604            -250.00    -2400.00
00605            -254.00    -2400.00
00606             -82.00    -2800.00
00607             118.00    -2600.00
00608             176.00    -2600.00
00609             246.00    -3200.00
00610            -250.00    -3200.00
00611            -184.00    -3200.00
00612             246.00    -3800.00
00613             -16.00    -3600.00
00614              14.00    -4000.00
00615             -30.00    -4400.00
00616              -8.00    -4200.00
00617             134.00    -4800.00
00618             -64.00    -4800.00
00619             -70.00    -5200.00
00620             -32.00    -5000.00
00621              88.00    -5200.00
00622              92.00    -5600.00
00623             -80.00    -5600.00
00624              -2.00    -6200.00
00625             -16.00    -6000.00
00626              56.00    -6200.00
00627              50.00    -6600.00
00628             -44.00    -6400.00
00629              16.00    -7000.00
00630               8.00    -6800.00
00631              32.00    -7200.00
00632             -18.00    -7400.00
00633              -2.00    -7400.00
00634              38.00    -7600.00
00635              14.00    -7600.00
00636              22.00    -8000.00
00637             -16.00    -8000.00
00638               6.00    -8400.00
00639              34.00    -8600.00
00640               8.00    -8600.00
00641              -6.00    -8800.00
00642              14.00    -8800.00
00643              24.00    -9000.00
00644              16.00    -9000.00
00645              10.00    -9200.00
00646              10.00    -9600.00
00647              10.00    -9400.00
00648              20.00    -9600.00
00649               8.00   -10000.00
00650               8.00   -10000.00
00651              26.00   -10000.00
00652              14.00   -10200.00
00653              16.00   -10200.00
00654               6.00   -10200.00
00655              10.00   -10400.00
00656              26.00   -10600.00
00657              30.00   -10400.00
00658              18.00   -10800.00
00659              14.00   -10800.00
00660               8.00   -10800.00
00661               6.00   -11000.00
00662              22.00   -11000.00
00663              26.00   -11200.00
00664              24.00   -11200.00
00665              22.00   -11200.00
00666              14.00   -11600.00
00667               8.00   -11600.00
00668              18.00   -11400.00
00669              22.00   -11600.00
00670              24.00   -11600.00
00671              22.00   -11600.00
00672              10.00   -11800.00
00673              14.00   -12000.00
00674              22.00   -12000.00
00675              24.00   -12000.00
00676              24.00   -12000.00
00677              22.00   -11800.00
00678              14.00   -12200.00
00679              16.00   -12000.00
00680              22.00   -12200.00
00681              18.00   -12200.00
00682              22.00   -12000.00
00683              22.00   -12200.00
00684              16.00   -12200.00
00685              22.00   -12200.00
00686              18.00   -12200.00
00687              22.00   -12200.00
00688              24.00   -12000.00
00689              24.00   -12200.00
00690              18.00   -12200.00
00691              16.00   -12200.00
00692              16.00   -12200.00
00693              18.00   -12000.00
00694              22.00   -12200.00
00695              24.00   -12000.00
00696              18.00   -12000.00
00697              22.00   -12000.00
00698              14.00   -12000.00
00699              16.00   -12000.00
00700              18.00   -12000.00
00701              16.00   -11800.00
00702              22.00   -11800.00
00703              20.00   -12000.00
00704              16.00   -11800.00
00705              14.00   -11600.00
00706              14.00   -11800.00
00707              18.00   -11600.00
00708              20.00   -11600.00
00709              22.00   -11400.00
00710              18.00   -11600.00
00711              16.00   -11400.00
00712              12.00   -11200.00
00713              14.00   -11200.00
00714              18.00   -11200.00
00715              22.00   -11000.00
00716              18.00   -11000.00
00717              18.00   -10800.00
00718              16.00   -10800.00
00719              14.00   -10600.00
00720              12.00   -10600.00
00721              14.00   -10400.00
00722              16.00   -10400.00
00723              20.00   -10200.00
00724              18.00   -10000.00
00725              12.00   -10000.00
00726              10.00   -10000.00
00727              10.00    -9600.00
00728              16.00    -9600.00
00729              18.00    -9400.00
00730              16.00    -9200.00
00731              14.00    -9200.00
00732              14.00    -9200.00
00733               8.00    -8800.00
00734              10.00    -8800.00
00735              14.00    -8800.00
00736              16.00    -8400.00
00737              16.00    -8400.00
00738              14.00    -8200.00
00739              10.00    -8200.00
00740               8.00    -8000.00
00741              10.00    -7800.00
00742              14.00    -7400.00
00743              16.00    -7400.00
00744              14.00    -7400.00
00745               8.00    -7200.00
00746              10.00    -7000.00
00747              10.00    -6800.00
00748              10.00    -6800.00
00749               8.00    -6400.00
00750              14.00    -6400.00
00751              10.00    -6200.00
00752               8.00    -6000.00
00753               6.00    -6000.00
00754               6.00    -5600.00
00755               6.00    -5400.00
00756               8.00    -5200.00
00757              10.00    -5200.00
00758               8.00    -4800.00
00759               6.00    -4600.00
00760               2.00    -4400.00
00761               6.00    -4400.00
00762               2.00    -4000.00
00763               6.00    -4000.00
00764               6.00    -3800.00
00765               0.00    -3600.00
00766               2.00    -3200.00
00767               2.00    -3200.00
00768               2.00    -3000.00
00769               0.00    -2800.00
00770              -2.00    -2600.00
00771               2.00    -2400.00
00772               0.00    -2200.00
00773               0.00    -2200.00
00774              -2.00    -2000.00
00775               0.00    -1600.00
00776               0.00    -1400.00
00777               0.00    -1200.00
00778              -2.00    -1000.00
00779              -2.00     -800.00
00780              -2.00     -600.00
00781              -4.00     -400.00
00782              -2.00     -200.00
00783              -2.00        0.00
00784               0.00      200.00
00785               0.00      400.00
00786              10.00      600.00
00787              30.00      800.00
00788               8.00     1000.00
00789             -14.00     1200.00
00790             -10.00     1200.00
00791               8.00     1600.00
00792              28.00     1800.00
00793             174.00     2000.00
00794             246.00     2400.00
00795            -186.00     2400.00
00796            -254.00     2600.00
00797            -218.00     2800.00
00798              70.00     3000.00
00799             246.00     3200.00
00800             246.00     3600.00
00801            -254.00     3200.00
00802            -122.00     3800.00
00803             246.00     4000.00
00804            -144.00     4200.00
00805              62.00     4400.00
00806             -56.00     4400.00
00807             -64.00     4800.00
00808             200.00     5000.00
00809            -152.00     5400.00
00810            -106.00     5400.00
00811              34.00     5600.00
00812              64.00     5800.00
00813              14.00     5600.00
00814             -62.00     6000.00
00815              -6.00     6400.00
00816             -80.00     6200.00
00817              90.00     6800.00
00818             -18.00     6600.00
00819             -86.00     6800.00
00820              46.00     7200.00
00821             -30.00     7200.00
00822               8.00     7400.00
00823             -40.00     7600.00
00824             -42.00     8000.00
00825               8.00     7800.00
00826              32.00     8200.00
00827             -38.00     8200.00
00828             -54.00     8200.00
00829              -2.00     8800.00
00830             -24.00     8600.00
00831               0.00     9000.00
00832             -26.00     9000.00
00833             -32.00     9200.00
00834             -16.00     9200.00
00835               4.00     9600.00
00836             -34.00     9600.00
00837             -18.00     9800.00
00838             -16.00     9800.00
00839             -38.00    10000.00
00840             -10.00    10200.00
00841             -24.00    10200.00
00842             -14.00    10400.00
00843             -12.00    10400.00
00844             -26.00    10600.00
00845             -50.00    10600.00
00846             -26.00    10800.00
00847              -6.00    10800.00
00848               6.00    10800.00
00849             -16.00    11200.00
00850             -58.00    11200.00
00851             -48.00    11400.00
00852              -8.00    11400.00
00853              -6.00    11400.00
00854             -16.00    11800.00
00855             -24.00    11600.00
00856             -40.00    11800.00
00857             -32.00    11800.00
00858             -24.00    11800.00
00859             -18.00    12000.00
00860             -14.00    12000.00
00861             -22.00    12000.00
00862             -34.00    12000.00
00863             -30.00    12200.00
00864             -26.00    12200.00
00865             -32.00    12200.00
00866             -18.00    12400.00
00867              -8.00    12400.00
00868             -22.00    12400.00
00869             -34.00    12400.00
00870             -34.00    12600.00
00871             -24.00    12600.00
00872             -14.00    12800.00
00873             -26.00    12800.00
00874             -32.00    12600.00
00875             -22.00    12600.00
00876             -22.00    12800.00
00877             -24.00    12600.00
00878             -24.00    12800.00
00879             -26.00    12800.00
00880             -30.00    12800.00
00881             -26.00    12600.00
00882             -20.00    12800.00
00883             -18.00    12600.00
00884             -26.00    12800.00
00885             -32.00    12600.00
00886             -32.00    12800.00
00887             -24.00    12600.00
00888             -16.00    12400.00
00889             -14.00    12400.00
00890             -24.00    12400.00
00891             -38.00    12400.00
00892             -34.00    12400.00
00893             -24.00    12400.00
00894             -18.00    12200.00
00895             -22.00    12400.00
00896             -26.00    12000.00
00897             -30.00    12200.00
00898             -30.00    12000.00
00899             -26.00    12000.00
00900             -22.00    12000.00
00901             -18.00    12000.00
00902             -24.00    11800.00
00903             -30.00    12000.00
00904             -26.00    11800.00
00905             -24.00    11600.00
00906             -24.00    11600.00
00907             -24.00    11400.00
00908             -18.00    11200.00
00909             -24.00    11200.00
00910             -26.00    11200.00
00911             -32.00    11000.00
00912             -30.00    10800.00
00913             -18.00    10600.00
00914             -18.00    10600.00
00915             -22.00    10400.00
00916             -24.00    10600.00
00917             -30.00    10400.00
00918             -26.00    10200.00
00919             -22.00    10000.00
00920             -18.00    10000.00
00921             -16.00     9800.00
00922             -20.00     9800.00
00923             -24.00     9600.00
00924             -24.00     9600.00
00925             -22.00     9200.00
00926             -22.00     9200.00
00927             -22.00     9000.00
00928             -18.00     9000.00
00929             -22.00     8800.00
00930             -18.00     8800.00
00931             -24.00     8600.00
00932             -18.00     8200.00
00933             -16.00     8200.00
00934             -14.00     8000.00
00935             -16.00     8000.00
00936             -16.00     7600.00
00937             -18.00     7600.00
00938             -18.00     7400.00
00939             -18.00     7200.00
00940             -14.00     7000.00
00941             -14.00     6800.00
00942             -10.00     6600.00
00943             -18.00     6400.00
00944             -16.00     6400.00
00945             -16.00     6200.00
00946             -16.00     6000.00
00947             -10.00     5800.00
00948             -10.00     5600.00
00949             -14.00     5400.00
00950             -14.00     5200.00
00951             -18.00     5200.00
00952             -16.00     5000.00
00953             -10.00     4800.00
00954              -8.00     4600.00
00955             -10.00     4200.00
00956             -10.00     4200.00
00957             -14.00     4000.00
00958             -16.00     3600.00
00959             -10.00     3600.00
00960             -10.00     3200.00
00961              -8.00     3200.00
00962              -8.00     2800.00
00963             -10.00     2600.00
00964             -14.00     2600.00
00965             -10.00     2400.00
00966              -8.00     2000.00
00967              -6.00     2000.00
00968              -2.00     1800.00
00969             -10.00     1600.00
00970             -10.00     1400.00
00971              -6.00     1200.00
00972              -6.00     1000.00
00973              -6.00      800.00
00974              -6.00      600.00
00975              -2.00      200.00
00976               0.00      200.00
00977               0.00        0.00
00978              14.00     -200.00
00979              26.00     -400.00
00980               0.00     -800.00
00981             -18.00     -800.00
00982              -6.00     -800.00
00983              16.00    -1200.00
00984              22.00    -1400.00
00985              96.00    -1400.00
00986             246.00    -1800.00
00987              30.00    -2400.00
00988            -254.00    -2400.00
00989            -254.00    -2800.00
00990              58.00    -2800.00
00991             118.00    -2600.00
00992             246.00    -2800.00
00993             104.00    -3200.00
00994            -254.00    -3200.00
00995              78.00    -3600.00
00996             168.00    -4000.00
00997             -56.00    -3600.00
00998              32.00    -4400.00
00999             -64.00    -4200.00
01000              94.00    -4600.00
01001              54.00    -4800.00
01002            -102.00    -4800.00
01003             -40.00    -5200.00
01004               0.00    -5000.00
01005             140.00    -5600.00
01006              -2.00    -5400.00
01007             -56.00    -5600.00
01008               6.00    -6200.00
01009              -6.00    -6000.00
01010              86.00    -6600.00
01011             -10.00    -6200.00
01012             -24.00    -6800.00
01013              18.00    -7000.00
01014              24.00    -6800.00
01015              20.00    -7200.00
01016             -32.00    -7200.00
01017              26.00    -7600.00
01018              26.00    -7600.00
01019              22.00    -7800.00
01020              10.00    -8000.00
01021             -18.00    -8000.00
01022              30.00    -8600.00
01023              30.00    -8400.00
01024              -2.00    -8600.00
01025               0.00    -8800.00
01026              16.00    -8800.00
01027              24.00    -9200.00
01028              16.00    -9200.00
01029              12.00    -9400.00
01030               6.00    -9400.00
01031              14.00    -9600.00
01032              22.00    -9600.00
01033               8.00   -10000.00
01034              20.00   -10000.00
01035              16.00   -10200.00
01036              10.00   -10000.00
01037              14.00   -10200.00
01038               8.00   -10400.00
01039              16.00   -10400.00
01040              30.00   -10600.00
01041              18.00   -10800.00
01042               6.00   -11000.00
01043               8.00   -10800.00
01044              10.00   -11000.00
01045              18.00   -11000.00
01046              30.00   -11000.00
01047              18.00   -11200.00
01048              16.00   -11200.00
01049              16.00   -11400.00
01050              10.00   -11600.00
01051              16.00   -11600.00
01052              26.00   -11600.00
01053              22.00   -11600.00
01054              22.00   -11800.00
01055              16.00   -11800.00
01056              10.00   -12000.00
01057              16.00   -11800.00
01058              22.00   -12000.00
01059              20.00   -12000.00
01060              22.00   -12000.00
01061              18.00   -12000.00
01062              16.00   -12400.00
01063              20.00   -12200.00
01064              18.00   -12200.00
01065              18.00   -12200.00
01066              24.00   -12000.00
01067              24.00   -12200.00
01068              18.00   -12200.00
01069              16.00   -12200.00
01070              14.00   -12400.00
01071              18.00   -12200.00
01072              24.00   -12200.00
01073              22.00   -12200.00
01074              22.00   -12000.00
01075              18.00   -12000.00
01076              14.00   -12200.00
01077              16.00   -12000.00
01078              16.00   -12000.00
01079              22.00   -12000.00
01080              28.00   -12000.00
01081              24.00   -12000.00
01082              14.00   -12000.00
01083              12.00   -12000.00
01084              14.00   -12000.00
01085              22.00   -11800.00
01086              28.00   -11800.00
01087              26.00   -12000.00
01088              16.00   -11800.00
01089              14.00   -11600.00
01090              14.00   -11800.00
01091              14.00   -11600.00
01092              22.00   -11600.00
01093              24.00   -11600.00
01094              18.00   -11400.00
01095              16.00   -11200.00
01096              14.00   -11200.00
01097              14.00   -11200.00
01098              22.00   -11000.00
01099              22.00   -11000.00
01100              16.00   -11000.00
01101              18.00   -10800.00
01102              16.00   -10800.00
01103              16.00   -10600.00
01104              14.00   -10600.00
01105              16.00   -10400.00
01106              18.00   -10400.00
01107              18.00   -10200.00
01108              16.00   -10000.00
01109              14.00   -10000.00
01110               8.00   -10000.00
01111              12.00    -9600.00
01112              16.00    -9600.00
01113              16.00    -9400.00
01114              16.00    -9200.00
01115              14.00    -9200.00
01116              14.00    -9000.00
01117              10.00    -9000.00
01118              10.00    -8800.00
01119               8.00    -8600.00
01120              16.00    -8400.00
01121              16.00    -8400.00
01122              16.00    -8400.00
01123               8.00    -8000.00
01124               6.00    -8000.00
01125               8.00    -7800.00
01126              14.00    -7800.00
01127              18.00    -7400.00
01128              14.00    -7200.00
01129               6.00    -7000.00
01130               2.00    -7000.00
01131               6.00    -6800.00
01132              16.00    -6800.00
01133              22.00    -6600.00
01134              12.00    -6200.00
01135               2.00    -6000.00
01136               0.00    -5800.00
01137               6.00    -5600.00
01138              14.00    -5400.00
01139              14.00    -5400.00
01140               8.00    -5200.00
01141               2.00    -5000.00
01142               2.00    -4800.00
01143               2.00    -4600.00
01144              10.00    -4400.00
01145               8.00    -4200.00
01146               8.00    -4000.00
01147               2.00    -3800.00
01148               2.00    -3600.00
01149               2.00    -3600.00
01150               2.00    -3200.00
01151               2.00    -3000.00
01152               2.00    -2800.00
01153               2.00    -2800.00
01154               2.00    -2400.00
01155               0.00    -2400.00
01156               0.00    -2200.00
01157              -4.00    -2000.00
01158               0.00    -1600.00
01159               0.00    -1400.00
01160               2.00    -1400.00
01161               0.00    -1000.00
01162               0.00     -800.00
01163              -2.00     -800.00
01164              -2.00     -400.00
01165              -2.00     -400.00
01166              -2.00        0.00
01167               2.00      200.00
01168               2.00      400.00
01169               0.00      400.00
01170              16.00      600.00
01171              24.00      800.00
01172               2.00     1200.00
01173             -16.00     1200.00
01174              -6.00     1400.00
01175              10.00     1600.00
01176              64.00     1800.00
01177             246.00     2200.00
01178             148.00     2400.00
01179            -254.00     2400.00
01180            -254.00     2600.00
01181             -60.00     2800.00
01182             202.00     2800.00
01183             246.00     3400.00
01184             -80.00     3400.00
01185            -254.00     3400.00
01186             246.00     4000.00
01187             114.00     4000.00
01188            -122.00     4200.00
01189              96.00     4400.00
01190            -154.00     4400.00
01191             128.00     4800.00
01192              66.00     5000.00
01193            -210.00     5200.00
01194             -14.00     5400.00
01195              40.00     5800.00
01196              74.00     5800.00
01197             -48.00     5800.00
01198             -24.00     6400.00
01199             -54.00     6000.00
01200             -18.00     6400.00
01201             102.00     6800.00
01202            -104.00     6600.00
01203             -10.00     7000.00
01204              14.00     7200.00
01205             -22.00     7400.00
01206               0.00     7400.00
01207             -50.00     7600.00
01208             -16.00     8000.00
01209              22.00     8000.00
01210              14.00     8200.00
01211             -64.00     8200.00
01212             -16.00     8400.00
01213              -8.00     8800.00
01214             -10.00     8600.00
01215              -8.00     9200.00
01216             -32.00     9000.00
01217             -32.00     9200.00
01218              -6.00     9200.00
01219              -2.00     9600.00
01220             -32.00     9600.00
01221              -8.00     9800.00
01222             -42.00    10000.00
01223             -22.00    10000.00
01224             -10.00    10000.00
01225             -22.00    10200.00
01226             -14.00    10200.00
01227             -24.00    10400.00
01228             -42.00    10600.00
01229             -30.00    10600.00
01230              -2.00    10800.00
01231             -14.00    10800.00
01232             -16.00    11000.00
01233             -32.00    11200.00
01234             -40.00    11200.00
01235             -26.00    11400.00
01236             -14.00    11400.00
01237             -22.00    11400.00
01238             -16.00    11600.00
01239             -24.00    11800.00
01240             -32.00    11800.00
01241             -22.00    12000.00
01242             -30.00    11800.00
01243             -28.00    12000.00
01244             -16.00    12000.00
01245             -22.00    12000.00
01246             -26.00    12200.00
01247             -26.00    12200.00
01248             -32.00    12200.00
01249             -30.00    12400.00
01250             -18.00    12400.00
01251             -22.00    12400.00
01252             -18.00    12400.00
01253             -24.00    12600.00
01254             -34.00    12600.00
01255             -32.00    12400.00
01256             -26.00    12600.00
01257             -22.00    12400.00
01258             -20.00    12600.00
01259             -22.00    12800.00
01260             -28.00    12800.00
01261             -32.00    12800.00
01262             -28.00    12600.00
01263             -24.00    12600.00
01264             -22.00    12800.00
01265             -20.00    12800.00
01266             -24.00    12800.00
01267             -28.00    12600.00
01268             -32.00    12600.00
01269             -32.00    12800.00
01270             -24.00    12600.00
01271             -16.00    12600.00
01272             -16.00    12400.00
01273             -26.00    12400.00
01274             -32.00    12400.00
01275             -30.00    12400.00
01276             -26.00    12200.00
01277             -18.00    12400.00
01278             -18.00    12200.00
01279             -24.00    12200.00
01280             -30.00    12200.00
01281             -32.00    12200.00
01282             -26.00    12000.00
01283             -22.00    12000.00
01284             -18.00    12000.00
01285             -24.00    11800.00
01286             -26.00    11800.00
01287             -28.00    11600.00
01288             -26.00    11600.00
01289             -26.00    11400.00
01290             -24.00    11400.00
01291             -22.00    11400.00
01292             -22.00    11200.00
01293             -24.00    11200.00
01294             -26.00    11000.00
01295             -32.00    10800.00
01296             -24.00    10800.00
01297             -22.00    10800.00
01298             -22.00    10600.00
01299             -22.00    10600.00
01300             -26.00    10400.00
01301             -26.00    10400.00
01302             -26.00    10000.00
01303             -22.00    10000.00
01304             -18.00     9800.00
01305             -18.00     9800.00
01306             -22.00     9600.00
01307             -24.00     9400.00
01308             -26.00     9200.00
01309             -26.00     9200.00
01310             -18.00     9000.00
01311             -16.00     9000.00
01312             -16.00     8800.00
01313             -18.00     8800.00
01314             -24.00     8400.00
01315             -22.00     8400.00
01316             -18.00     8200.00
01317             -16.00     8000.00
01318             -16.00     8000.00
01319             -18.00     7800.00
01320             -16.00     7600.00
01321             -22.00     7400.00
01322             -16.00     7200.00
01323             -18.00     7000.00
01324             -14.00     7000.00
01325             -14.00     6800.00
01326             -16.00     6600.00
01327             -18.00     6400.00
01328             -16.00     6400.00
01329             -16.00     6200.00
01330             -14.00     6000.00
01331             -10.00     5800.00
01332             -10.00     5600.00
01333             -14.00     5400.00
01334             -16.00     5200.00
01335             -16.00     5000.00
01336             -10.00     4800.00
01337              -8.00     4600.00
01338              -8.00     4400.00
01339             -10.00     4200.00
01340             -14.00     4000.00
01341             -14.00     4000.00
01342             -14.00     3600.00
01343              -8.00     3400.00
01344              -8.00     3200.00
01345              -6.00     3000.00
01346              -4.00     2800.00
01347             -10.00     2600.00
01348             -10.00     2400.00
01349             -10.00     2200.00
01350              -8.00     2000.00
01351              -2.00     1800.00
01352              -2.00     1600.00
01353              -6.00     1400.00
01354             -10.00     1200.00
01355             -10.00     1000.00
01356              -8.00      800.00
01357              -4.00      600.00
01358               2.00      400.00
01359               0.00      200.00
01360               0.00        0.00
01361               2.00        0.00
01362              30.00     -400.00
01363              20.00     -400.00
01364              -8.00     -600.00
01365             -16.00     -800.00
01366               2.00    -1200.00
01367              14.00    -1200.00
01368              40.00    -1400.00
01369             184.00    -1600.00
01370             236.00    -2000.00
01371            -200.00    -2400.00
01372            -254.00    -2400.00
01373            -128.00    -2400.00
01374             118.00    -2800.00
01375             156.00    -2600.00
01376             246.00    -3000.00
01377            -194.00    -3600.00
01378            -240.00    -3200.00
01379             234.00    -4000.00
01380              14.00    -3600.00
01381              -2.00    -3800.00
01382             -10.00    -4400.00
01383             -24.00    -4200.00
01384             134.00    -4800.00
01385             -50.00    -4800.00
01386             -80.00    -5200.00
01387             -32.00    -5200.00
01388              74.00    -5200.00
01389             112.00    -5600.00
01390             -72.00    -5400.00
01391             -14.00    -6000.00
01392             -14.00    -6000.00
01393              48.00    -6200.00
01394              64.00    -6400.00
01395             -48.00    -6400.00
01396               8.00    -7000.00
01397              10.00    -7000.00
01398              38.00    -7200.00
01399             -12.00    -7400.00
01400             -10.00    -7400.00
01401              36.00    -7600.00
01402              16.00    -7800.00
01403              24.00    -8000.00
01404             -10.00    -8000.00
01405               0.00    -8400.00
01406              38.00    -8600.00
01407              14.00    -8400.00
01408              -6.00    -8800.00
01409               8.00    -8800.00
01410              22.00    -9000.00
01411              22.00    -9200.00
01412              16.00    -9200.00
01413               8.00    -9400.00
01414               6.00    -9600.00
01415              18.00    -9600.00
01416              16.00    -9600.00
01417              10.00   -10000.00
01418              18.00   -10000.00
01419               8.00   -10200.00
01420              14.00   -10200.00
01421              16.00   -10400.00
01422              10.00   -10400.00
01423              26.00   -10800.00
01424              22.00   -10600.00
01425              10.00   -10800.00
01426               8.00   -10800.00
01427              14.00   -11000.00
01428              16.00   -11200.00
01429              24.00   -11000.00
01430              22.00   -11200.00
01431              12.00   -11200.00
01432              18.00   -11600.00
01433              16.00   -11600.00
01434              14.00   -11600.00
01435              16.00   -11600.00
01436              16.00   -11600.00
01437              22.00   -11800.00
01438              24.00   -11800.00
01439              14.00   -12000.00
01440              10.00   -11800.00
01441              16.00   -12000.00
01442              18.00   -11800.00
01443              24.00   -12000.00
01444              24.00   -12000.00
01445              18.00   -12000.00
01446              16.00   -12200.00
01447              16.00   -12200.00
01448              14.00   -12000.00
01449              22.00   -12200.00
01450              26.00   -12400.00
01451              22.00   -12200.00
01452              20.00   -12400.00
01453              16.00   -12200.00
01454              16.00   -12200.00
01455              22.00   -12000.00
01456              24.00   -12400.00
01457              24.00   -12200.00
01458              22.00   -12000.00
01459              18.00   -12200.00
01460              14.00   -12200.00
01461              16.00   -12000.00
01462              22.00   -12000.00
01463              24.00   -12000.00
01464              24.00   -12000.00
01465              22.00   -12000.00
01466              18.00   -12000.00
01467              16.00   -12000.00
01468              18.00   -12000.00
01469              22.00   -12000.00
01470              24.00   -11800.00
01471              22.00   -11800.00
01472              18.00   -11800.00
01473              16.00   -11800.00
01474              16.00   -11600.00
01475              20.00   -11600.00
01476              22.00   -11600.00
01477              24.00   -11600.00
01478              16.00   -11600.00
01479              16.00   -11200.00
01480              14.00   -11200.00
01481              22.00   -11200.00
01482              18.00   -11000.00
01483              16.00   -11000.00
01484              18.00   -10800.00
01485              22.00   -10800.00
01486              16.00   -10800.00
01487              10.00   -10400.00
01488              10.00   -10400.00
01489              10.00   -10400.00
01490              22.00   -10200.00
01491              24.00   -10000.00
01492              10.00   -10000.00
01493               8.00    -9800.00
01494              10.00    -9800.00
01495              18.00    -9600.00
01496              18.00    -9600.00
01497               8.00    -9400.00
01498              14.00    -9200.00
01499              18.00    -9200.00
01500              10.00    -9000.00
01501               6.00    -8800.00
01502              14.00    -8800.00
01503              16.00    -8600.00
01504              16.00    -8600.00
01505              10.00    -8400.00
01506               6.00    -8200.00
01507               8.00    -8000.00
01508              14.00    -7800.00
01509              18.00    -7800.00
01510              16.00    -7400.00
01511               6.00    -7200.00
01512              -4.00    -7200.00
01513              12.00    -7000.00
01514              20.00    -6800.00
01515              14.00    -6600.00
01516               6.00    -6400.00
01517               8.00    -6200.00
01518              10.00    -6200.00
01519              14.00    -6000.00
01520               6.00    -5800.00
01521               6.00    -5600.00
01522              10.00    -5400.00
01523              14.00    -5200.00
01524              10.00    -5200.00
01525               6.00    -4800.00
01526               2.00    -4600.00
01527               6.00    -4600.00
01528               8.00    -4400.00
01529               6.00    -4200.00
01530               8.00    -4000.00
01531               8.00    -3600.00
01532               6.00    -3600.00
01533               6.00    -3400.00
01534               6.00    -3200.00
01535               0.00    -2800.00
01536               0.00    -2800.00
01537               8.00    -2600.00
01538               8.00    -2400.00
01539               6.00    -2200.00
01540              -2.00    -2200.00
01541              -6.00    -1800.00
01542              -2.00    -1600.00
01543               8.00    -1400.00
01544               6.00    -1200.00
01545               0.00    -1000.00
01546              -2.00     -800.00
01547             -10.00     -600.00
01548              -2.00     -600.00
01549               0.00     -200.00
01550               2.00        0.00
01551               0.00      200.00
01552               0.00      400.00
01553               8.00      600.00
01554              32.00      800.00
01555              14.00     1000.00
01556             -16.00     1000.00
01557             -16.00     1600.00
01558               6.00     1600.00
01559              26.00     1600.00
01560             152.00     1800.00
01561             246.00     2400.00
01562            -122.00     2400.00
01563            -254.00     2600.00
01564            -254.00     2800.00
01565              48.00     2800.00
01566             246.00     3200.00
01567             246.00     3400.00
01568            -254.00     3200.00
01569            -224.00     3600.00
01570             246.00     4000.00
01571            -120.00     4000.00
01572              32.00     4200.00
01573             -16.00     4400.00
01574             -94.00     4400.00
01575             208.00     5000.00
01576            -124.00     5200.00
01577            -134.00     5400.00
01578              30.00     5400.00
01579              62.00     5800.00
01580              30.00     5600.00
01581             -66.00     6000.00
01582              -2.00     6400.00
01583             -82.00     6000.00
01584              78.00     6800.00
01585              10.00     6600.00
01586            -104.00     6800.00
01587              38.00     7200.00
01588             -26.00     7200.00
01589               8.00     7400.00
01590             -30.00     7600.00
01591             -42.00     8000.00
01592               0.00     8000.00
01593              30.00     8000.00
01594             -30.00     8200.00
01595             -50.00     8200.00
01596               2.00     8800.00
01597             -24.00     8800.00
01598               0.00     9000.00
01599             -24.00     9000.00
01600             -32.00     9000.00
01601             -22.00     9200.00
01602               6.00     9400.00
01603             -24.00     9600.00
01604             -18.00     9600.00
01605             -18.00     9800.00
01606             -42.00     9800.00
01607              -6.00    10000.00
01608             -16.00    10200.00
01609             -14.00    10400.00
01610             -16.00    10400.00
01611             -30.00    10400.00
01612             -40.00    10600.00
01613             -10.00    10600.00
01614              -8.00    10800.00
01615             -18.00    10800.00
01616             -20.00    11000.00
01617             -38.00    11200.00
01618             -32.00    11200.00
01619             -18.00    11400.00
01620             -18.00    11800.00
01621             -18.00    11400.00
01622             -16.00    11800.00
01623             -30.00    11800.00
01624             -26.00    11800.00
01625             -22.00    12000.00
01626             -32.00    11800.00
01627             -22.00    12000.00
01628             -16.00    12200.00
01629             -26.00    12200.00
01630             -26.00    12200.00
01631             -30.00    12200.00
01632             -32.00    12200.00
01633             -26.00    12400.00
01634             -18.00    12400.00
01635             -22.00    12200.00
01636             -24.00    12400.00
01637             -30.00    12400.00
01638             -34.00    12600.00
01639             -26.00    12600.00
01640             -24.00    12800.00
01641             -24.00    12600.00
01642             -16.00    12800.00
01643             -26.00    12800.00
01644             -30.00    12800.00
01645             -26.00    12600.00
01646             -28.00    12600.00
01647             -26.00    12800.00
01648             -22.00    12800.00
01649             -26.00    12800.00
01650             -24.00    12800.00
01651             -30.00    12800.00
01652             -30.00    12600.00
01653             -26.00    12600.00
01654             -24.00    12400.00
01655             -18.00    12600.00
01656             -16.00    12400.00
01657             -26.00    12400.00
01658             -32.00    12400.00
01659             -34.00    12200.00
01660             -30.00    12400.00
01661             -18.00    12400.00
01662             -12.00    12400.00
01663             -22.00    12000.00
01664             -30.00    12200.00
01665             -32.00    12000.00
01666             -26.00    12000.00
01667             -22.00    12000.00
01668             -22.00    12000.00
01669             -30.00    11600.00
01670             -26.00    11800.00
01671             -24.00    11800.00
01672             -24.00    11600.00
01673             -22.00    11400.00
01674             -24.00    11400.00
01675             -24.00    11400.00
01676             -24.00    11200.00
01677             -26.00    11200.00
01678             -26.00    11000.00
01679             -26.00    10800.00
01680             -24.00    10800.00
01681             -22.00    10600.00
01682             -18.00    10600.00
01683             -22.00    10400.00
01684             -24.00    10400.00
01685             -26.00    10400.00
01686             -26.00    10000.00
01687             -18.00    10000.00
01688             -14.00     9800.00
01689             -24.00     9600.00
01690             -26.00     9800.00
01691             -26.00     9600.00
01692             -22.00     9400.00
01693             -16.00     9200.00
01694             -22.00     9000.00
01695             -24.00     9000.00
01696             -22.00     8800.00
01697             -24.00     8800.00
01698             -18.00     8400.00
01699             -12.00     8400.00
01700             -16.00     8000.00
01701             -18.00     8000.00
01702             -24.00     8000.00
01703             -18.00     7800.00
01704              -8.00     7600.00
01705             -14.00     7200.00
01706             -22.00     7200.00
01707             -22.00     7000.00
01708             -12.00     6800.00
01709             -10.00     6800.00
01710             -18.00     6400.00
01711             -24.00     6400.00
01712             -16.00     6200.00
01713             -10.00     6000.00
01714              -8.00     5800.00
01715              -8.00     5600.00
01716             -16.00     5600.00
01717             -16.00     5200.00
01718             -16.00     5000.00
01719             -14.00     5000.00
01720              -6.00     4800.00
01721              -6.00     4400.00
01722             -14.00     4200.00
01723             -14.00     4000.00
01724             -12.00     3800.00
01725             -10.00     3800.00
01726             -10.00     3400.00
01727             -10.00     3200.00
01728              -6.00     3200.00
01729              -6.00     3000.00
01730             -10.00     2800.00
01731             -12.00     2800.00
01732              -8.00     2400.00
01733              -6.00     2200.00
01734              -6.00     1800.00
01735              -6.00     1800.00
01736              -8.00     1600.00
01737              -6.00     1200.00
01738              -2.00     1200.00
01739              -6.00     1000.00
01740             -10.00      800.00
01741              -8.00      600.00
01742              -4.00      400.00
01743               4.00        0.00
01744               6.00        0.00
01745              16.00     -400.00
01746              22.00     -600.00
01747              -2.00     -600.00
01748             -14.00     -800.00
01749              -2.00     -800.00
01750              16.00    -1400.00
01751              16.00    -1000.00
01752              80.00    -1400.00
01753             246.00    -1800.00
01754              80.00    -2400.00
01755            -254.00    -2400.00
01756            -254.00    -2800.00
01757              34.00    -2600.00
01758             116.00    -2800.00
01759             246.00    -2800.00
01760             162.00    -3400.00
01761            -254.00    -3200.00
01762              16.00    -3600.00
01763             198.00    -4000.00
01764             -58.00    -3600.00
01765              34.00    -4400.00
01766             -64.00    -4200.00
01767              70.00    -4400.00
01768              80.00    -4800.00
01769             -98.00    -4800.00
01770             -52.00    -5200.00
01771             -12.00    -5000.00
01772             134.00    -5600.00
01773              18.00    -5600.00
01774             -66.00    -5800.00
01775               8.00    -6200.00
01776             -10.00    -6000.00
01777              82.00    -6600.00
01778              -6.00    -6600.00
01779             -30.00    -6400.00
01780              22.00    -7000.00
01781              22.00    -7000.00
01782              26.00    -7200.00
01783             -32.00    -7200.00
01784              22.00    -7600.00
01785              32.00    -7400.00
01786              16.00    -7600.00
01787              14.00    -8000.00
01788             -16.00    -8000.00
01789              30.00    -8400.00
01790              32.00    -8400.00
01791              -4.00    -8600.00
01792              -8.00    -8800.00
01793              22.00    -8800.00
01794              32.00    -9200.00
01795              18.00    -9200.00
01796               6.00    -9400.00
01797               0.00    -9600.00
01798              18.00    -9400.00
01799              32.00    -9600.00
01800               8.00    -9800.00
01801               8.00   -10000.00
01802              14.00   -10000.00
01803               8.00   -10200.00
01804              22.00   -10200.00
01805              16.00   -10400.00
01806              16.00   -10400.00
01807              30.00   -10600.00
01808              18.00   -10600.00
01809               4.00   -10800.00
01810               8.00   -10800.00
01811              14.00   -10800.00
01812              22.00   -11200.00
01813              30.00   -11000.00
01814              22.00   -11200.00
01815              16.00   -11200.00
01816              16.00   -11400.00
01817               6.00   -11600.00
01818              14.00   -11600.00
01819              24.00   -11600.00
01820              22.00   -11600.00
01821              22.00   -11600.00
01822              16.00   -11800.00
01823               8.00   -11800.00
01824              14.00   -12000.00
01825              18.00   -12000.00
01826              18.00   -12000.00
01827              24.00   -12000.00
01828              24.00   -12000.00
01829              16.00   -12200.00
01830              14.00   -12000.00
01831              14.00   -12200.00
01832              14.00   -12200.00
01833              22.00   -12000.00
01834              26.00   -12000.00
01835              24.00   -12000.00
01836              22.00   -12400.00
01837              10.00   -12400.00
01838              14.00   -12200.00
01839              20.00   -12400.00
01840              26.00   -12200.00
01841              24.00   -12000.00
01842              22.00   -12400.00
01843              16.00   -12200.00
01844              14.00   -12200.00
01845              18.00   -12000.00
01846              22.00   -12200.00
01847              24.00   -12000.00
01848              26.00   -12000.00
01849              18.00   -12000.00
01850              14.00   -12000.00
01851              14.00   -12000.00
01852              16.00   -12000.00
01853              26.00   -11800.00
01854              26.00   -12000.00
01855              18.00   -11800.00
01856              14.00   -11800.00
01857              16.00   -11600.00
01858              16.00   -11600.00
01859              22.00   -11600.00
01860              24.00   -11400.00
01861              22.00   -11600.00
01862              18.00   -11400.00
01863              16.00   -11200.00
01864              14.00   -11200.00
01865              18.00   -11200.00
01866              18.00   -11000.00
01867              22.00   -11000.00
01868              22.00   -10800.00
01869              14.00   -10800.00
01870              12.00   -10600.00
01871              14.00   -10400.00
01872              16.00   -10400.00
01873              22.00   -10200.00
01874              22.00   -10000.00
01875              16.00   -10000.00
01876              10.00   -10000.00
01877               8.00    -9800.00
01878              14.00    -9600.00
01879              18.00    -9600.00
01880              22.00    -9600.00
01881              14.00    -9200.00
01882              10.00    -9200.00
01883              10.00    -9000.00
01884              10.00    -9000.00
01885              14.00    -8800.00
01886              14.00    -8800.00
01887              16.00    -8600.00
01888              16.00    -8400.00
01889               8.00    -8200.00
01890               8.00    -8000.00
01891               8.00    -7800.00
01892              10.00    -7800.00
01893              14.00    -7400.00
01894              14.00    -7400.00
01895              14.00    -7200.00
01896              10.00    -7200.00
01897               6.00    -7000.00
01898               6.00    -6800.00
01899               8.00    -6400.00
01900              12.00    -6400.00
01901              10.00    -6200.00
01902              10.00    -6200.00
01903               6.00    -5800.00
01904               6.00    -5600.00
01905               6.00    -5600.00
01906               8.00    -5400.00
01907              10.00    -5200.00
01908               8.00    -5200.00
01909               6.00    -4800.00
01910               2.00    -4800.00
01911               2.00    -4400.00
01912               8.00    -4000.00
01913              10.00    -4000.00
01914               8.00    -3800.00
01915               4.00    -3600.00
01916               0.00    -3600.00
01917               2.00    -3200.00
01918               2.00    -3200.00
01919               6.00    -3000.00
01920               6.00    -2800.00
01921               6.00    -2400.00
01922               2.00    -2400.00
01923               0.00    -2200.00
01924               0.00    -2000.00
01925               0.00    -1800.00
01926               2.00    -1400.00
01927               2.00    -1400.00
01928               0.00    -1000.00
01929              -2.00     -800.00
01930              -4.00     -800.00
01931              -2.00     -600.00
01932               0.00     -400.00
01933               0.00        0.00
01934               2.00      200.00
01935               0.00      200.00
01936               0.00      400.00
01937              20.00      600.00
01938              24.00      800.00
01939               0.00     1000.00
01940             -14.00     1200.00
01941              -2.00     1400.00
01942              12.00     1600.00
01943              46.00     1800.00
01944             246.00     2000.00
01945             198.00     2400.00
01946            -254.00     2400.00
01947            -254.00     2600.00
01948             -98.00     2800.00
01949             162.00     3000.00
01950             246.00     3400.00
01951              38.00     3400.00
01952            -254.00     3200.00
01953             176.00     4000.00
01954             176.00     4000.00
01955            -146.00     4200.00
01956             106.00     4400.00
01957            -142.00     4400.00
01958              80.00     4800.00
01959             102.00     4800.00
01960            -210.00     5400.00
01961             -30.00     5200.00
01962              42.00     5600.00
01963              78.00     5800.00
01964             -38.00     5600.00
01965             -34.00     6400.00
01966             -38.00     6000.00
01967             -40.00     6400.00
01968             110.00     6800.00
01969             -94.00     6600.00
01970             -30.00     7000.00
01971              18.00     7000.00
01972             -24.00     7200.00
01973               8.00     7400.00
01974             -54.00     7600.00
01975             -26.00     7800.00
01976              14.00     7800.00
01977              22.00     8200.00
01978             -56.00     8000.00
01979             -22.00     8600.00
01980             -12.00     8800.00
01981             -18.00     8600.00
01982              -4.00     9000.00
01983             -30.00     9000.00
01984             -30.00     9200.00
01985             -10.00     9200.00
01986              -4.00     9600.00
01987             -32.00     9600.00
01988              -6.00     9800.00
01989             -34.00     9800.00
01990             -26.00    10000.00
01991              -8.00    10000.00
01992             -22.00    10200.00
01993             -12.00    10400.00
01994             -22.00    10400.00
01995             -40.00    10600.00
01996             -32.00    10600.00
01997              -4.00    10800.00
01998             -10.00    11000.00
01999             -14.00    11000.00
02000             -30.00    11200.00
02001             -40.00    11200.00
02002             -26.00    11200.00
02003             -14.00    11400.00
02004             -18.00    11400.00
02005             -18.00    11800.00
02006             -26.00    11600.00
02007             -32.00    11800.00
02008             -20.00    11800.00
02009             -26.00    12000.00
02010             -26.00    12000.00
02011             -22.00    12000.00
02012             -20.00    12200.00
02013             -26.00    12200.00
02014             -30.00    12200.00
02015             -30.00    12400.00
02016             -28.00    12400.00
02017             -24.00    12400.00
02018             -26.00    12400.00
02019             -18.00    12400.00
02020             -22.00    12400.00
02021             -32.00    12600.00
02022             -32.00    12400.00
02023             -26.00    12600.00
02024             -26.00    12600.00
02025             -22.00    12600.00
02026             -18.00    12600.00
02027             -26.00    12800.00
02028             -26.00    12600.00
02029             -32.00    12800.00
02030             -32.00    12800.00
02031             -18.00    12800.00
02032             -14.00    12600.00
02033             -24.00    12600.00
02034             -34.00    12800.00
02035             -34.00    12400.00
02036             -22.00    12600.00
02037             -18.00    12600.00
02038             -26.00    12400.00
02039             -24.00    12600.00
02040             -18.00    12400.00
02041             -26.00    12400.00
02042             -32.00    12400.00
02043             -26.00    12400.00
02044             -20.00    12200.00
02045             -16.00    12200.00
02046             -24.00    12200.00
02047             -30.00    12200.00
02048             -30.00    12000.00
02049             -26.00    12000.00
02050             -22.00    12000.00
02051             -16.00    12000.00
02052             -22.00    12000.00
02053             -26.00    11800.00
02054             -28.00    11800.00
02055             -28.00    11600.00
02056             -24.00    11600.00
02057             -16.00    11600.00
02058             -20.00    11400.00
02059             -18.00    11400.00
02060             -26.00    11400.00
02061             -30.00    11200.00
02062             -22.00    11000.00
02063             -22.00    11000.00
02064             -18.00    10800.00
02065             -18.00    10800.00
02066             -22.00    10400.00
02067             -26.00    10600.00
02068             -24.00    10400.00
02069             -30.00    10200.00
02070             -24.00    10000.00
02071             -16.00    10000.00
02072             -16.00     9800.00
02073             -24.00     9600.00
02074             -26.00     9600.00
02075             -22.00     9400.00
02076             -18.00     9200.00
02077             -22.00     9000.00
02078             -22.00     9000.00
02079             -18.00     8800.00
02080             -26.00     8800.00
02081             -18.00     8600.00
02082             -14.00     8400.00
02083             -16.00     8200.00
02084             -26.00     8000.00
02085             -32.00     8000.00
02086             -22.00     7600.00
02087              -6.00     7600.00
02088             -10.00     7400.00
02089             -18.00     7200.00
02090             -26.00     7000.00
02091             -26.00     7000.00
02092             -16.00     6800.00
02093              -6.00     6600.00
02094             -10.00     6400.00
02095             -14.00     6400.00
02096             -26.00     6000.00
02097             -26.00     5800.00
02098             -10.00     5600.00
02099               6.00     5600.00
02100               2.00     5400.00
02101             -18.00     5200.00
02102             -38.00     5000.00
02103             -30.00     4800.00
02104               0.00     4600.00
02105               6.00     4400.00
02106              -6.00     4200.00
02107             -18.00     4000.00
02108             -18.00     3800.00
02109             -10.00     3600.00
02110              -6.00     3400.00
02111             -10.00     3200.00
02112              -8.00     3000.00
02113             -10.00     2800.00
02114             -14.00     2600.00
02115              -8.00     2600.00
02116              -6.00     2200.00
02117              -6.00     2000.00
02118              -6.00     1800.00
02119              -8.00     1600.00
02120              -8.00     1600.00
02121              -6.00     1200.00
02122             -10.00     1000.00
02123              -6.00     1000.00
02124              -2.00      800.00
02125               0.00      400.00
02126               0.00      200.00
02127              -6.00      200.00
02128               0.00        0.00
02129              30.00     -400.00
02130              22.00     -600.00
02131             -10.00     -600.00
02132             -16.00     -800.00
02133               0.00    -1000.00
02134              16.00    -1200.00
02135              38.00    -1400.00
02136             162.00    -1600.00
02137             246.00    -2200.00
02138            -154.00    -2400.00
02139            -254.00    -2600.00
02140            -170.00    -2800.00
02141             112.00    -2600.00
02142             140.00    -2800.00
02143             246.00    -3000.00
02144            -134.00    -3600.00
02145            -254.00    -3200.00
02146             216.00    -4000.00
02147              40.00    -3600.00
02148             -22.00    -3800.00
02149               0.00    -4400.00
02150             -42.00    -4200.00
02151             128.00    -4800.00
02152             -30.00    -4800.00
02153             -86.00    -5000.00
02154             -32.00    -5400.00
02155              50.00    -5200.00
02156             122.00    -5800.00
02157             -64.00    -5400.00
02158             -22.00    -6000.00
02159             -10.00    -6200.00
02160              30.00    -6200.00
02161              70.00    -6400.00
02162             -42.00    -6200.00
02163               2.00    -7000.00
02164              12.00    -7000.00
02165              36.00    -7000.00
02166              -6.00    -7200.00
02167             -18.00    -7200.00
02168              32.00    -7800.00
02169              14.00    -7600.00
02170              26.00    -8000.00
02171              -6.00    -8000.00
02172              -8.00    -8200.00
02173              38.00    -8400.00
02174              18.00    -8600.00
02175              -2.00    -8600.00
02176               4.00    -8800.00
02177              18.00    -9000.00
02178              24.00    -9200.00
02179              16.00    -9200.00
02180              10.00    -9400.00
02181               8.00    -9600.00
02182              24.00    -9400.00
02183              16.00    -9600.00
02184              10.00    -9600.00
02185              18.00   -10000.00
02186              14.00   -10000.00
02187              16.00   -10200.00
02188              14.00   -10400.00
02189               6.00   -10400.00
02190              26.00   -10600.00
02191              32.00   -10800.00
02192              16.00   -10800.00
02193               6.00   -10800.00
02194              10.00   -11000.00
02195              14.00   -11000.00
02196              24.00   -11000.00
02197              24.00   -11200.00
02198              16.00   -11200.00
02199              18.00   -11400.00
02200              14.00   -11400.00
02201              10.00   -11600.00
02202              16.00   -11600.00
02203              22.00   -11600.00
02204              22.00   -11800.00
02205              18.00   -11800.00
02206              14.00   -11800.00
02207              14.00   -11800.00
02208              18.00   -12000.00
02209              18.00   -12000.00
02210              18.00   -12000.00
02211              24.00   -12000.00
02212              22.00   -12000.00
02213              16.00   -12200.00
02214              14.00   -12000.00
02215              14.00   -12200.00
02216              20.00   -12000.00
02217              26.00   -12200.00
02218              18.00   -12400.00
02219              16.00   -12200.00
02220              16.00   -12200.00
02221              16.00   -12200.00
02222              18.00   -12200.00
02223              24.00   -12200.00
02224              24.00   -12000.00
02225              22.00   -12200.00
02226              20.00   -12000.00
02227              16.00   -12200.00
02228              16.00   -12200.00
02229              20.00   -12200.00
02230              22.00   -12200.00
02231              24.00   -12200.00
02232              22.00   -12000.00
02233              16.00   -12000.00
02234              16.00   -12000.00
02235              16.00   -12000.00
02236              18.00   -11800.00
02237              26.00   -11800.00
02238              26.00   -11800.00
02239              16.00   -11600.00
02240              14.00   -11800.00
02241              16.00   -11600.00
02242              22.00   -11600.00
02243              18.00   -11600.00
02244              22.00   -11400.00
02245              24.00   -11600.00
02246              22.00   -11200.00
02247               8.00   -11200.00
02248              10.00   -11200.00
02249              16.00   -11200.00
02250              24.00   -11000.00
02251              24.00   -11000.00
02252              24.00   -10800.00
02253              12.00   -10400.00
02254               2.00   -10800.00
02255              10.00   -10200.00
02256              30.00   -10400.00
02257              34.00   -10200.00
02258              10.00   -10000.00
02259               2.00   -10000.00
02260              10.00   -10000.00
02261              16.00    -9600.00
02262              16.00    -9600.00
02263              18.00    -9600.00
02264              22.00    -9400.00
02265              16.00    -9400.00
02266               8.00    -9200.00
02267               8.00    -9200.00
02268              10.00    -8800.00
02269              14.00    -8800.00
02270              20.00    -8600.00
02271              14.00    -8400.00
02272               8.00    -8200.00
02273              14.00    -8000.00
02274              10.00    -8000.00
02275              14.00    -8000.00
02276               8.00    -7600.00
02277               6.00    -7400.00
02278              14.00    -7400.00
02279              16.00    -7200.00
02280               6.00    -7000.00
02281               2.00    -7000.00
02282               8.00    -6800.00
02283              14.00    -6400.00
02284              16.00    -6400.00
02285               8.00    -6200.00
02286              -2.00    -6000.00
02287               2.00    -6000.00
02288               8.00    -5600.00
02289              14.00    -5600.00
02290              14.00    -5400.00
02291               2.00    -5200.00
02292               0.00    -4800.00
02293               2.00    -4800.00
02294               8.00    -4600.00
02295              10.00    -4400.00
02296               6.00    -4200.00
02297               0.00    -4000.00
02298               0.00    -3800.00
02299               2.00    -3800.00
02300               6.00    -3400.00
02301               6.00    -3200.00
02302               2.00    -3000.00
02303               2.00    -2800.00
02304               6.00    -2600.00
02305               0.00    -2400.00
02306              -2.00    -2200.00
02307               0.00    -2000.00
02308               6.00    -2000.00
02309               4.00    -1600.00
02310               0.00    -1400.00
02311              -2.00    -1000.00
02312              -2.00    -1200.00
02313              -2.00     -800.00
02314               0.00     -600.00
02315               4.00     -600.00
02316               0.00     -200.00
02317              -4.00        0.00
02318              -6.00      200.00
02319               0.00      400.00
02320              14.00      400.00
02321              32.00      800.00
02322              16.00      800.00
02323             -10.00     1000.00
02324             -14.00     1200.00
02325               6.00     1400.00
02326              18.00     1600.00
02327             124.00     2000.00
02328             246.00     2400.00
02329             -56.00     2400.00
02330            -254.00     2600.00
02331            -254.00     2800.00
02332              28.00     2800.00
02333             246.00     3200.00
02334             246.00     3600.00
02335            -254.00     3200.00
02336            -254.00     3600.00
02337             246.00     4000.00
02338             -82.00     4000.00
02339              -6.00     4400.00
02340              16.00     4400.00
02341            -128.00     4400.00
02342             198.00     4800.00
02343             -88.00     5200.00
02344            -158.00     5400.00
02345              30.00     5600.00
02346              56.00     5800.00
02347              38.00     5600.00
02348             -74.00     6000.00
02349              -2.00     6400.00
02350             -80.00     6200.00
02351              62.00     6800.00
02352              34.00     6600.00
02353            -116.00     6800.00
02354              30.00     7200.00
02355             -22.00     7200.00
02356               0.00     7400.00
02357             -22.00     7600.00
02358             -48.00     7600.00
02359              -6.00     7800.00
02360              26.00     8000.00
02361             -20.00     8200.00
02362             -58.00     8200.00
02363               0.00     8800.00
02364             -24.00     8600.00
02365              -2.00     8800.00
02366             -22.00     9000.00
02367             -34.00     9200.00
02368             -24.00     9200.00
02369               6.00     9600.00
02370             -18.00     9600.00
02371             -20.00     9800.00
02372             -14.00    10000.00
02373             -48.00     9800.00
02374             -14.00    10000.00
02375             -16.00    10200.00
02376             -14.00    10400.00
02377             -10.00    10400.00
02378             -26.00    10600.00
02379             -42.00    10600.00
02380             -20.00    10800.00
02381              -2.00    10800.00
02382             -10.00    10800.00
02383             -14.00    11200.00
02384             -34.00    11200.00
02385             -38.00    11200.00
02386             -18.00    11400.00
02387             -14.00    11400.00
02388             -18.00    11400.00
02389             -16.00    11800.00
02390             -26.00    11800.00
02391             -26.00    11800.00
02392             -22.00    12000.00
02393             -34.00    12000.00
02394             -22.00    12000.00
02395             -10.00    12200.00
02396             -22.00    12200.00
02397             -28.00    12200.00
02398             -30.00    12200.00
02399             -34.00    12200.00
02400             -24.00    12200.00
02401             -18.00    12400.00
02402             -22.00    12200.00
02403             -22.00    12400.00
02404             -28.00    12400.00
02405             -36.00    12400.00
02406             -26.00    12800.00
02407             -24.00    12800.00
02408             -24.00    12600.00
02409             -22.00    12800.00
02410             -26.00    12800.00
02411             -30.00    12600.00
02412             -26.00    12800.00
02413             -32.00    12800.00
02414             -26.00    12800.00
02415             -16.00    12800.00
02416             -24.00    12800.00
02417             -30.00    12800.00
02418             -32.00    12600.00
02419             -32.00    12400.00
02420             -22.00    12800.00
02421             -22.00    12600.00
02422             -26.00    12400.00
02423             -22.00    12400.00
02424             -26.00    12400.00
02425             -32.00    12400.00
02426             -32.00    12400.00
02427             -26.00    12400.00
02428             -22.00    12400.00
02429             -20.00    12200.00
02430             -24.00    12200.00
02431             -30.00    12200.00
02432             -32.00    12000.00
02433             -26.00    12200.00
02434             -18.00    12000.00
02435             -16.00    12000.00
02436             -22.00    12000.00
02437             -22.00    11800.00
02438             -26.00    11800.00
02439             -30.00    11600.00
02440             -24.00    11600.00
02441             -24.00    11600.00
02442             -18.00    11400.00
02443             -22.00    11200.00
02444             -24.00    11000.00
02445             -26.00    10800.00
02446             -26.00    10800.00
02447             -26.00    10800.00
02448             -18.00    10800.00
02449             -18.00    10600.00
02450             -22.00    10400.00
02451             -26.00    10400.00
02452             -26.00    10400.00
02453             -24.00    10200.00
02454             -18.00    10000.00
02455             -18.00     9800.00
02456             -16.00     9800.00
02457             -22.00     9600.00
02458             -26.00     9600.00
02459             -26.00     9200.00
02460             -24.00     9200.00
02461             -16.00     9000.00
02462             -16.00     8800.00
02463             -22.00     8800.00
02464             -24.00     8600.00
02465             -22.00     8600.00
02466             -22.00     8400.00
02467             -20.00     8200.00
02468             -18.00     8000.00
02469             -18.00     8000.00
02470             -14.00     7600.00
02471             -22.00     7600.00
02472             -24.00     7400.00
02473             -16.00     7200.00
02474             -16.00     7200.00
02475             -12.00     6800.00
02476             -16.00     6600.00
02477             -24.00     6400.00
02478             -18.00     6400.00
02479             -16.00     6200.00
02480             -20.00     6000.00
02481             -16.00     5800.00
02482             -10.00     5600.00
02483             -14.00     5600.00
02484             -16.00     5200.00
02485             -18.00     5000.00
02486             -16.00     5000.00
02487             -10.00     4800.00
02488              -8.00     4600.00
02489             -10.00     4400.00
02490             -10.00     4200.00
02491             -14.00     3800.00
02492             -12.00     3600.00
02493             -14.00     3600.00
02494             -14.00     3400.00
02495              -8.00     3200.00
02496              -8.00     3200.00
02497              -8.00     2800.00
02498              -8.00     2600.00
02499             -10.00     2400.00
02500             -10.00     2200.00
02501              -8.00     2000.00
02502              -6.00     1800.00
02503              -2.00     1600.00
02504              -4.00     1400.00
02505              -8.00     1200.00
02506             -12.00     1000.00
02507              -6.00      600.00
02508              -2.00      600.00
02509               2.00      400.00
02510               0.00      200.00
02511               0.00        0.00
02512              12.00        0.00
02513              28.00     -400.00
02514               8.00     -600.00
02515             -14.00     -800.00
02516              -8.00     -800.00
02517               8.00    -1200.00
02518              18.00    -1200.00
02519              72.00    -1400.00
02520             246.00    -1600.00
02521             126.00    -2400.00
02522            -254.00    -2400.00
02523            -254.00    -2400.00
02524               8.00    -2800.00
02525             116.00    -2800.00
02526             238.00    -2800.00
02527             212.00    -3200.00
02528            -254.00    -3200.00
02529             -38.00    -3400.00
02530             224.00    -4000.00
02531             -56.00    -3600.00
02532              32.00    -4200.00
02533             -56.00    -4200.00
02534              48.00    -4400.00
02535              98.00    -4800.00
02536             -96.00    -4800.00
02537             -54.00    -5400.00
02538             -20.00    -5000.00
02539             124.00    -5400.00
02540              38.00    -5600.00
02541             -78.00    -5600.00
02542               6.00    -6200.00
02543             -16.00    -6000.00
02544              78.00    -6400.00
02545              16.00    -6400.00
02546             -38.00    -6400.00
02547              16.00    -7000.00
02548              16.00    -6800.00
02549              32.00    -7200.00
02550             -30.00    -7200.00
02551              14.00    -7600.00
02552              30.00    -7800.00
02553              16.00    -7800.00
02554              16.00    -8200.00
02555             -22.00    -8000.00
02556              22.00    -8400.00
02557              34.00    -8600.00
02558               6.00    -8600.00
02559              -8.00    -8800.00
02560              14.00    -8800.00
02561              24.00    -9000.00
02562              22.00    -9200.00
02563              12.00    -9200.00
02564               6.00    -9600.00
02565              14.00    -9600.00
02566              24.00    -9600.00
02567              12.00    -9600.00
02568              14.00   -10000.00
02569              22.00   -10000.00
02570              14.00   -10200.00
02571              14.00   -10200.00
02572               8.00   -10200.00
02573              18.00   -10400.00
02574              32.00   -10400.00
02575              22.00   -10600.00
02576               8.00   -10800.00
02577               6.00   -11000.00
02578              16.00   -10800.00
02579              20.00   -11000.00
02580              24.00   -11000.00
02581              22.00   -11200.00
02582              16.00   -11400.00
02583              18.00   -11400.00
02584              10.00   -11600.00
02585              12.00   -11600.00
02586              24.00   -11600.00
02587              24.00   -11600.00
02588              20.00   -11800.00
02589              18.00   -11800.00
02590              14.00   -12000.00
02591              16.00   -12000.00
02592              18.00   -12000.00
02593              18.00   -11800.00
02594              22.00   -12000.00
02595              26.00   -12200.00
02596              16.00   -12000.00
02597              14.00   -12000.00
02598              14.00   -12000.00
02599              16.00   -12200.00
02600              24.00   -12200.00
02601              22.00   -12400.00
02602              18.00   -12200.00
02603              16.00   -12400.00
02604              12.00   -12200.00
02605              10.00   -12200.00
02606              22.00   -12200.00
02607              26.00   -12400.00
02608              22.00   -12200.00
02609              18.00   -12200.00
02610              14.00   -12200.00
02611              16.00   -12200.00
02612              22.00   -12000.00
02613              18.00   -12000.00
02614              22.00   -12400.00
02615              24.00   -12000.00
02616              18.00   -12000.00
02617              16.00   -12000.00
02618              14.00   -12000.00
02619              16.00   -12000.00
02620              26.00   -11800.00
02621              24.00   -12000.00
02622              16.00   -11800.00
02623              16.00   -11800.00
02624              14.00   -11600.00
02625              16.00   -11600.00
02626              20.00   -11600.00
02627              24.00   -11600.00
02628              22.00   -11600.00
02629              18.00   -11200.00
02630              16.00   -11200.00
02631              14.00   -11200.00
02632              16.00   -11200.00
02633              18.00   -11000.00
02634              22.00   -10800.00
02635              22.00   -10800.00
02636              16.00   -10800.00
02637              14.00   -10800.00
02638              14.00   -10400.00
02639              18.00   -10400.00
02640              18.00   -10200.00
02641              22.00   -10200.00
02642              18.00   -10000.00
02643              14.00   -10000.00
02644              16.00    -9800.00
02645              10.00    -9600.00
02646              16.00    -9600.00
02647              20.00    -9600.00
02648              18.00    -9400.00
02649              14.00    -9200.00
02650              12.00    -9200.00
02651               8.00    -9000.00
02652              10.00    -8800.00
02653              18.00    -8800.00
02654              16.00    -8600.00
02655              14.00    -8400.00
02656              10.00    -8200.00
02657               8.00    -8200.00
02658              10.00    -8000.00
02659              12.00    -7800.00
02660              10.00    -7600.00
02661              14.00    -7400.00
02662              14.00    -7200.00
02663               6.00    -7200.00
02664               2.00    -7000.00
02665              10.00    -6800.00
02666              12.00    -6800.00
02667              10.00    -6400.00
02668               8.00    -6200.00
02669               6.00    -6200.00
02670               8.00    -6000.00
02671               2.00    -5800.00
02672               8.00    -5600.00
02673               8.00    -5400.00
02674               6.00    -5200.00
02675               8.00    -5000.00
02676               4.00    -4800.00
02677               0.00    -4600.00
02678               2.00    -4400.00
02679               4.00    -4000.00
02680               2.00    -4000.00
02681               8.00    -3800.00
02682               0.00    -3800.00
02683               0.00    -3600.00
02684               2.00    -3200.00
02685               2.00    -3000.00
02686               0.00    -2800.00
02687               0.00    -2800.00
02688               0.00    -2400.00
02689               6.00    -2400.00
02690               0.00    -2200.00
02691              -4.00    -2000.00
02692              -2.00    -1800.00
02693               0.00    -1600.00
02694               0.00    -1400.00
02695               2.00    -1000.00
02696               2.00     -800.00
02697               0.00     -800.00
02698              -2.00     -400.00
02699              -8.00     -200.00
02700              -6.00     -200.00
02701               0.00        0.00
02702               6.00      400.00
02703               6.00      400.00
02704              18.00      800.00
02705              30.00      800.00
02706               6.00     1000.00
02707             -16.00     1200.00
02708              -6.00     1400.00
02709               8.00     1600.00
02710              38.00     1600.00
02711             238.00     2000.00
02712             238.00     2600.00
02713            -254.00     2600.00
02714            -254.00     2600.00
02715            -134.00     2800.00
02716             126.00     3000.00
02717             246.00     3400.00
02718             158.00     3400.00
02719            -254.00     3200.00
02720              98.00     4000.00
02721             218.00     3800.00
02722            -168.00     4200.00
02723             110.00     4400.00
02724            -114.00     4400.00
02725              46.00     4800.00
02726             134.00     4800.00
02727            -210.00     5200.00
02728             -42.00     5400.00
02729              42.00     5600.00
02730              56.00     5800.00
02731             -34.00     5600.00
02732             -26.00     6400.00
02733             -10.00     6000.00
02734             -64.00     6400.00
02735              86.00     6800.00
02736             -80.00     6400.00
02737             -30.00     6800.00
02738              38.00     7000.00
02739             -30.00     7200.00
02740               6.00     7400.00
02741             -64.00     7600.00
02742             -42.00     7800.00
02743              10.00     8000.00
02744              40.00     8200.00
02745             -38.00     8200.00
02746             -34.00     8400.00
02747             -18.00     8600.00
02748             -26.00     8800.00
02749              -8.00     8800.00
02750             -24.00     9000.00
02751             -18.00     9200.00
02752              -8.00     9200.00
02753              -6.00     9600.00
02754             -48.00     9600.00
02755             -10.00     9800.00
02756             -20.00     9800.00
02757             -26.00     9800.00
02758             -14.00    10200.00
02759             -30.00    10200.00
02760             -10.00    10400.00
02761             -10.00    10400.00
02762             -30.00    10800.00
02763             -38.00    10600.00
02764             -10.00    10800.00
02765             -18.00    10800.00
02766             -12.00    11200.00
02767             -16.00    11200.00
02768             -32.00    11400.00
02769             -30.00    11400.00
02770             -24.00    11400.00
02771             -22.00    11600.00
02772             -14.00    11800.00
02773             -12.00    11800.00
02774             -24.00    11800.00
02775             -24.00    11800.00
02776             -34.00    12000.00
02777             -32.00    12000.00
02778             -10.00    12000.00
02779             -14.00    12200.00
02780             -26.00    12200.00
02781             -26.00    12200.00
02782             -26.00    12400.00
02783             -32.00    12400.00
02784             -24.00    12400.00
02785             -18.00    12400.00
02786             -16.00    12400.00
02787             -24.00    12400.00
02788             -34.00    12400.00
02789             -32.00    12600.00
02790             -24.00    12400.00
02791             -22.00    12600.00
02792             -22.00    12600.00
02793             -22.00    12800.00
02794             -30.00    12800.00
02795             -32.00    12800.00
02796             -30.00    12600.00
02797             -26.00    12800.00
02798             -22.00    12400.00
02799             -22.00    12800.00
02800             -26.00    12600.00
02801             -32.00    12800.00
02802             -32.00    12800.00
02803             -30.00    12400.00
02804             -24.00    12400.00
02805             -18.00    12400.00
02806             -20.00    12400.00
02807             -26.00    12600.00
02808             -34.00    12400.00
02809             -38.00    12400.00
02810             -30.00    12400.00
02811             -16.00    12400.00
02812             -16.00    12200.00
02813             -24.00    12200.00
02814             -30.00    12200.00
02815             -32.00    12200.00
02816             -30.00    12000.00
02817             -24.00    12200.00
02818             -18.00    12000.00
02819             -16.00    12000.00
02820             -22.00    12000.00
02821             -32.00    11800.00
02822             -32.00    11800.00
02823             -26.00    11600.00
02824             -22.00    11600.00
02825             -14.00    11400.00
02826             -22.00    11400.00
02827             -24.00    11200.00
02828             -30.00    11200.00
02829             -30.00    11200.00
02830             -26.00    10800.00
02831             -22.00    10800.00
02832             -16.00    10600.00
02833             -16.00    10600.00
02834             -22.00    10400.00
02835             -30.00    10400.00
02836             -26.00    10200.00
02837             -22.00    10000.00
02838             -16.00    10000.00
02839             -16.00    10000.00
02840             -18.00     9600.00
02841             -26.00     9600.00
02842             -24.00     9400.00
02843             -22.00     9200.00
02844             -18.00     9400.00
02845             -16.00     9000.00
02846             -18.00     8800.00
02847             -22.00     8800.00
02848             -22.00     8600.00
02849             -24.00     8400.00
02850             -22.00     8400.00
02851             -18.00     8000.00
02852             -16.00     8000.00
02853             -14.00     7800.00
02854             -14.00     7600.00
02855             -22.00     7600.00
02856             -24.00     7400.00
02857             -22.00     7200.00
02858             -16.00     6800.00
02859             -16.00     6800.00
02860             -14.00     6600.00
02861             -20.00     6400.00
02862             -18.00     6400.00
02863             -18.00     6000.00
02864             -16.00     6000.00
02865             -14.00     5800.00
02866             -10.00     5600.00
02867             -14.00     5400.00
02868             -16.00     5200.00
02869             -20.00     5000.00
02870             -14.00     4800.00
02871             -10.00     4400.00
02872              -8.00     4400.00
02873             -10.00     4200.00
02874             -14.00     4200.00
02875             -16.00     3800.00
02876             -16.00     3600.00
02877             -10.00     3400.00
02878              -6.00     3200.00
02879              -6.00     3200.00
02880             -10.00     2800.00
02881             -12.00     2800.00
02882             -10.00     2600.00
02883             -10.00     2400.00
02884              -6.00     2000.00
02885              -8.00     1800.00
02886              -4.00     1600.00
02887              -8.00     1400.00
02888             -10.00     1400.00
02889              -6.00     1000.00
02890              -4.00      800.00
02891              -2.00      600.00
02892              -2.00      600.00
02893              -4.00      200.00
02894               0.00        0.00
02895               6.00        0.00
02896              24.00     -200.00
02897              22.00     -600.00
02898              -6.00     -800.00
02899             -14.00     -800.00
02900               4.00    -1200.00
02901              18.00    -1000.00
02902              30.00    -1200.00
02903             144.00    -1600.00
02904             246.00    -2000.00
02905             -98.00    -2400.00
02906            -254.00    -2400.00
02907            -210.00    -2600.00
02908             104.00    -2800.00
02909             128.00    -2600.00
02910             246.00    -3000.00
02911             -58.00    -3400.00
02912            -254.00    -3000.00
02913             184.00    -3800.00
02914              80.00    -3800.00
02915             -32.00    -3600.00
02916              14.00    -4400.00
02917             -52.00    -4000.00
02918             122.00    -4800.00
02919              -4.00    -4600.00
02920             -90.00    -5000.00
02921             -34.00    -5200.00
02922              32.00    -5000.00
02923             134.00    -5800.00
02924             -48.00    -5400.00
02925             -32.00    -6000.00
02926              -6.00    -6200.00
02927              18.00    -6000.00
02928              80.00    -6600.00
02929             -38.00    -6200.00
02930              -6.00    -6800.00
02931              16.00    -7000.00
02932              34.00    -7000.00
02933               0.00    -7200.00
02934             -26.00    -7200.00
02935              32.00    -7600.00
02936              22.00    -7600.00
02937              24.00    -8000.00
02938              -2.00    -8200.00
02939             -12.00    -8200.00
02940              34.00    -8600.00
02941              18.00    -8400.00
02942              -8.00    -8800.00
02943               2.00    -8800.00
02944              22.00    -8800.00
02945              26.00    -9200.00
02946              14.00    -9200.00
02947               8.00    -9400.00
02948               6.00    -9400.00
02949              22.00    -9600.00
02950              20.00    -9600.00
02951               6.00    -9800.00
02952              22.00   -10000.00
02953              16.00   -10000.00
02954              12.00   -10200.00
02955              14.00   -10200.00
02956              10.00   -10200.00
02957              26.00   -10600.00
02958              32.00   -10600.00
02959              16.00   -10800.00
02960               6.00   -10800.00
02961              14.00   -10800.00
02962              16.00   -11200.00
02963              20.00   -11200.00
02964              26.00   -11200.00
02965              18.00   -11200.00
02966              20.00   -11200.00
02967              16.00   -11200.00
02968               8.00   -11600.00
02969              18.00   -11600.00
02970              22.00   -11800.00
02971              22.00   -11600.00
02972              24.00   -11800.00
02973              16.00   -11800.00
02974              12.00   -12000.00
02975              18.00   -11800.00
02976              18.00   -12000.00
02977              22.00   -12000.00
02978              30.00   -12000.00
02979              18.00   -12000.00
02980              12.00   -12200.00
02981              18.00   -12200.00
02982              14.00   -12200.00
02983              18.00   -12200.00
02984              26.00   -12400.00
02985              22.00   -12200.00
02986              20.00   -12200.00
02987              16.00   -12000.00
02988               8.00   -12400.00
02989              16.00   -12400.00
02990              24.00   -12000.00
02991              24.00   -12200.00
02992              24.00   -12200.00
02993              16.00   -12200.00
02994              14.00   -12200.00
02995              16.00   -12200.00
02996              18.00   -12000.00
02997              22.00   -12000.00
02998              26.00   -12200.00
02999              22.00   -12000.00
03000              14.00   -12000.00
03001              12.00   -12000.00
03002              14.00   -11800.00
03003              22.00   -11800.00
03004              24.00   -11800.00
03005              18.00   -11800.00
03006              22.00   -11800.00
03007              16.00   -11800.00
03008              10.00   -11600.00
03009              16.00   -11600.00
03010              22.00   -11600.00
03011              26.00   -11200.00
03012              22.00   -11400.00
03013              14.00   -11400.00
03014              14.00   -11200.00
03015              16.00   -11200.00
03016              16.00   -11000.00
03017              18.00   -11000.00
03018              20.00   -11000.00
03019              22.00   -10800.00
03020              16.00   -10800.00
03021              14.00   -10400.00
03022              14.00   -10400.00
03023              14.00   -10200.00
03024              16.00   -10400.00
03025              22.00   -10000.00
03026              18.00   -10000.00
03027              14.00   -10000.00
03028              14.00    -9600.00
03029              14.00    -9600.00
03030              18.00    -9400.00
03031              18.00    -9400.00
03032              10.00    -9400.00
03033              14.00    -9200.00
03034              10.00    -9000.00
03035              12.00    -8800.00
03036              16.00    -8800.00
03037              14.00    -8600.00
03038              10.00    -8400.00
03039              18.00    -8400.00
03040              18.00    -8000.00
03041              14.00    -8000.00
03042               6.00    -7800.00
03043               6.00    -7600.00
03044              12.00    -7400.00
03045              18.00    -7200.00
03046              14.00    -7200.00
03047              10.00    -7000.00
03048              10.00    -7000.00
03049               2.00    -6800.00
03050               2.00    -6400.00
03051               8.00    -6400.00
03052              16.00    -6200.00
03053              16.00    -6000.00
03054               2.00    -6000.00
03055               0.00    -5600.00
03056               6.00    -5600.00
03057              14.00    -5400.00
03058              10.00    -5200.00
03059               4.00    -5000.00
03060               0.00    -4800.00
03061               6.00    -4600.00
03062               0.00    -4400.00
03063               2.00    -4200.00
03064               6.00    -4000.00
03065               2.00    -3800.00
03066               2.00    -3600.00
03067               2.00    -3200.00
03068               0.00    -3200.00
03069               2.00    -3000.00
03070               2.00    -2800.00
03071               2.00    -2800.00
03072               6.00    -2400.00
03073               2.00    -2200.00
03074               0.00    -2200.00
03075              -4.00    -1800.00
03076               0.00    -1600.00
03077               0.00    -1400.00
03078               6.00    -1200.00
03079              -4.00    -1000.00
03080              -2.00     -800.00
03081               0.00     -600.00
03082               0.00     -400.00
03083               0.00        0.00
03084              -2.00        0.00
03085              -2.00      200.00
03086               8.00      400.00
03087              10.00      600.00
03088              30.00      600.00
03089              18.00      800.00
03090              -8.00     1200.00
03091             -16.00     1400.00
03092               2.00     1600.00
03093              18.00     1600.00
03094             104.00     1800.00
03095             246.00     2400.00
03096               6.00     2600.00
03097            -254.00     2600.00
03098            -254.00     2800.00
03099               6.00     2800.00
03100             246.00     3200.00
03101             246.00     3600.00
03102            -254.00     3200.00
03103            -254.00     3600.00
03104             246.00     4000.00
03105             -34.00     4000.00
03106             -36.00     4200.00
03107              50.00     4600.00
03108            -142.00     4600.00
03109             190.00     4800.00
03110             -48.00     5000.00
03111            -178.00     5200.00
03112              20.00     5400.00
03113              48.00     5800.00
03114              54.00     5600.00
03115             -70.00     5800.00
03116              -6.00     6400.00
03117             -78.00     6000.00
03118              38.00     6600.00
03119              60.00     6600.00
03120            -118.00     6600.00
03121              22.00     7200.00
03122             -14.00     7000.00
03123              -6.00     7400.00
03124             -14.00     7600.00
03125             -54.00     7800.00
03126             -14.00     8000.00
03127              26.00     8000.00
03128              -8.00     8200.00
03129             -66.00     8200.00
03130              -2.00     8600.00
03131             -22.00     8400.00
03132              -6.00     8800.00
03133             -16.00     9000.00
03134             -38.00     9200.00
03135             -30.00     9200.00
03136               2.00     9400.00
03137             -12.00     9600.00
03138             -24.00     9600.00
03139             -10.00     9800.00
03140             -48.00     9800.00
03141             -10.00    10000.00
03142             -14.00    10000.00
03143             -18.00    10200.00
03144             -14.00    10400.00
03145             -26.00    10400.00
03146             -44.00    10400.00
03147             -22.00    10800.00
03148              -2.00    10800.00
03149             -16.00    10800.00
03150             -16.00    11200.00
03151             -36.00    11200.00
03152             -34.00    11400.00
03153             -16.00    11400.00
03154             -14.00    11600.00
03155             -24.00    11400.00
03156             -14.00    11600.00
03157             -26.00    11800.00
03158             -28.00    12000.00
03159             -24.00    11800.00
03160             -30.00    12000.00
03161             -24.00    12000.00
03162             -14.00    12000.00
03163             -24.00    12200.00
03164             -26.00    12200.00
03165             -26.00    12200.00
03166             -30.00    12400.00
03167             -26.00    12400.00
03168             -22.00    12400.00
03169             -18.00    12400.00
03170             -22.00    12400.00
03171             -26.00    12600.00
03172             -34.00    12400.00
03173             -26.00    12600.00
03174             -26.00    12600.00
03175             -20.00    12400.00
03176             -22.00    12800.00
03177             -26.00    12800.00
03178             -30.00    12600.00
03179             -28.00    12600.00
03180             -28.00    12600.00
03181             -24.00    12600.00
03182             -22.00    12800.00
03183             -24.00    12600.00
03184             -26.00    12800.00
03185             -30.00    12600.00
03186             -34.00    12600.00
03187             -30.00    12600.00
03188             -24.00    12400.00
03189             -22.00    12600.00
03190             -24.00    12400.00
03191             -26.00    12400.00
03192             -32.00    12600.00
03193             -32.00    12400.00
03194             -24.00    12400.00
03195             -24.00    12200.00
03196             -22.00    12200.00
03197             -26.00    12200.00
03198             -32.00    12200.00
03199             -30.00    12000.00
03200             -26.00    12000.00
03201             -22.00    12200.00
03202             -22.00    12000.00
03203             -24.00    11800.00
03204             -26.00    11800.00
03205             -30.00    11800.00
03206             -28.00    11800.00
03207             -26.00    11400.00
03208             -22.00    11400.00
03209             -22.00    11400.00
03210             -22.00    11200.00
03211             -24.00    11200.00
03212             -26.00    11200.00
03213             -30.00    11000.00
03214             -22.00    10800.00
03215             -16.00    10800.00
03216             -18.00    10600.00
03217             -26.00    10600.00
03218             -26.00    10400.00
03219             -24.00    10400.00
03220             -24.00    10400.00
03221             -24.00    10000.00
03222             -18.00    10000.00
03223             -16.00     9800.00
03224             -22.00     9600.00
03225             -26.00     9600.00
03226             -26.00     9600.00
03227             -22.00     9200.00
03228             -16.00     9200.00
03229             -16.00     9000.00
03230             -20.00     9000.00
03231             -22.00     8800.00
03232             -24.00     8400.00
03233             -18.00     8400.00
03234             -16.00     8200.00
03235             -16.00     8000.00
03236             -16.00     8000.00
03237             -18.00     7600.00
03238             -16.00     7600.00
03239             -20.00     7400.00
03240             -18.00     7200.00
03241             -16.00     7200.00
03242             -14.00     6800.00
03243             -14.00     6800.00
03244             -16.00     6600.00
03245             -18.00     6400.00
03246             -16.00     6200.00
03247             -16.00     6000.00
03248             -14.00     5800.00
03249             -12.00     5600.00
03250             -14.00     5600.00
03251             -14.00     5400.00
03252             -18.00     5000.00
03253             -18.00     4800.00
03254             -14.00     4800.00
03255             -10.00     4400.00
03256              -8.00     4400.00
03257             -14.00     4200.00
03258             -14.00     4000.00
03259             -14.00     3800.00
03260             -12.00     3600.00
03261             -10.00     3400.00
03262              -8.00     3200.00
03263             -10.00     2800.00
03264              -8.00     2800.00
03265             -14.00     2800.00
03266              -8.00     2400.00
03267             -10.00     2200.00
03268              -8.00     2000.00
03269              -2.00     1800.00
03270              -8.00     1600.00
03271              -6.00     1400.00
03272              -6.00     1200.00
03273              -8.00     1000.00
03274              -4.00      800.00
03275              -2.00      800.00
03276              -6.00      400.00
03277              -2.00      200.00
03278              -2.00        0.00
03279               8.00        0.00
03280              32.00     -400.00
03281              14.00     -400.00
03282             -14.00     -800.00
03283             -10.00    -1000.00
03284               6.00    -1200.00
03285              18.00    -1400.00
03286              68.00    -1400.00
03287             232.00    -1600.00
03288             160.00    -2200.00
03289            -254.00    -2400.00
03290            -254.00    -2600.00
03291             -24.00    -2800.00
03292             122.00    -2600.00
03293             210.00    -2600.00
03294             246.00    -3200.00
03295            -254.00    -3200.00
03296             -98.00    -3200.00
03297             240.00    -4000.00
03298             -46.00    -3600.00
03299              24.00    -4400.00
03300             -46.00    -4200.00
03301              26.00    -4400.00
03302             118.00    -4800.00
03303             -82.00    -4600.00
03304             -62.00    -5200.00
03305             -30.00    -5000.00
03306             112.00    -5400.00
03307              64.00    -5600.00
03308             -80.00    -5600.00
03309               0.00    -6200.00
03310             -20.00    -6000.00
03311              72.00    -6400.00
03312              30.00    -6400.00
03313             -44.00    -6600.00
03314              18.00    -7000.00
03315              14.00    -7000.00
03316              32.00    -7200.00
03317             -26.00    -7400.00
03318               6.00    -7400.00
03319              34.00    -7800.00
03320              16.00    -7800.00
03321              16.00    -8000.00
03322             -18.00    -8000.00
03323              14.00    -8400.00
03324              34.00    -8600.00
03325               2.00    -8600.00
03326              -8.00    -8800.00
03327              10.00    -8800.00
03328              24.00    -9200.00
03329              18.00    -9200.00
03330              16.00    -9400.00
03331               8.00    -9400.00
03332               8.00    -9600.00
03333              20.00    -9600.00
03334              10.00   -10000.00
03335              16.00    -9800.00
03336              24.00   -10000.00
03337               8.00   -10000.00
03338              10.00   -10200.00
03339              10.00   -10200.00
03340              16.00   -10400.00
03341              32.00   -10400.00
03342              22.00   -10800.00
03343               6.00   -10800.00
03344              10.00   -11000.00
03345              12.00   -10800.00
03346              18.00   -11200.00
03347              24.00   -11000.00
03348              22.00   -11200.00
03349              16.00   -11200.00
03350              18.00   -11600.00
03351              12.00   -11600.00
03352              14.00   -11600.00
03353              22.00   -11600.00
03354              22.00   -11600.00
03355              24.00   -11800.00
03356              22.00   -11800.00
03357              14.00   -11800.00
03358               8.00   -12000.00
03359              14.00   -12000.00
03360              24.00   -11800.00
03361              28.00   -12000.00
03362              32.00   -12000.00
03363              22.00   -12000.00
03364              22.00   -12000.00
03365              22.00   -12200.00
03366              16.00   -12400.00
03367              14.00   -12000.00
03368              10.00   -12000.00
03369              14.00   -12000.00
03370              18.00   -12400.00
03371              14.00   -12200.00
03372               8.00   -12200.00
03373              30.00   -12200.00
03374              46.00   -12000.00
03375              30.00   -12000.00
03376              14.00   -12200.00
03377               6.00   -12200.00
03378               6.00   -12400.00
03379              10.00   -12000.00
03380              14.00   -12000.00
03381              18.00   -12000.00
03382              28.00   -12000.00
03383              26.00   -12000.00
03384              24.00   -12000.00
03385              24.00   -12000.00
03386              16.00   -11800.00
03387               8.00   -12000.00
03388              14.00   -11800.00
03389              20.00   -11800.00
03390              16.00   -11600.00
03391               8.00   -11800.00
03392              10.00   -11600.00
03393              22.00   -11600.00
03394              38.00   -11400.00
03395              30.00   -11600.00
03396              16.00   -11400.00
03397              14.00   -11200.00
03398              10.00   -11200.00
03399               8.00   -11200.00
03400              10.00   -11000.00
03401              14.00   -11000.00
03402              22.00   -10800.00
03403              26.00   -10800.00
03404              20.00   -10800.00
03405              16.00   -10600.00
03406              18.00   -10400.00
03407              16.00   -10200.00
03408              14.00   -10200.00
03409               8.00   -10000.00
03410               8.00   -10000.00
03411              10.00    -9800.00
03412              16.00    -9600.00
03413              24.00    -9600.00
03414              30.00    -9400.00
03415              22.00    -9200.00
03416               6.00    -9200.00
03417              -2.00    -9200.00
03418               8.00    -8800.00
03419              18.00    -8800.00
03420              16.00    -8800.00
03421              14.00    -8600.00
03422              14.00    -8400.00
03423              18.00    -8400.00
03424              16.00    -8000.00
03425              14.00    -7800.00
03426               8.00    -7800.00
03427              14.00    -7600.00
03428              16.00    -7400.00
03429               8.00    -7200.00
03430               6.00    -7200.00
03431               6.00    -7000.00
03432              14.00    -6800.00
03433              16.00    -6800.00
03434              10.00    -6400.00
03435              14.00    -6400.00
03436              14.00    -6200.00
03437               2.00    -6000.00
03438               0.00    -5600.00
03439               8.00    -5600.00
03440              14.00    -5400.00
03441              14.00    -5200.00
03442               6.00    -5200.00
03443               2.00    -4800.00
03444               0.00    -4600.00
03445               8.00    -4600.00
03446               8.00    -4400.00
03447               6.00    -4000.00
03448               0.00    -3800.00
03449              -8.00    -3800.00
03450               0.00    -3600.00
03451              10.00    -3400.00
03452              14.00    -3200.00
03453               6.00    -3000.00
03454               0.00    -2800.00
03455              -6.00    -2600.00
03456               0.00    -2400.00
03457               2.00    -2200.00
03458               2.00    -2000.00
03459               0.00    -2000.00
03460              -8.00    -1600.00
03461             -12.00    -1400.00
03462               0.00    -1200.00
03463              18.00     -800.00
03464              18.00     -800.00
03465             -10.00     -400.00
03466             -30.00     -600.00
03467             -22.00        0.00
03468               8.00        0.00
03469              24.00      200.00
03470              10.00      400.00
03471              10.00      600.00
03472              24.00      800.00
03473               8.00     1000.00
03474             -10.00     1200.00
03475             -10.00     1400.00
03476               4.00     1600.00
03477              30.00     1600.00
03478             216.00     2000.00
03479             246.00     2400.00
03480            -254.00     2400.00
03481            -254.00     2600.00
03482            -162.00     2800.00
03483             104.00     2800.00
03484             246.00     3400.00
03485             246.00     3400.00
03486            -254.00     3200.00
03487              12.00     3800.00
03488             246.00     4000.00
03489            -160.00     4200.00
03490              96.00     4400.00
03491            -100.00     4400.00
03492              -2.00     4800.00
03493             170.00     5000.00
03494            -186.00     5200.00
03495             -72.00     5400.00
03496              34.00     5400.00
03497              70.00     5800.00
03498              -6.00     5800.00
03499             -50.00     6000.00
03500             -14.00     6200.00
03501             -70.00     6200.00
03502             104.00     6800.00
03503             -54.00     6600.00
03504             -70.00     6800.00
03505              32.00     7200.00
03506             -30.00     7400.00
03507              10.00     7400.00
03508             -42.00     7600.00
03509             -38.00     7800.00
03510               4.00     8000.00
03511              26.00     8200.00
03512             -50.00     8000.00
03513             -38.00     8400.00
03514              -2.00     8600.00
03515             -26.00     8800.00
03516              -6.00     8800.00
03517             -30.00     9000.00
03518             -28.00     9200.00
03519             -10.00     9400.00
03520               6.00     9600.00
03521             -36.00     9600.00
03522             -14.00     9600.00
03523             -32.00     9800.00
03524             -32.00     9800.00
03525              -2.00    10400.00
03526             -24.00    10200.00
03527             -18.00    10400.00
03528             -20.00    10400.00
03529             -32.00    10600.00
03530             -38.00    10600.00
03531              -2.00    10800.00
03532             -10.00    10800.00
03533             -18.00    10800.00
03534             -24.00    11200.00
03535             -38.00    11200.00
03536             -26.00    11200.00
03537             -14.00    11400.00
03538             -24.00    11400.00
03539             -22.00    11800.00
03540             -18.00    11800.00
03541             -26.00    11800.00
03542             -18.00    11800.00
03543             -32.00    12000.00
03544             -32.00    12000.00
03545             -18.00    12200.00
03546             -14.00    12000.00
03547             -18.00    12200.00
03548             -24.00    12200.00
03549             -30.00    12200.00
03550             -38.00    12200.00
03551             -24.00    12200.00
03552             -16.00    12400.00
03553             -16.00    12400.00
03554             -20.00    12400.00
03555             -32.00    12600.00
03556             -32.00    12400.00
03557             -26.00    12600.00
03558             -24.00    12600.00
03559             -18.00    12600.00
03560             -18.00    12800.00
03561             -24.00    12800.00
03562             -30.00    12800.00
03563             -30.00    12800.00
03564             -24.00    12800.00
03565             -20.00    12800.00
03566             -18.00    12800.00
03567             -26.00    12600.00
03568             -32.00    12600.00
03569             -32.00    12600.00
03570             -22.00    12400.00
03571             -18.00    12800.00
03572             -24.00    12400.00
03573             -34.00    12600.00
03574             -34.00    12800.00
03575             -24.00    12400.00
03576             -16.00    12400.00
03577             -24.00    12400.00
03578             -32.00    12400.00
03579             -34.00    12200.00
03580             -26.00    12400.00
03581             -18.00    12200.00
03582             -26.00    12200.00
03583             -30.00    12200.00
03584             -26.00    12000.00
03585             -22.00    11800.00
03586             -22.00    12000.00
03587             -32.00    11800.00
03588             -34.00    11800.00
03589             -26.00    11800.00
03590             -16.00    11600.00
03591             -18.00    11600.00
03592             -30.00    11400.00
03593             -34.00    11200.00
03594             -22.00    11200.00
03595             -16.00    11200.00
03596             -24.00    11000.00
03597             -34.00    11000.00
03598             -30.00    10800.00
03599             -18.00    10800.00
03600             -10.00    10600.00
03601             -20.00    10600.00
03602             -32.00    10400.00
03603             -30.00    10200.00
03604             -24.00    10000.00
03605             -16.00    10000.00
03606             -18.00    10000.00
03607             -22.00     9800.00
03608             -24.00     9600.00
03609             -18.00     9600.00
03610             -18.00     9200.00
03611             -18.00     9200.00
03612             -16.00     9000.00
03613             -18.00     9000.00
03614             -22.00     8800.00
03615             -22.00     8800.00
03616             -24.00     8400.00
03617             -18.00     8200.00
03618             -18.00     8200.00
03619             -16.00     8000.00
03620             -14.00     8000.00
03621             -14.00     7600.00
03622             -20.00     7600.00
03623             -24.00     7400.00
03624             -24.00     7200.00
03625             -14.00     7200.00
03626              -6.00     6800.00
03627             -12.00     6600.00
03628             -18.00     6400.00
03629             -22.00     6400.00
03630             -18.00     6200.00
03631             -10.00     6000.00
03632              -8.00     5800.00
03633              -8.00     5600.00
03634             -16.00     5400.00
03635             -22.00     5200.00
03636             -24.00     5000.00
03637             -14.00     4800.00
03638              -2.00     4400.00
03639              -6.00     4400.00
03640             -10.00     4200.00
03641             -16.00     4000.00
03642             -18.00     4000.00
03643             -10.00     3600.00
03644              -8.00     3600.00
03645              -8.00     3200.00
03646             -10.00     3200.00
03647             -12.00     2800.00
03648             -10.00     2800.00
03649              -6.00     2600.00
03650              -8.00     2400.00
03651              -8.00     2000.00
03652             -10.00     1800.00
03653             -10.00     1800.00
03654              -6.00     1600.00
03655              -6.00     1200.00
03656              -8.00     1000.00
03657             -10.00     1000.00
03658              -6.00      800.00
03659               0.00      600.00
03660               2.00      400.00
03661               0.00      200.00
03662               0.00        0.00
03663              22.00     -400.00
03664              24.00     -400.00
03665              -2.00     -600.00
03666             -18.00     -800.00
03667              -6.00    -1200.00
03668              14.00    -1200.00
03669              30.00    -1200.00
03670             128.00    -1600.00
03671             246.00    -1600.00
03672             -46.00    -2400.00
03673            -254.00    -2400.00
03674            -254.00    -2800.00
03675              94.00    -2600.00
03676             120.00    -2600.00
03677             246.00    -2800.00
03678               6.00    -3400.00
03679            -254.00    -3200.00
03680             152.00    -3800.00
03681             118.00    -3800.00
03682             -48.00    -3800.00
03683              22.00    -4400.00
03684             -58.00    -4000.00
03685             120.00    -4600.00
03686              22.00    -4800.00
03687             -98.00    -5000.00
03688             -44.00    -5200.00
03689              22.00    -5200.00
03690             146.00    -5600.00
03691             -32.00    -5400.00
03692             -48.00    -5800.00
03693              -2.00    -6200.00
03694              14.00    -6000.00
03695              90.00    -6600.00
03696             -30.00    -6400.00
03697             -10.00    -6800.00
03698              16.00    -7000.00
03699              26.00    -7000.00
03700              10.00    -7400.00
03701             -28.00    -7200.00
03702              34.00    -7800.00
03703              18.00    -7600.00
03704              18.00    -7800.00
03705               2.00    -8000.00
03706             -12.00    -8200.00
03707              36.00    -8600.00
03708              26.00    -8400.00
03709              -8.00    -8800.00
03710              -6.00    -9000.00
03711              16.00    -8800.00
03712              22.00    -9200.00
03713              20.00    -9200.00
03714              12.00    -9400.00
03715               0.00    -9600.00
03716              14.00    -9600.00
03717              22.00    -9600.00
03718               8.00    -9800.00
03719              18.00   -10000.00
03720              14.00   -10200.00
03721               8.00   -10200.00
03722              18.00   -10400.00
03723              10.00   -10400.00
03724              16.00   -10400.00
03725              22.00   -10800.00
03726              18.00   -10800.00
03727              16.00   -10800.00
03728              16.00   -11000.00
03729               6.00   -11200.00
03730               8.00   -11200.00
03731              24.00   -11200.00
03732              26.00   -11200.00
03733              24.00   -11400.00
03734              14.00   -11400.00
03735               2.00   -11600.00
03736              14.00   -11600.00
03737              24.00   -11600.00
03738              26.00   -11800.00
03739              24.00   -11800.00
03740              16.00   -11800.00
03741               6.00   -11800.00
03742              14.00   -11800.00
03743              22.00   -12000.00
03744              24.00   -12000.00
03745              26.00   -12000.00
03746              22.00   -12000.00
03747              14.00   -12200.00
03748              16.00   -12000.00
03749              18.00   -12000.00
03750              22.00   -12200.00
03751              24.00   -12200.00
03752              22.00   -12000.00
03753              20.00   -12400.00
03754              16.00   -12200.00
03755              14.00   -12200.00
03756              18.00   -12000.00
03757              22.00   -12200.00
03758              22.00   -12200.00
03759              18.00   -12000.00
03760              22.00   -12000.00
03761              16.00   -12200.00
03762              16.00   -12200.00
03763              22.00   -12400.00
03764              22.00   -12000.00
03765              22.00   -12000.00
03766              18.00   -12000.00
03767              16.00   -12000.00
03768              22.00   -12000.00
03769              18.00   -12000.00
03770              18.00   -11800.00
03771              20.00   -11800.00
03772              18.00   -12000.00
03773              16.00   -11800.00
03774              18.00   -11600.00
03775              16.00   -11600.00
03776              16.00   -11600.00
03777              16.00   -11600.00
03778              18.00   -11600.00
03779              18.00   -11400.00
03780              22.00   -11200.00
03781              16.00   -11200.00
03782              14.00   -11200.00
03783              14.00   -11000.00
03784              16.00   -11000.00
03785              22.00   -10800.00
03786              22.00   -10800.00
03787              16.00   -10800.00
03788              10.00   -10600.00
03789              12.00   -10400.00
03790              16.00   -10400.00
03791              18.00   -10400.00
03792              18.00   -10200.00
03793              14.00   -10000.00
03794              14.00   -10000.00
03795              16.00    -9600.00
03796              14.00    -9600.00
03797              16.00    -9400.00
03798              14.00    -9400.00
03799              16.00    -9400.00
03800              16.00    -9200.00
03801              14.00    -9000.00
03802               8.00    -8800.00
03803              10.00    -8600.00
03804              16.00    -8800.00
03805              16.00    -8400.00
03806              16.00    -8400.00
03807              10.00    -8200.00
03808               8.00    -8000.00
03809               8.00    -8000.00
03810              14.00    -7600.00
03811              16.00    -7400.00
03812              16.00    -7200.00
03813              14.00    -7200.00
03814              10.00    -7000.00
03815               8.00    -6800.00
03816               8.00    -6800.00
03817               8.00    -6600.00
03818              14.00    -6400.00
03819              10.00    -6200.00
03820              10.00    -6000.00
03821               8.00    -6000.00
03822               6.00    -5600.00
03823               6.00    -5600.00
03824              10.00    -5200.00
03825              12.00    -5200.00
03826              10.00    -5000.00
03827               6.00    -4800.00
03828               2.00    -4600.00
03829               0.00    -4400.00
03830               6.00    -4400.00
03831               6.00    -3800.00
03832               8.00    -4000.00
03833               6.00    -3600.00
03834               2.00    -3600.00
03835               0.00    -3200.00
03836               0.00    -3200.00
03837               2.00    -2800.00
03838               4.00    -2600.00
03839               2.00    -2400.00
03840               0.00    -2200.00
03841               0.00    -2200.00
03842              -2.00    -2000.00
03843              -2.00    -1600.00
03844               0.00    -1400.00
03845               2.00    -1200.00
03846               0.00    -1000.00
03847              -2.00     -800.00
03848              -6.00     -800.00
03849              -6.00     -400.00
03850              -2.00     -200.00
03851               0.00        0.00
03852               0.00      200.00
03853               2.00      400.00
03854               2.00      400.00
03855              22.00      800.00
03856              20.00     1000.00
03857              -2.00     1000.00
03858             -14.00     1200.00
03859               0.00     1600.00
03860              16.00     1600.00
03861              86.00     1800.00
03862             246.00     2400.00
03863              70.00     2400.00
03864            -254.00     2600.00
03865            -254.00     2600.00
03866             -16.00     2800.00
03867             246.00     3000.00
03868             246.00     3400.00
03869            -252.00     3400.00
03870            -254.00     3400.00
03871             246.00     4000.00
03872              24.00     4000.00
03873             -80.00     4200.00
03874              70.00     4600.00
03875            -150.00     4400.00
03876             176.00     4800.00
03877               0.00     5000.00
03878            -198.00     5400.00
03879               6.00     5400.00
03880              46.00     5800.00
03881              64.00     5600.00
03882             -58.00     5800.00
03883              -8.00     6400.00
03884             -70.00     6000.00
03885               6.00     6600.00
03886              78.00     6800.00
03887            -114.00     6800.00
03888              18.00     7000.00
03889              -2.00     7200.00
03890             -14.00     7400.00
03891             -10.00     7600.00
03892             -56.00     7800.00
03893             -14.00     7600.00
03894              22.00     8000.00
03895              -2.00     8200.00
03896             -66.00     8200.00
03897              -8.00     8400.00
03898             -16.00     8600.00
03899              -8.00     8800.00
03900             -16.00     9000.00
03901             -38.00     9000.00
03902             -32.00     9200.00
03903               0.00     9400.00
03904              -8.00     9600.00
03905             -24.00     9600.00
03906              -8.00     9800.00
03907             -48.00     9800.00
03908             -26.00    10000.00
03909             -16.00    10200.00
03910             -14.00    10400.00
03911              -8.00    10400.00
03912             -22.00    10600.00
03913             -46.00    10600.00
03914             -28.00    10600.00
03915              -8.00    10800.00
03916             -18.00    10800.00
03917             -16.00    11200.00
03918             -30.00    11200.00
03919             -34.00    11200.00
03920             -22.00    11400.00
03921             -18.00    11400.00
03922             -26.00    11400.00
03923             -14.00    11800.00
03924             -18.00    11800.00
03925             -30.00    12000.00
03926             -24.00    11800.00
03927             -30.00    12000.00
03928             -26.00    12000.00
03929             -22.00    12000.00
03930             -24.00    12200.00
03931             -22.00    12200.00
03932             -18.00    12200.00
03933             -26.00    12400.00
03934             -34.00    12200.00
03935             -24.00    12400.00
03936             -18.00    12400.00
03937             -16.00    12400.00
03938             -26.00    12600.00
03939             -38.00    12600.00
03940             -24.00    12600.00
03941             -22.00    12800.00
03942             -30.00    12600.00
03943             -22.00    12800.00
03944             -18.00    12800.00
03945             -26.00    12600.00
03946             -26.00    12600.00
03947             -30.00    12600.00
03948             -24.00    12600.00
03949             -16.00    12800.00
03950             -22.00    12800.00
03951             -30.00    12800.00
03952             -26.00    12800.00
03953             -32.00    12600.00
03954             -26.00    12800.00
03955             -16.00    12400.00
03956             -18.00    12400.00
03957             -24.00    12400.00
03958             -32.00    12400.00
03959             -32.00    12400.00
03960             -26.00    12400.00
03961             -18.00    12400.00
03962             -18.00    12200.00
03963             -24.00    12200.00
03964             -30.00    12200.00
03965             -32.00    12200.00
03966             -30.00    12200.00
03967             -26.00    12000.00
03968             -22.00    12000.00
03969             -22.00    12000.00
03970             -24.00    12000.00
03971             -26.00    11800.00
03972             -30.00    11800.00
03973             -30.00    11600.00
03974             -26.00    11800.00
03975             -18.00    11400.00
03976             -18.00    11400.00
03977             -24.00    11200.00
03978             -26.00    11200.00
03979             -26.00    11200.00
03980             -26.00    10800.00
03981             -26.00    10800.00
03982             -22.00    10800.00
03983             -18.00    10600.00
03984             -22.00    10400.00
03985             -24.00    10400.00
03986             -24.00    10200.00
03987             -26.00    10200.00
03988             -24.00     9800.00
03989             -18.00    10000.00
03990             -18.00     9800.00
03991             -16.00     9600.00
03992             -24.00     9600.00
03993             -24.00     9400.00
03994             -26.00     9000.00
03995             -24.00     9200.00
03996             -16.00     9000.00
03997             -10.00     8800.00
03998             -18.00     8600.00
03999             -24.00     8600.00
04000             -26.00     8400.00
04001             -18.00     8200.00
04002             -12.00     8000.00
04003             -16.00     8000.00
04004             -16.00     7800.00
04005             -16.00     7600.00
04006             -18.00     7600.00
04007             -16.00     7200.00
04008             -16.00     7000.00
04009             -16.00     6800.00
04010             -14.00     6800.00
04011             -16.00     6600.00
04012             -16.00     6400.00
04013             -10.00     6200.00
04014             -16.00     6000.00
04015             -16.00     5800.00
04016             -14.00     5600.00
04017             -14.00     5600.00
04018             -14.00     5200.00
04019             -14.00     5200.00
04020             -14.00     4800.00
04021             -14.00     4800.00
04022             -10.00     4400.00
04023             -14.00     4400.00
04024             -10.00     4000.00
04025             -14.00     4000.00
04026             -16.00     3800.00
04027             -12.00     3600.00
04028             -10.00     3400.00
04029              -8.00     3200.00
04030             -10.00     3000.00
04031             -10.00     2800.00
04032             -10.00     2600.00
04033             -10.00     2400.00
04034             -10.00     2200.00
04035              -8.00     2000.00
04036              -6.00     1800.00
04037              -6.00     1600.00
04038              -8.00     1400.00
04039              -8.00     1400.00
04040              -8.00     1000.00
04041             -10.00     1000.00
04042              -2.00      600.00
04043              -2.00      400.00
04044              -2.00      200.00
04045              -2.00        0.00
04046               6.00     -200.00
04047              26.00     -400.00
04048              16.00     -600.00
04049             -14.00     -800.00
04050             -12.00     -800.00
04051               6.00    -1000.00
04052              16.00    -1200.00
04053              54.00    -1400.00
04054             214.00    -1600.00
04055             198.00    -2200.00
04056            -254.00    -2200.00
04057            -254.00    -2400.00
04058             -66.00    -2600.00
04059             118.00    -2600.00
04060             186.00    -2800.00
04061             246.00    -3200.00
04062            -254.00    -3200.00
04063            -160.00    -3200.00
04064             246.00    -4000.00
04065             -26.00    -3600.00
04066              16.00    -4200.00
04067             -32.00    -4400.00
04068               8.00    -4400.00
04069             126.00    -4800.00
04070             -74.00    -4800.00
04071             -70.00    -5200.00
04072             -30.00    -5000.00
04073              96.00    -5400.00
04074              86.00    -5600.00
04075             -80.00    -5600.00
04076              -2.00    -6000.00
04077             -16.00    -6000.00
04078              62.00    -6200.00
04079              48.00    -6600.00
04080             -42.00    -6400.00
04081              16.00    -6800.00
04082              14.00    -6800.00
04083              34.00    -7200.00
04084             -22.00    -7400.00
04085               0.00    -7400.00
04086              38.00    -7800.00
04087              16.00    -7600.00
04088              24.00    -7800.00
04089             -16.00    -8000.00
04090               8.00    -8400.00
04091              34.00    -8600.00
04092               8.00    -8600.00
04093              -6.00    -8800.00
04094               8.00    -8800.00
04095              22.00    -9200.00
04096              18.00    -9200.00
04097              14.00    -9200.00
04098               6.00    -9400.00
04099               8.00    -9600.00
04100              22.00    -9600.00
04101              14.00    -9600.00
04102              10.00   -10000.00
04103              22.00   -10200.00
04104               8.00   -10200.00
04105              14.00   -10400.00
04106              10.00   -10200.00
04107              14.00   -10400.00
04108              26.00   -10400.00
04109              26.00   -10600.00
04110               8.00   -10800.00
04111               6.00   -10800.00
04112              10.00   -11000.00
04113              16.00   -11000.00
04114              22.00   -11200.00
04115              20.00   -11200.00
04116              16.00   -11400.00
04117              16.00   -11400.00
04118              14.00   -11600.00
04119              14.00   -11600.00
04120              22.00   -11600.00
04121              20.00   -11600.00
04122              22.00   -11600.00
04123              22.00   -11800.00
04124              14.00   -11800.00
04125              14.00   -11800.00
04126              18.00   -11800.00
04127              22.00   -12000.00
04128              22.00   -12000.00
04129              24.00   -12000.00
04130              18.00   -12000.00
04131              16.00   -12000.00
04132              18.00   -12200.00
04133              16.00   -12200.00
04134              24.00   -12200.00
04135              26.00   -12200.00
04136              22.00   -12200.00
04137              22.00   -12400.00
04138              16.00   -12200.00
04139              14.00   -12200.00
04140              22.00   -12200.00
04141              24.00   -12000.00
04142              22.00   -12200.00
04143              22.00   -12200.00
04144              16.00   -12200.00
04145              14.00   -12000.00
04146              16.00   -12000.00
04147              22.00   -12000.00
04148              24.00   -12200.00
04149              24.00   -12000.00
04150              18.00   -12000.00
04151              16.00   -12000.00
04152              16.00   -12000.00
04153              16.00   -12000.00
04154              22.00   -12000.00
04155              24.00   -12000.00
04156              22.00   -11800.00
04157              16.00   -11800.00
04158              16.00   -11800.00
04159              16.00   -11600.00
04160              18.00   -11600.00
04161              22.00   -11600.00
04162              22.00   -11600.00
04163              18.00   -11600.00
04164              16.00   -11200.00
04165              14.00   -11200.00
04166              16.00   -11000.00
04167              18.00   -11000.00
04168              20.00   -11000.00
04169              22.00   -10800.00
04170              16.00   -10800.00
04171              12.00   -10800.00
04172              10.00   -10600.00
04173              16.00   -10400.00
04174              16.00   -10400.00
04175              18.00   -10200.00
04176              14.00   -10200.00
04177              16.00   -10000.00
04178              16.00   -10000.00
04179               8.00    -9600.00
04180               6.00    -9600.00
04181              18.00    -9600.00
04182              20.00    -9400.00
04183              14.00    -9400.00
04184              16.00    -9000.00
04185              14.00    -9000.00
04186              14.00    -8800.00
04187              10.00    -8600.00
04188               8.00    -8600.00
04189              12.00    -8600.00
04190              18.00    -8200.00
04191              18.00    -8200.00
04192              12.00    -8000.00
04193              -6.00    -7800.00
04194               0.00    -7600.00
04195              22.00    -7400.00
04196              34.00    -7200.00
04197              10.00    -7000.00
04198              -8.00    -7000.00
04199               0.00    -6800.00
04200              16.00    -6800.00
04201              16.00    -6400.00
04202              16.00    -6200.00
04203               8.00    -6200.00
04204               6.00    -6000.00
04205               2.00    -5600.00
04206               6.00    -5600.00
04207              14.00    -5400.00
04208              12.00    -5200.00
04209               8.00    -5000.00
04210               4.00    -4800.00
04211              -2.00    -4800.00
04212               2.00    -4600.00
04213              10.00    -4400.00
04214              14.00    -4200.00
04215               6.00    -4000.00
04216              -2.00    -3600.00
04217              -2.00    -3600.00
04218               2.00    -3400.00
04219               6.00    -3200.00
04220               0.00    -3000.00
04221               0.00    -2800.00
04222               6.00    -2800.00
04223               6.00    -2400.00
04224               0.00    -2400.00
04225              -8.00    -2000.00
04226             -10.00    -2000.00
04227               2.00    -1600.00
04228              14.00    -1400.00
04229               8.00    -1200.00
04230              -6.00    -1000.00
04231             -14.00     -800.00
04232              -8.00     -400.00
04233               2.00     -400.00
04234               4.00     -200.00
04235               0.00        0.00
04236              -2.00      200.00
04237              -6.00      400.00
04238               6.00      600.00
04239              32.00      800.00
04240              14.00     1000.00
04241             -14.00     1200.00
04242             -14.00     1200.00
04243               2.00     1400.00
04244              26.00     1800.00
04245             184.00     2000.00
04246             246.00     2400.00
04247            -208.00     2400.00
04248            -254.00     2600.00
04249            -210.00     2800.00
04250              74.00     2800.00
04251             246.00     3200.00
04252             246.00     3400.00
04253            -254.00     3200.00
04254             -86.00     3800.00
04255             246.00     4000.00
04256            -160.00     4000.00
04257              72.00     4400.00
04258             -62.00     4400.00
04259             -40.00     4400.00
04260             190.00     4800.00
04261            -174.00     5000.00
04262             -98.00     5400.00
04263              38.00     5600.00
04264              72.00     5800.00
04265              10.00     5600.00
04266             -64.00     6200.00
04267             -14.00     6200.00
04268             -80.00     6400.00
04269             102.00     6800.00
04270             -26.00     6600.00
04271             -82.00     6800.00
04272              38.00     7200.00
04273             -32.00     7200.00
04274               8.00     7400.00
04275             -40.00     7600.00
04276             -38.00     7600.00
04277              10.00     7800.00
04278              30.00     8200.00
04279             -42.00     8200.00
04280             -46.00     8400.00
04281              -2.00     8800.00
04282             -22.00     8800.00
04283               0.00     9000.00
04284             -26.00     8800.00
04285             -34.00     9000.00
04286             -22.00     9400.00
04287               4.00     9600.00
04288             -32.00     9600.00
04289             -14.00     9600.00
04290             -26.00     9800.00
04291             -40.00     9800.00
04292              -6.00    10000.00
04293             -22.00    10000.00
04294             -14.00    10200.00
04295             -16.00    10400.00
04296             -34.00    10400.00
04297             -40.00    10600.00
04298             -10.00    10800.00
04299              -8.00    10800.00
04300             -16.00    11000.00
04301             -22.00    11200.00
04302             -40.00    11200.00
04303             -32.00    11200.00
04304             -16.00    11400.00
04305             -18.00    11400.00
04306             -16.00    11400.00
04307             -18.00    11600.00
04308             -32.00    12000.00
04309             -26.00    11800.00
04310             -26.00    12000.00
04311             -30.00    12000.00
04312             -18.00    12200.00
04313             -16.00    12000.00
04314             -24.00    12200.00
04315             -28.00    12200.00
04316             -26.00    12400.00
04317             -26.00    12400.00
04318             -24.00    12400.00
04319             -24.00    12400.00
04320             -26.00    12400.00
04321             -22.00    12400.00
04322             -26.00    12400.00
04323             -32.00    12400.00
04324             -26.00    12800.00
04325             -22.00    12600.00
04326             -22.00    12600.00
04327             -22.00    12600.00
04328             -26.00    12600.00
04329             -30.00    12600.00
04330             -30.00    12800.00
04331             -30.00    12800.00
04332             -26.00    12800.00
04333             -16.00    12800.00
04334             -20.00    12800.00
04335             -26.00    12600.00
04336             -30.00    12600.00
04337             -32.00    12400.00
04338             -24.00    12600.00
04339             -20.00    12400.00
04340             -22.00    12400.00
04341             -24.00    12600.00
04342             -26.00    12400.00
04343             -30.00    12400.00
04344             -32.00    12400.00
04345             -28.00    12400.00
04346             -18.00    12400.00
04347             -10.00    12200.00
04348             -22.00    12200.00
04349             -32.00    12200.00
04350             -34.00    12000.00
04351             -28.00    12000.00
04352             -18.00    12000.00
04353             -14.00    12000.00
04354             -24.00    11800.00
04355             -28.00    11800.00
04356             -32.00    11600.00
04357             -32.00    11800.00
04358             -26.00    11400.00
04359             -22.00    11400.00
04360             -24.00    11400.00
04361             -22.00    11200.00
04362             -22.00    11200.00
04363             -30.00    11000.00
04364             -32.00    10800.00
04365             -28.00    10800.00
04366             -16.00    10800.00
04367             -10.00    10600.00
04368             -22.00    10400.00
04369             -30.00    10400.00
04370             -30.00    10200.00
04371             -24.00    10000.00
04372             -18.00    10000.00
04373             -16.00     9800.00
04374             -22.00     9800.00
04375             -24.00     9600.00
04376             -26.00     9400.00
04377             -24.00     9200.00
04378             -22.00     9200.00
04379             -22.00     9000.00
04380             -18.00     8800.00
04381             -18.00     8800.00
04382             -20.00     8600.00
04383             -24.00     8400.00
04384             -18.00     8200.00
04385             -18.00     8200.00
04386             -16.00     8000.00
04387             -18.00     8000.00
04388             -18.00     7600.00
04389             -22.00     7400.00
04390             -16.00     7400.00
04391             -16.00     7200.00
04392             -14.00     7200.00
04393             -16.00     6800.00
04394             -14.00     6800.00
04395             -18.00     6400.00
04396             -18.00     6400.00
04397             -14.00     6000.00
04398             -14.00     6000.00
04399             -14.00     5800.00
04400             -12.00     5600.00
04401             -16.00     5400.00
04402             -12.00     5400.00
04403             -14.00     5000.00
04404             -14.00     4800.00
04405             -10.00     4600.00
04406             -10.00     4400.00
04407             -10.00     4200.00
04408             -10.00     4000.00
04409             -10.00     3800.00
04410             -14.00     3600.00
04411             -12.00     3400.00
04412             -10.00     3400.00
04413              -6.00     3200.00
04414              -8.00     2800.00
04415             -10.00     2600.00
04416             -14.00     2600.00
04417             -12.00     2200.00
04418             -10.00     2000.00
04419              -8.00     1800.00
04420              -6.00     1800.00
04421              -6.00     1600.00
04422              -8.00     1400.00
04423              -8.00     1200.00
04424              -8.00      800.00
04425              -6.00      800.00
04426              -4.00      400.00
04427               0.00      200.00
04428               2.00      200.00
04429               0.00        0.00
04430              18.00     -200.00
04431              22.00     -400.00
04432              -2.00     -600.00
04433             -18.00     -800.00
04434              -6.00    -1000.00
04435              14.00    -1200.00
04436              22.00    -1200.00
04437             104.00    -1400.00
04438             246.00    -1800.00
04439               8.00    -2400.00
04440            -254.00    -2400.00
04441            -254.00    -2600.00
04442              72.00    -2800.00
04443             118.00    -2600.00
04444             246.00    -2800.00
04445              74.00    -3400.00
04446            -254.00    -3200.00
04447             100.00    -3600.00
04448             152.00    -4000.00
04449             -58.00    -3600.00
04450              30.00    -4400.00
04451             -64.00    -4200.00
04452              96.00    -4600.00
04453              42.00    -4800.00
04454            -102.00    -4800.00
04455             -40.00    -5200.00
04456               8.00    -5200.00
04457             142.00    -5600.00
04458             -14.00    -5400.00
04459             -54.00    -6000.00
04460               2.00    -6200.00
04461               0.00    -5800.00
04462              90.00    -6400.00
04463             -18.00    -6200.00
04464             -18.00    -6800.00
04465              16.00    -7000.00
04466              22.00    -7000.00
04467              16.00    -7200.00
04468             -32.00    -7200.00
04469              30.00    -7600.00
04470              24.00    -7600.00
04471              24.00    -8000.00
04472               8.00    -8000.00
04473             -18.00    -8000.00
04474              32.00    -8400.00
04475              28.00    -8400.00
04476               0.00    -8600.00
04477               2.00    -8800.00
04478              18.00    -8800.00
04479              24.00    -9200.00
04480              18.00    -9200.00
04481              14.00    -9200.00
04482               6.00    -9400.00
04483              16.00    -9600.00
04484              22.00    -9600.00
04485               8.00   -10000.00
04486              16.00   -10000.00
04487              18.00   -10000.00
04488               8.00   -10200.00
04489              14.00   -10200.00
04490               6.00   -10400.00
04491              18.00   -10400.00
04492              32.00   -10600.00
04493              18.00   -10800.00
04494               6.00   -10800.00
04495               8.00   -10800.00
04496              14.00   -11000.00
04497              18.00   -11000.00
04498              26.00   -11200.00
04499              16.00   -11200.00
04500              16.00   -11400.00
04501              18.00   -11200.00
04502              10.00   -11400.00
04503              16.00   -11600.00
04504              18.00   -11600.00
04505              18.00   -11800.00
04506              24.00   -11800.00
04507              16.00   -11800.00
04508              10.00   -12000.00
04509              16.00   -12000.00
04510              18.00   -12000.00
04511              22.00   -12000.00
04512              24.00   -12000.00
04513              22.00   -12200.00
04514              16.00   -12000.00
04515              18.00   -12200.00
04516              16.00   -12000.00
04517              18.00   -12400.00
04518              24.00   -12200.00
04519              22.00   -12000.00
04520              22.00   -12400.00
04521              18.00   -12400.00
04522              14.00   -12400.00
04523              18.00   -12400.00
04524              24.00   -12200.00
04525              24.00   -12200.00
04526              22.00   -12200.00
04527              18.00   -12000.00
04528              16.00   -12200.00
04529              14.00   -12000.00
04530              18.00   -12000.00
04531              22.00   -12000.00
04532              24.00   -12000.00
04533              22.00   -12000.00
04534              16.00   -12000.00
04535              18.00   -12000.00
04536              16.00   -12000.00
04537              16.00   -12000.00
04538              28.00   -12000.00
04539              22.00   -11800.00
04540              16.00   -11800.00
04541              16.00   -11800.00
04542              14.00   -11600.00
04543              16.00   -11600.00
04544              22.00   -11600.00
04545              24.00   -11400.00
04546              18.00   -11600.00
04547              16.00   -11400.00
04548              10.00   -11200.00
04549              14.00   -11200.00
04550              18.00   -11000.00
04551              18.00   -11000.00
04552              16.00   -11000.00
04553              20.00   -10800.00
04554              18.00   -10800.00
04555              12.00   -10800.00
04556               8.00   -10400.00
04557              14.00   -10400.00
04558              22.00   -10200.00
04559              22.00   -10200.00
04560              10.00   -10000.00
04561               8.00   -10000.00
04562              10.00    -9600.00
04563              14.00    -9600.00
04564              18.00    -9600.00
04565              14.00    -9400.00
04566              16.00    -9400.00
04567              14.00    -9200.00
04568              10.00    -9000.00
04569               8.00    -9000.00
04570              14.00    -8800.00
04571              16.00    -8600.00
04572              16.00    -8600.00
04573              10.00    -8400.00
04574               8.00    -8400.00
04575              10.00    -8000.00
04576              16.00    -7800.00
04577              14.00    -7800.00
04578              14.00    -7800.00
04579              10.00    -7200.00
04580               6.00    -7200.00
04581               8.00    -7200.00
04582              10.00    -6800.00
04583              14.00    -6800.00
04584              10.00    -6800.00
04585              10.00    -6400.00
04586               8.00    -6200.00
04587               8.00    -6200.00
04588              10.00    -6000.00
04589               8.00    -5600.00
04590               6.00    -5600.00
04591               6.00    -5200.00
04592               8.00    -5200.00
04593               8.00    -5000.00
04594               8.00    -4800.00
04595               2.00    -4600.00
04596               4.00    -4400.00
04597               4.00    -4200.00
04598               8.00    -4000.00
04599               8.00    -3800.00
04600               6.00    -3600.00
04601               2.00    -3400.00
04602               0.00    -3200.00
04603               0.00    -3000.00
04604               6.00    -3000.00
04605               2.00    -2800.00
04606               8.00    -2400.00
04607               2.00    -2200.00
04608               0.00    -2200.00
04609              -2.00    -2000.00
04610              -2.00    -1800.00
04611               2.00    -1400.00
04612               6.00    -1200.00
04613               6.00    -1000.00
04614               0.00     -800.00
04615              -6.00     -600.00
04616              -8.00     -600.00
04617              -6.00     -200.00
04618               2.00        0.00
04619               2.00      200.00
04620               2.00      400.00
04621               0.00      400.00
04622              18.00      600.00
04623              22.00      800.00
04624               0.00     1000.00
04625             -16.00     1200.00
04626               0.00     1400.00
04627              14.00     1600.00
04628              64.00     1600.00
04629             246.00     2200.00
04630             122.00     2600.00
04631            -254.00     2600.00
04632            -254.00     2600.00
04633             -42.00     2800.00
04634             216.00     3200.00
04635             246.00     3400.00
04636            -134.00     3400.00
04637            -254.00     3400.00
04638             246.00     4000.00
04639              88.00     4000.00
04640            -112.00     4400.00
04641              88.00     4400.00
04642            -158.00     4400.00
04643             142.00     4800.00
04644              48.00     5000.00
04645            -208.00     5400.00
04646              -8.00     5400.00
04647              38.00     5600.00
04648              70.00     5600.00
04649             -54.00     5600.00
04650             -16.00     6400.00
04651             -56.00     6000.00
04652             -14.00     6600.00
04653              96.00     6800.00
04654            -104.00     6600.00
04655              -8.00     7200.00
04656              -2.00     7000.00
04657             -16.00     7200.00
04658              14.00     7400.00
04659             -54.00     7600.00
04660             -32.00     8000.00
04661              16.00     8000.00
04662              24.00     8200.00
04663             -48.00     8000.00
04664             -14.00     8600.00
04665             -24.00     8400.00
04666             -20.00     8800.00
04667             -10.00     9000.00
04668             -26.00     9000.00
04669             -16.00     9200.00
04670               2.00     9400.00
04671             -12.00     9400.00
04672             -38.00     9600.00
04673              -6.00     9800.00
04674             -42.00     9800.00
04675             -24.00    10000.00
04676              -6.00    10000.00
04677             -10.00    10200.00
04678             -14.00    10400.00
04679             -34.00    10400.00
04680             -50.00    10400.00
04681             -22.00    10600.00
04682               6.00    10800.00
04683             -16.00    10800.00
04684             -22.00    11000.00
04685             -34.00    11200.00
04686             -38.00    11200.00
04687             -20.00    11400.00
04688              -8.00    11400.00
04689             -22.00    11600.00
04690             -24.00    11600.00
04691             -30.00    11800.00
04692             -26.00    11800.00
04693             -16.00    11800.00
04694             -30.00    12000.00
04695             -30.00    12000.00
04696             -22.00    12000.00
04697             -22.00    12000.00
04698             -24.00    12200.00
04699             -22.00    12200.00
04700             -32.00    12200.00
04701             -32.00    12200.00
04702             -24.00    12400.00
04703             -18.00    12400.00
04704             -16.00    12400.00
04705             -24.00    12400.00
04706             -32.00    12600.00
04707             -26.00    12400.00
04708             -24.00    12600.00
04709             -24.00    12800.00
04710             -20.00    12600.00
04711             -22.00    12600.00
04712             -26.00    12800.00
04713             -32.00    12800.00
04714             -32.00    12600.00
04715             -28.00    12600.00
04716             -22.00    12800.00
04717             -18.00    12600.00
04718             -24.00    12600.00
04719             -26.00    12600.00
04720             -34.00    12600.00
04721             -30.00    12800.00
04722             -18.00    12400.00
04723             -16.00    12400.00
04724             -20.00    12400.00
04725             -26.00    12400.00
04726             -32.00    12600.00
04727             -32.00    12400.00
04728             -24.00    12200.00
04729             -22.00    12400.00
04730             -20.00    12200.00
04731             -22.00    12200.00
04732             -34.00    12200.00
04733             -32.00    12200.00
04734             -26.00    12200.00
04735             -24.00    12000.00
04736             -20.00    12000.00
04737             -24.00    11800.00
04738             -24.00    12000.00
04739             -24.00    11800.00
04740             -28.00    11800.00
04741             -28.00    11600.00
04742             -22.00    11400.00
04743             -14.00    11400.00
04744             -24.00    11400.00
04745             -30.00    11200.00
04746             -28.00    11200.00
04747             -24.00    11000.00
04748             -24.00    10800.00
04749             -24.00    10600.00
04750             -22.00    10400.00
04751             -24.00    10400.00
04752             -24.00    10400.00
04753             -20.00    10400.00
04754             -24.00    10200.00
04755             -24.00    10000.00
04756             -26.00     9800.00
04757             -24.00     9800.00
04758             -16.00     9600.00
04759             -16.00     9600.00
04760             -22.00     9400.00
04761             -30.00     9200.00
04762             -26.00     9000.00
04763             -24.00     9000.00
04764             -16.00     8800.00
04765             -14.00     8800.00
04766             -18.00     8600.00
04767             -30.00     8200.00
04768             -38.00     8200.00
04769             -18.00     8000.00
04770               2.00     8000.00
04771               2.00     7600.00
04772             -16.00     7600.00
04773             -40.00     7600.00
04774             -34.00     7200.00
04775             -14.00     7200.00
04776               2.00     6800.00
04777              -8.00     6800.00
04778             -22.00     6400.00
04779             -28.00     6400.00
04780             -16.00     6000.00
04781             -10.00     6000.00
04782              -8.00     5800.00
04783             -14.00     5600.00
04784             -16.00     5600.00
04785             -16.00     5200.00
04786             -14.00     5200.00
04787             -14.00     5000.00
04788             -10.00     4800.00
04789              -8.00     4400.00
04790             -10.00     4400.00
04791             -12.00     4200.00
04792             -14.00     4000.00
04793             -10.00     3600.00
04794             -10.00     3600.00
04795             -10.00     3400.00
04796              -6.00     3200.00
04797              -6.00     2800.00
04798             -10.00     2800.00
04799             -14.00     2600.00
04800             -10.00     2400.00
04801              -6.00     2200.00
04802              -6.00     2000.00
04803              -8.00     1800.00
04804              -6.00     1600.00
04805              -4.00     1400.00
04806              -2.00     1200.00
04807              -8.00     1000.00
04808             -10.00      800.00
04809              -8.00      400.00
04810              -6.00      400.00
04811               0.00      400.00
04812               0.00        0.00
04813               6.00        0.00
04814              30.00     -400.00
04815              16.00     -400.00
04816             -10.00     -800.00
04817             -14.00     -800.00
04818               6.00    -1000.00
04819              16.00    -1200.00
04820              42.00    -1400.00
04821             190.00    -1600.00
04822             226.00    -2200.00
04823            -222.00    -2400.00
04824            -254.00    -2400.00
04825            -108.00    -2600.00
04826             120.00    -2800.00
04827             162.00    -2600.00
04828             246.00    -3200.00
04829            -218.00    -3200.00
04830            -222.00    -3200.00
04831             240.00    -4000.00
04832              -2.00    -3800.00
04833               0.00    -3800.00
04834             -18.00    -4400.00
04835             -16.00    -4200.00
04836             136.00    -4800.00
04837             -56.00    -4800.00
04838             -74.00    -5200.00
04839             -34.00    -5000.00
04840              80.00    -5200.00
04841             102.00    -5800.00
04842             -74.00    -5600.00
04843              -8.00    -6200.00
04844             -16.00    -6000.00
04845              54.00    -6000.00
04846              58.00    -6600.00
04847             -46.00    -6400.00
04848              10.00    -7000.00
04849              10.00    -6800.00
04850              38.00    -7200.00
04851             -14.00    -7200.00
04852             -10.00    -7400.00
04853              38.00    -7800.00
04854              16.00    -7600.00
04855              22.00    -8000.00
04856             -14.00    -8000.00
04857               0.00    -8400.00
04858              38.00    -8600.00
04859              14.00    -8400.00
04860              -6.00    -8800.00
04861               6.00    -8800.00
04862              24.00    -8800.00
04863              24.00    -9000.00
04864              16.00    -9200.00
04865               8.00    -9400.00
04866               6.00    -9600.00
04867              22.00    -9600.00
04868              16.00    -9800.00
04869              14.00   -10000.00
04870              24.00   -10000.00
04871              10.00   -10200.00
04872              14.00   -10200.00
04873              12.00   -10400.00
04874              10.00   -10400.00
04875              26.00   -10800.00
04876              26.00   -10800.00
04877              14.00   -11000.00
04878               8.00   -10800.00
04879              10.00   -11000.00
04880              14.00   -11000.00
04881              22.00   -11000.00
04882              24.00   -11200.00
04883              18.00   -11200.00
04884              22.00   -11400.00
04885              14.00   -11600.00
04886               8.00   -11600.00
04887              16.00   -11600.00
04888              22.00   -11600.00
04889              24.00   -11600.00
04890              22.00   -11800.00
04891              10.00   -11800.00
04892              14.00   -12000.00
04893              18.00   -12000.00
04894              22.00   -12000.00
04895              22.00   -12000.00
04896              22.00   -12000.00
04897              16.00   -12200.00
04898              18.00   -12000.00
04899              16.00   -12000.00
04900               8.00   -12200.00
04901              20.00   -12200.00
04902              30.00   -12200.00
04903              22.00   -12200.00
04904              16.00   -12200.00
04905              10.00   -12200.00
04906              16.00   -12000.00
04907              26.00   -12200.00
04908              24.00   -12400.00
04909              22.00   -12200.00
04910              16.00   -12200.00
04911              16.00   -12400.00
04912              18.00   -12000.00
04913              22.00   -12200.00
04914              22.00   -12000.00
04915              20.00   -12200.00
04916              20.00   -12000.00
04917              18.00   -12000.00
04918              16.00   -12000.00
04919              20.00   -12000.00
04920              18.00   -12000.00
04921              22.00   -12000.00
04922              22.00   -11800.00
04923              22.00   -11800.00
04924              18.00   -11800.00
04925              16.00   -11800.00
04926              10.00   -11800.00
04927              14.00   -11600.00
04928              24.00   -11600.00
04929              26.00   -11600.00
04930              22.00   -11200.00
04931              16.00   -11400.00
04932               8.00   -11200.00
04933              14.00   -11200.00
04934              22.00   -11000.00
04935              26.00   -11000.00
04936              22.00   -10800.00
04937              14.00   -10800.00
04938               6.00   -10800.00
04939              10.00   -10400.00
04940              16.00   -10400.00
04941              20.00   -10400.00
04942              22.00   -10200.00
04943              22.00   -10000.00
04944              10.00   -10000.00
04945               6.00    -9800.00
04946               8.00    -9800.00
04947              16.00    -9600.00
04948              22.00    -9600.00
04949              20.00    -9400.00
04950              10.00    -9200.00
04951               6.00    -9200.00
04952               6.00    -9000.00
04953              10.00    -8800.00
04954              16.00    -8600.00
04955              18.00    -8600.00
04956              14.00    -8400.00
04957               8.00    -8400.00
04958               8.00    -8400.00
04959               6.00    -8000.00
04960              14.00    -7800.00
04961              14.00    -7800.00
04962              14.00    -7600.00
04963              14.00    -7400.00
04964              10.00    -7200.00
04965               8.00    -7000.00
04966               6.00    -7000.00
04967               8.00    -6600.00
04968              12.00    -6400.00
04969              14.00    -6400.00
04970              14.00    -6000.00
04971               6.00    -6000.00
04972               2.00    -5800.00
04973               2.00    -5600.00
04974               8.00    -5400.00
04975              10.00    -5200.00
04976              10.00    -5200.00
04977               8.00    -4800.00
04978               4.00    -4600.00
04979               2.00    -4600.00
04980               4.00    -4400.00
04981               6.00    -4000.00
04982               8.00    -3800.00
04983               8.00    -3800.00
04984               6.00    -3600.00
04985               2.00    -3200.00
04986               0.00    -3200.00
04987               0.00    -3000.00
04988               6.00    -2800.00
04989               8.00    -2600.00
04990               8.00    -2400.00
04991               2.00    -2200.00
04992              -4.00    -2000.00
04993              -2.00    -2000.00
04994               2.00    -1600.00
04995               8.00    -1400.00
04996               6.00    -1200.00
04997              -2.00     -800.00
04998              -6.00     -800.00
04999              -2.00     -600.00
05000               2.00     -400.00
