Unit:(mV)
                     CH1         CH2
Frequency              ? 260.780 kHz
00001               2.00    -2800.00
00002               2.00    -2800.00
00003               6.00    -2400.00
00004               6.00    -2400.00
00005               0.00    -2200.00
00006              -2.00    -2000.00
00007              -2.00    -1800.00
00008               0.00    -1600.00
00009               0.00    -1200.00
00010               2.00    -1200.00
00011              -2.00    -1000.00
00012              -2.00     -800.00
00013              -4.00     -600.00
00014              -2.00     -400.00
00015               0.00     -200.00
00016               0.00        0.00
00017               2.00      200.00
00018               4.00      400.00
00019               8.00      400.00
00020              30.00      800.00
00021              14.00      800.00
00022             -10.00     1200.00
00023             -16.00     1200.00
00024               2.00     1400.00
00025              22.00     1600.00
00026             122.00     1800.00
00027             246.00     2400.00
00028             -26.00     2400.00
00029            -254.00     2600.00
00030            -254.00     2600.00
00031              44.00     2800.00
00032             246.00     3000.00
00033             246.00     3600.00
00034            -254.00     3200.00
00035            -254.00     3400.00
00036             246.00     4000.00
00037             102.00     4000.00
00038              68.00     4200.00
00039             -76.00     4400.00
00040            -254.00     4400.00
00041             246.00     4800.00
00042              46.00     5000.00
00043            -186.00     5200.00
00044             -46.00     5400.00
00045              14.00     5600.00
00046             110.00     5600.00
00047             -24.00     5600.00
00048             -42.00     6200.00
00049            -142.00     5800.00
00050              58.00     6400.00
00051             112.00     6600.00
00052            -128.00     6400.00
00053               0.00     7000.00
00054             -36.00     6800.00
00055               6.00     7200.00
00056              18.00     7400.00
00057             -70.00     7600.00
00058             -34.00     7600.00
00059              30.00     8000.00
00060              10.00     8200.00
00061             -70.00     8000.00
00062              -6.00     8400.00
00063             -34.00     8400.00
00064              -8.00     8400.00
00065               2.00     8800.00
00066             -48.00     8800.00
00067             -42.00     9000.00
00068              16.00     9200.00
00069              -8.00     9400.00
00070             -32.00     9600.00
00071             -16.00     9600.00
00072             -58.00     9600.00
00073              -2.00     9600.00
00074               0.00     9800.00
00075             -26.00    10000.00
00076             -18.00    10200.00
00077             -30.00    10200.00
00078             -46.00    10200.00
00079             -14.00    10400.00
00080               6.00    10400.00
00081             -22.00    10600.00
00082             -16.00    10800.00
00083             -40.00    10800.00
00084             -42.00    11000.00
00085             -14.00    11000.00
00086             -10.00    11200.00
00087             -24.00    11200.00
00088             -16.00    11400.00
00089             -32.00    11400.00
00090             -30.00    11400.00
00091             -18.00    11400.00
00092             -32.00    11600.00
00093             -24.00    11800.00
00094             -14.00    11800.00
00095             -24.00    12000.00
00096             -30.00    11800.00
00097             -26.00    12000.00
00098             -32.00    12000.00
00099             -30.00    12000.00
00100             -18.00    12200.00
00101             -18.00    12000.00
00102             -18.00    12200.00
00103             -30.00    12200.00
00104             -42.00    12200.00
00105             -34.00    12200.00
00106             -16.00    12200.00
00107             -20.00    12400.00
00108             -22.00    12200.00
00109             -28.00    12200.00
00110             -38.00    12200.00
00111             -30.00    12200.00
00112             -26.00    12400.00
00113             -30.00    12400.00
00114             -22.00    12200.00
00115             -24.00    12200.00
00116             -30.00    12400.00
00117             -28.00    12200.00
00118             -34.00    12400.00
00119             -30.00    12200.00
00120             -22.00    12200.00
00121             -24.00    12200.00
00122             -24.00    12200.00
00123             -26.00    12000.00
00124             -40.00    12000.00
00125             -34.00    12000.00
00126             -22.00    12000.00
00127             -16.00    12000.00
00128             -18.00    12000.00
00129             -32.00    12000.00
00130             -40.00    11800.00
00131             -26.00    11800.00
00132             -18.00    11600.00
00133             -22.00    11800.00
00134             -26.00    11800.00
00135             -28.00    11400.00
00136             -26.00    11400.00
00137             -24.00    11400.00
00138             -26.00    11400.00
00139             -30.00    11200.00
00140             -24.00    11000.00
00141             -24.00    11200.00
00142             -22.00    11000.00
00143             -22.00    10800.00
00144             -32.00    10600.00
00145             -30.00    10800.00
00146             -26.00    10600.00
00147             -16.00    10400.00
00148             -14.00    10400.00
00149             -22.00    10200.00
00150             -32.00    10000.00
00151             -30.00    10000.00
00152             -24.00     9800.00
00153             -18.00     9800.00
00154             -16.00     9600.00
00155             -22.00     9600.00
00156             -24.00     9600.00
00157             -26.00     9200.00
00158             -24.00     9000.00
00159             -22.00     9000.00
00160             -14.00     8800.00
00161             -16.00     8800.00
00162             -20.00     8400.00
00163             -26.00     8400.00
00164             -22.00     8200.00
00165             -22.00     8200.00
00166             -18.00     8000.00
00167             -16.00     8000.00
00168             -16.00     7600.00
00169             -18.00     7600.00
00170             -22.00     7400.00
00171             -26.00     7200.00
00172             -18.00     7000.00
00173             -14.00     6800.00
00174             -16.00     6600.00
00175             -16.00     6400.00
00176             -18.00     6400.00
00177             -18.00     6000.00
00178             -16.00     6000.00
00179             -16.00     5800.00
00180             -16.00     5600.00
00181              -8.00     5600.00
00182             -14.00     5400.00
00183             -18.00     5200.00
00184             -18.00     5000.00
00185             -16.00     4600.00
00186             -14.00     4600.00
00187             -10.00     4200.00
00188             -14.00     4200.00
00189             -10.00     4000.00
00190             -14.00     4000.00
00191             -18.00     3600.00
00192             -12.00     3400.00
00193              -8.00     3200.00
00194              -8.00     3200.00
00195             -10.00     2800.00
00196             -12.00     2600.00
00197             -12.00     2400.00
00198              -8.00     2400.00
00199             -10.00     2000.00
00200              -6.00     2000.00
00201              -6.00     1800.00
00202              -6.00     1600.00
00203              -6.00     1200.00
00204              -8.00     1200.00
00205             -10.00     1000.00
00206              -6.00      800.00
00207              -2.00      400.00
00208               0.00      400.00
00209               2.00      200.00
00210               0.00        0.00
00211              14.00        0.00
00212              30.00     -400.00
00213               6.00     -600.00
00214             -16.00     -800.00
00215              -8.00     -800.00
00216              14.00     -800.00
00217              20.00    -1200.00
00218              80.00    -1400.00
00219             246.00    -1400.00
00220             142.00    -2400.00
00221            -254.00    -2400.00
00222            -254.00    -2400.00
00223               2.00    -2600.00
00224             208.00    -2800.00
00225             246.00    -2600.00
00226             198.00    -3200.00
00227            -254.00    -3200.00
00228             -74.00    -3400.00
00229             246.00    -3800.00
00230              32.00    -3400.00
00231              16.00    -4000.00
00232            -174.00    -4000.00
00233              24.00    -4400.00
00234             192.00    -4600.00
00235             -54.00    -4600.00
00236            -110.00    -5200.00
00237             -82.00    -4800.00
00238             160.00    -5200.00
00239             112.00    -5400.00
00240             -80.00    -5400.00
00241             -58.00    -6000.00
00242             -50.00    -5800.00
00243             136.00    -6200.00
00244              70.00    -6200.00
00245             -74.00    -6400.00
00246             -30.00    -6800.00
00247              16.00    -6800.00
00248              64.00    -7000.00
00249             -10.00    -7200.00
00250              -6.00    -7200.00
00251              14.00    -7400.00
00252              34.00    -7600.00
00253              34.00    -7800.00
00254             -42.00    -7800.00
00255              12.00    -8400.00
00256              42.00    -8400.00
00257              16.00    -8000.00
00258               0.00    -8600.00
00259              -8.00    -8600.00
00260              14.00    -8800.00
00261              42.00    -8800.00
00262              26.00    -9000.00
00263              -2.00    -9200.00
00264               4.00    -9200.00
00265              12.00    -9400.00
00266              16.00    -9400.00
00267              32.00    -9600.00
00268              22.00    -9600.00
00269               6.00    -9600.00
00270              12.00   -10000.00
00271               0.00   -10000.00
00272              22.00   -10200.00
00273              46.00   -10200.00
00274              22.00   -10400.00
00275               6.00   -10400.00
00276               4.00   -10400.00
00277               8.00   -10600.00
00278              30.00   -10800.00
00279              34.00   -10800.00
00280              18.00   -10800.00
00281              16.00   -11000.00
00282              22.00   -11200.00
00283              14.00   -11200.00
00284              22.00   -11200.00
00285              22.00   -11200.00
00286              18.00   -11200.00
00287              24.00   -11400.00
00288              18.00   -11400.00
00289              10.00   -11600.00
00290              20.00   -11600.00
00291              20.00   -11600.00
00292              22.00   -11600.00
00293              26.00   -11600.00
00294              22.00   -11800.00
00295              14.00   -11800.00
00296              18.00   -11600.00
00297              22.00   -11800.00
00298              22.00   -11800.00
00299              24.00   -11800.00
00300              18.00   -11800.00
00301              22.00   -12000.00
00302              22.00   -11800.00
00303              14.00   -11800.00
00304              14.00   -11800.00
00305              22.00   -11800.00
00306              26.00   -11800.00
00307              22.00   -11800.00
00308              18.00   -11800.00
00309              16.00   -11800.00
00310              18.00   -11800.00
00311              16.00   -11800.00
00312              16.00   -11800.00
00313              22.00   -11600.00
00314              24.00   -11600.00
00315              20.00   -11800.00
00316              16.00   -11600.00
00317              14.00   -11600.00
00318              16.00   -11600.00
00319              24.00   -11400.00
00320              22.00   -11600.00
00321              18.00   -11400.00
00322              16.00   -11200.00
00323              16.00   -11400.00
00324              14.00   -11200.00
00325              20.00   -11200.00
00326              24.00   -11200.00
00327              22.00   -11000.00
00328              18.00   -11000.00
00329              14.00   -10800.00
00330              12.00   -10800.00
00331              22.00   -10800.00
00332              24.00   -10600.00
00333              22.00   -10800.00
00334              16.00   -10400.00
00335              14.00   -10200.00
00336              16.00   -10200.00
00337              16.00   -10200.00
00338              16.00   -10200.00
00339              18.00   -10000.00
00340              22.00    -9800.00
00341              16.00    -9600.00
00342              18.00    -9600.00
00343              14.00    -9400.00
00344              12.00    -9400.00
00345              14.00    -9200.00
00346              18.00    -9200.00
00347              18.00    -9200.00
00348              20.00    -9000.00
00349              10.00    -8800.00
00350               6.00    -8600.00
00351              14.00    -8400.00
00352              16.00    -8400.00
00353              18.00    -8000.00
00354              16.00    -8000.00
00355              10.00    -8000.00
00356               8.00    -7800.00
00357              10.00    -7600.00
00358              14.00    -7400.00
00359              18.00    -7200.00
00360              16.00    -7000.00
00361              12.00    -7000.00
00362               6.00    -7000.00
00363               8.00    -6800.00
00364              10.00    -6600.00
00365              10.00    -6400.00
00366               8.00    -6200.00
00367               8.00    -6000.00
00368               8.00    -6000.00
00369               4.00    -5600.00
00370               2.00    -5600.00
00371               6.00    -5400.00
00372              10.00    -5200.00
00373              16.00    -5000.00
00374              10.00    -4800.00
00375               8.00    -4600.00
00376               6.00    -4400.00
00377               0.00    -4400.00
00378               0.00    -4000.00
00379              -4.00    -3800.00
00380               0.00    -3800.00
00381               6.00    -3600.00
00382              -2.00    -3200.00
00383               2.00    -3200.00
00384              10.00    -3000.00
00385              10.00    -2800.00
00386               8.00    -2800.00
00387               2.00    -2400.00
00388               0.00    -2200.00
00389               0.00    -2000.00
00390             -10.00    -2000.00
00391             -12.00    -1600.00
00392              -2.00    -1400.00
00393               6.00    -1200.00
00394              16.00    -1000.00
00395              12.00     -800.00
00396              -2.00     -600.00
00397              -6.00     -600.00
00398              -2.00     -400.00
00399              -2.00        0.00
00400              -8.00        0.00
00401              -6.00      200.00
00402               0.00      400.00
00403              30.00      600.00
00404              40.00      800.00
00405               0.00     1000.00
00406             -24.00     1200.00
00407              -8.00     1600.00
00408              22.00     1600.00
00409              54.00     1800.00
00410             246.00     2000.00
00411             230.00     2400.00
00412            -254.00     2400.00
00413            -254.00     2600.00
00414            -134.00     2800.00
00415             246.00     2800.00
00416             246.00     3200.00
00417              72.00     3400.00
00418            -254.00     3200.00
00419              78.00     3800.00
00420             246.00     4000.00
00421             -24.00     4000.00
00422              96.00     4400.00
00423            -254.00     4400.00
00424              32.00     4400.00
00425             246.00     5000.00
00426            -162.00     5200.00
00427             -90.00     5200.00
00428             -34.00     5600.00
00429              82.00     5600.00
00430              40.00     5600.00
00431             -42.00     6000.00
00432             -90.00     6000.00
00433             -78.00     6200.00
00434             176.00     6600.00
00435             -50.00     6400.00
00436             -78.00     6800.00
00437               0.00     6800.00
00438             -32.00     7000.00
00439              54.00     7400.00
00440             -42.00     7200.00
00441             -72.00     7600.00
00442              -8.00     7600.00
00443              46.00     8000.00
00444             -40.00     8000.00
00445             -30.00     8200.00
00446             -14.00     8400.00
00447             -34.00     8400.00
00448              14.00     8800.00
00449             -32.00     8800.00
00450             -54.00     8800.00
00451             -16.00     9200.00
00452              18.00     9200.00
00453             -26.00     9400.00
00454              -8.00     9600.00
00455             -50.00     9600.00
00456             -44.00     9600.00
00457              10.00     9800.00
00458             -18.00     9800.00
00459             -14.00    10000.00
00460             -24.00    10000.00
00461             -46.00    10200.00
00462             -42.00    10400.00
00463               6.00    10400.00
00464              -6.00    10600.00
00465             -18.00    10800.00
00466             -30.00    10800.00
00467             -48.00    10800.00
00468             -26.00    10800.00
00469             -10.00    11200.00
00470             -26.00    11200.00
00471             -24.00    11400.00
00472             -16.00    11400.00
00473             -26.00    11400.00
00474             -20.00    11400.00
00475             -32.00    11800.00
00476             -42.00    11600.00
00477             -20.00    11800.00
00478             -14.00    11800.00
00479             -26.00    12000.00
00480             -22.00    12000.00
00481             -26.00    12000.00
00482             -34.00    12000.00
00483             -22.00    12000.00
00484             -24.00    12000.00
00485             -24.00    12000.00
00486             -18.00    12200.00
00487             -34.00    12000.00
00488             -38.00    12200.00
00489             -24.00    12200.00
00490             -26.00    12200.00
00491             -18.00    12200.00
00492             -16.00    12400.00
00493             -30.00    12400.00
00494             -34.00    12200.00
00495             -32.00    12400.00
00496             -32.00    12200.00
00497             -18.00    12400.00
00498             -16.00    12200.00
00499             -30.00    12200.00
00500             -32.00    12200.00
00501             -32.00    12200.00
00502             -30.00    12400.00
00503             -24.00    12200.00
00504             -24.00    12200.00
00505             -26.00    12200.00
00506             -24.00    12200.00
00507             -34.00    12200.00
00508             -34.00    12000.00
00509             -26.00    12000.00
00510             -18.00    12000.00
00511             -18.00    12000.00
00512             -24.00    12000.00
00513             -32.00    11800.00
00514             -32.00    12000.00
00515             -30.00    11600.00
00516             -26.00    11800.00
00517             -20.00    11600.00
00518             -22.00    11600.00
00519             -28.00    11400.00
00520             -34.00    11400.00
00521             -34.00    11400.00
00522             -26.00    11200.00
00523             -14.00    11200.00
00524             -16.00    10800.00
00525             -24.00    11000.00
00526             -30.00    10800.00
00527             -30.00    10800.00
00528             -26.00    10600.00
00529             -26.00    10600.00
00530             -22.00    10400.00
00531             -20.00    10400.00
00532             -22.00    10400.00
00533             -26.00    10200.00
00534             -26.00    10000.00
00535             -26.00    10000.00
00536             -22.00     9800.00
00537             -16.00     9800.00
00538             -14.00     9600.00
00539             -22.00     9400.00
00540             -26.00     9400.00
00541             -26.00     9200.00
00542             -26.00     9000.00
00543             -16.00     9000.00
00544             -16.00     8800.00
00545             -14.00     8800.00
00546             -22.00     8400.00
00547             -26.00     8400.00
00548             -26.00     8200.00
00549             -24.00     8000.00
00550             -16.00     8000.00
00551             -14.00     7600.00
00552             -14.00     7600.00
00553             -18.00     7400.00
00554             -24.00     7400.00
00555             -16.00     7200.00
00556             -16.00     6800.00
00557             -16.00     6800.00
00558             -16.00     6600.00
00559             -16.00     6400.00
00560             -14.00     6400.00
00561             -16.00     6200.00
00562             -18.00     5800.00
00563             -16.00     5800.00
00564             -10.00     5600.00
00565             -14.00     5400.00
00566             -14.00     5400.00
00567             -16.00     5000.00
00568             -16.00     5000.00
00569             -16.00     4600.00
00570             -14.00     4400.00
00571             -10.00     4200.00
00572              -8.00     4000.00
00573             -10.00     4000.00
00574             -18.00     3600.00
00575             -14.00     3600.00
00576             -10.00     3400.00
00577              -8.00     3200.00
00578              -6.00     3000.00
00579             -10.00     2600.00
00580             -10.00     2600.00
00581              -8.00     2400.00
00582             -12.00     2200.00
00583             -10.00     2000.00
00584              -6.00     1800.00
00585              -4.00     1600.00
00586              -8.00     1200.00
00587             -10.00     1400.00
00588             -10.00     1000.00
00589              -2.00      800.00
00590               0.00      800.00
00591              -2.00      400.00
00592              -2.00      400.00
00593              -2.00      200.00
00594               6.00        0.00
00595              34.00     -200.00
00596              22.00     -400.00
00597             -14.00     -800.00
00598             -22.00     -600.00
00599               0.00     -800.00
00600              22.00    -1200.00
00601              40.00    -1200.00
00602             168.00    -1400.00
00603             246.00    -2000.00
00604            -158.00    -2200.00
00605            -254.00    -2400.00
00606            -224.00    -2400.00
00607             166.00    -2600.00
00608             246.00    -2600.00
00609             246.00    -3000.00
00610            -254.00    -3200.00
00611            -254.00    -3200.00
00612             246.00    -3800.00
00613             162.00    -3400.00
00614              24.00    -3600.00
00615             -88.00    -4200.00
00616            -130.00    -4000.00
00617             192.00    -4600.00
00618              64.00    -4600.00
00619            -102.00    -4800.00
00620            -112.00    -4800.00
00621              38.00    -4800.00
00622             200.00    -5600.00
00623             -28.00    -5200.00
00624             -66.00    -5600.00
00625             -66.00    -6000.00
00626              46.00    -6000.00
00627             144.00    -6400.00
00628             -42.00    -6200.00
00629             -48.00    -6600.00
00630              -6.00    -6800.00
00631              60.00    -6800.00
00632              24.00    -7200.00
00633             -26.00    -7000.00
00634               8.00    -7400.00
00635              16.00    -7400.00
00636              54.00    -7800.00
00637             -10.00    -7800.00
00638             -24.00    -8000.00
00639              40.00    -8200.00
00640              18.00    -8200.00
00641               6.00    -8600.00
00642               6.00    -8600.00
00643               4.00    -8800.00
00644              30.00    -8800.00
00645              26.00    -8800.00
00646               0.00    -9200.00
00647               6.00    -9200.00
00648              22.00    -9200.00
00649              14.00    -9400.00
00650              18.00    -9600.00
00651              22.00    -9600.00
00652               6.00    -9600.00
00653              16.00   -10000.00
00654              12.00   -10000.00
00655               6.00   -10000.00
00656              38.00   -10200.00
00657              26.00   -10200.00
00658               8.00   -10400.00
00659              10.00   -10400.00
00660               4.00   -10800.00
00661              16.00   -10800.00
00662              32.00   -10800.00
00663              22.00   -10800.00
00664              16.00   -11000.00
00665              18.00   -11000.00
00666              14.00   -11000.00
00667              16.00   -11200.00
00668              24.00   -11000.00
00669              16.00   -11200.00
00670              22.00   -11200.00
00671              30.00   -11400.00
00672              14.00   -11600.00
00673              16.00   -11600.00
00674              18.00   -11600.00
00675              18.00   -11600.00
00676              24.00   -11800.00
00677              32.00   -11600.00
00678              18.00   -11600.00
00679              14.00   -11600.00
00680              16.00   -11600.00
00681              16.00   -11800.00
00682              30.00   -11800.00
00683              32.00   -11800.00
00684              14.00   -11800.00
00685              16.00   -11600.00
00686              16.00   -11800.00
00687              22.00   -11600.00
00688              24.00   -11800.00
00689              16.00   -11800.00
00690              20.00   -11800.00
00691              30.00   -11800.00
00692              22.00   -11800.00
00693               8.00   -11800.00
00694              12.00   -11600.00
00695              18.00   -11800.00
00696              30.00   -11600.00
00697              32.00   -11800.00
00698              10.00   -11800.00
00699               8.00   -11800.00
00700              18.00   -11600.00
00701              22.00   -11600.00
00702              24.00   -11600.00
00703              16.00   -11400.00
00704              10.00   -11600.00
00705              24.00   -11400.00
00706              38.00   -11400.00
00707              16.00   -11200.00
00708              -2.00   -11200.00
00709               6.00   -11200.00
00710              34.00   -11000.00
00711              40.00   -11000.00
00712              10.00   -11000.00
00713             -10.00   -10800.00
00714              22.00   -10800.00
00715              42.00   -10800.00
00716              26.00   -10800.00
00717              -8.00   -10400.00
00718              -8.00   -10400.00
00719              26.00   -10200.00
00720              48.00   -10200.00
00721              28.00   -10200.00
00722               2.00   -10000.00
00723              -8.00    -9800.00
00724               6.00    -9800.00
00725              28.00    -9600.00
00726              32.00    -9400.00
00727              16.00    -9400.00
00728              16.00    -9400.00
00729              24.00    -9200.00
00730              12.00    -9200.00
00731              -2.00    -8800.00
00732             -10.00    -8800.00
00733              16.00    -8600.00
00734              54.00    -8600.00
00735              42.00    -8600.00
00736             -10.00    -8200.00
00737             -24.00    -8400.00
00738              14.00    -7800.00
00739              46.00    -7800.00
00740              26.00    -7800.00
00741              -6.00    -7400.00
00742              -6.00    -7200.00
00743              16.00    -7200.00
00744              22.00    -7000.00
00745              10.00    -7000.00
00746              16.00    -6800.00
00747              18.00    -6600.00
00748               6.00    -6600.00
00749              -6.00    -6400.00
00750               2.00    -6200.00
00751              24.00    -6000.00
00752              30.00    -5800.00
00753               4.00    -5600.00
00754             -22.00    -5400.00
00755              -6.00    -5400.00
00756              24.00    -5000.00
00757              32.00    -4800.00
00758              14.00    -4600.00
00759             -14.00    -4600.00
00760             -14.00    -4400.00
00761               6.00    -4400.00
00762              12.00    -4000.00
00763              14.00    -3800.00
00764              14.00    -3600.00
00765               8.00    -3600.00
00766               4.00    -3200.00
00767              -6.00    -3000.00
00768             -14.00    -3000.00
00769              -2.00    -2800.00
00770              10.00    -2600.00
00771              20.00    -2200.00
00772              16.00    -2000.00
00773             -10.00    -2200.00
00774             -26.00    -1800.00
00775             -10.00    -1600.00
00776              10.00    -1200.00
00777              22.00    -1000.00
00778              14.00     -800.00
00779              -8.00     -800.00
00780             -16.00     -600.00
00781             -12.00     -400.00
00782              -6.00        0.00
00783               8.00        0.00
00784              16.00      200.00
00785               8.00      400.00
00786               4.00      600.00
00787              22.00      800.00
00788               8.00      800.00
00789             -10.00     1000.00
00790             -14.00     1400.00
00791               8.00     1400.00
00792              26.00     1600.00
00793             142.00     1800.00
00794             246.00     2400.00
00795             -80.00     2400.00
00796            -254.00     2600.00
00797            -254.00     2600.00
00798              70.00     2800.00
00799             246.00     3200.00
00800             246.00     3400.00
00801            -254.00     3200.00
00802            -254.00     3400.00
00803             246.00     3800.00
00804              64.00     4000.00
00805              92.00     4200.00
00806            -110.00     4400.00
00807            -254.00     4400.00
00808             246.00     4600.00
00809               2.00     5000.00
00810            -182.00     5200.00
00811             -40.00     5200.00
00812              26.00     5600.00
00813             112.00     5600.00
00814             -28.00     5600.00
00815             -48.00     6200.00
00816            -142.00     6000.00
00817              90.00     6400.00
00818              94.00     6600.00
00819            -138.00     6600.00
00820               2.00     7000.00
00821             -34.00     6800.00
00822              30.00     7200.00
00823              14.00     7200.00
00824             -80.00     7600.00
00825             -40.00     7600.00
00826              34.00     7800.00
00827               8.00     8000.00
00828             -64.00     8000.00
00829              -6.00     8400.00
00830             -34.00     8400.00
00831               0.00     8400.00
00832             -10.00     8800.00
00833             -54.00     8800.00
00834             -38.00     9000.00
00835              22.00     9200.00
00836             -10.00     9200.00
00837             -30.00     9200.00
00838             -18.00     9600.00
00839             -62.00     9600.00
00840             -10.00     9800.00
00841             -10.00    10000.00
00842             -22.00     9800.00
00843             -10.00    10200.00
00844             -26.00    10200.00
00845             -54.00    10200.00
00846             -22.00    10400.00
00847              -2.00    10600.00
00848             -22.00    10400.00
00849             -16.00    10800.00
00850             -34.00    10800.00
00851             -42.00    11000.00
00852             -16.00    10800.00
00853             -16.00    11200.00
00854             -24.00    11200.00
00855             -14.00    11200.00
00856             -32.00    11400.00
00857             -34.00    11400.00
00858             -16.00    11800.00
00859             -30.00    11600.00
00860             -26.00    11800.00
00861             -16.00    11800.00
00862             -26.00    12000.00
00863             -24.00    12000.00
00864             -22.00    12000.00
00865             -40.00    12000.00
00866             -32.00    12200.00
00867             -16.00    12000.00
00868             -16.00    12000.00
00869             -16.00    12200.00
00870             -30.00    12200.00
00871             -48.00    12200.00
00872             -30.00    12200.00
00873             -14.00    12200.00
00874             -16.00    12200.00
00875             -16.00    12200.00
00876             -32.00    12200.00
00877             -40.00    12200.00
00878             -28.00    12400.00
00879             -24.00    12400.00
00880             -24.00    12200.00
00881             -16.00    12400.00
00882             -24.00    12400.00
00883             -28.00    12200.00
00884             -32.00    12200.00
00885             -38.00    12200.00
00886             -30.00    12400.00
00887             -14.00    12200.00
00888             -14.00    12000.00
00889             -22.00    12000.00
00890             -40.00    12200.00
00891             -44.00    12000.00
00892             -26.00    12000.00
00893             -18.00    12000.00
00894             -18.00    12000.00
00895             -26.00    12000.00
00896             -32.00    11800.00
00897             -26.00    12000.00
00898             -26.00    11800.00
00899             -26.00    11800.00
00900             -26.00    11600.00
00901             -26.00    11600.00
00902             -24.00    11400.00
00903             -26.00    11400.00
00904             -26.00    11400.00
00905             -26.00    11200.00
00906             -30.00    11200.00
00907             -26.00    11200.00
00908             -24.00    10800.00
00909             -18.00    10800.00
00910             -22.00    10800.00
00911             -26.00    10600.00
00912             -32.00    10600.00
00913             -24.00    10400.00
00914             -18.00    10400.00
00915             -24.00    10400.00
00916             -24.00    10200.00
00917             -24.00    10000.00
00918             -24.00    10000.00
00919             -26.00     9800.00
00920             -30.00     9600.00
00921             -22.00     9600.00
00922             -16.00     9600.00
00923             -18.00     9600.00
00924             -26.00     9200.00
00925             -26.00     9000.00
00926             -24.00     9000.00
00927             -16.00     8800.00
00928             -12.00     8800.00
00929             -18.00     8400.00
00930             -24.00     8400.00
00931             -24.00     8200.00
00932             -24.00     8000.00
00933             -16.00     8000.00
00934             -16.00     8000.00
00935             -18.00     7600.00
00936             -16.00     7600.00
00937             -24.00     7400.00
00938             -22.00     7200.00
00939             -18.00     7200.00
00940             -16.00     6800.00
00941             -10.00     6600.00
00942             -10.00     6600.00
00943             -16.00     6400.00
00944             -18.00     6400.00
00945             -18.00     6000.00
00946             -16.00     6000.00
00947             -10.00     5800.00
00948             -10.00     5600.00
00949             -16.00     5400.00
00950             -16.00     5200.00
00951             -18.00     5000.00
00952             -16.00     4800.00
00953             -10.00     4400.00
00954             -10.00     4400.00
00955              -6.00     4000.00
00956             -10.00     4000.00
00957             -18.00     3800.00
00958             -16.00     3600.00
00959             -10.00     3400.00
00960              -6.00     3200.00
00961              -8.00     3200.00
00962             -10.00     2800.00
00963             -12.00     2800.00
00964              -8.00     2400.00
00965             -10.00     2200.00
00966             -10.00     2000.00
00967              -6.00     1800.00
00968              -2.00     1600.00
00969              -6.00     1600.00
00970             -10.00     1400.00
00971             -14.00     1000.00
00972              -6.00     1000.00
00973              -6.00      800.00
00974              -2.00      400.00
00975              -2.00      400.00
00976               0.00      200.00
00977               2.00        0.00
00978              18.00        0.00
00979              28.00     -400.00
00980               0.00     -600.00
00981             -22.00     -800.00
00982             -14.00     -800.00
00983              16.00    -1000.00
00984              24.00    -1200.00
00985              88.00    -1400.00
00986             246.00    -1600.00
00987              98.00    -2200.00
00988            -254.00    -2400.00
00989            -254.00    -2400.00
00990              30.00    -2400.00
00991             214.00    -2400.00
00992             246.00    -2600.00
00993             136.00    -3200.00
00994            -254.00    -3000.00
00995             -16.00    -3200.00
00996             246.00    -3800.00
00997              30.00    -3400.00
00998               8.00    -4400.00
00999            -182.00    -4000.00
01000              50.00    -4400.00
01001             182.00    -4600.00
01002             -62.00    -4600.00
01003            -106.00    -4800.00
01004             -72.00    -4800.00
01005             174.00    -5400.00
01006              88.00    -5200.00
01007             -80.00    -5600.00
01008             -50.00    -6000.00
01009             -40.00    -5600.00
01010             142.00    -6200.00
01011              48.00    -6200.00
01012             -68.00    -6200.00
01013             -16.00    -6800.00
01014              26.00    -6800.00
01015              58.00    -7200.00
01016             -16.00    -7000.00
01017              -2.00    -7200.00
01018              10.00    -7400.00
01019              34.00    -7400.00
01020              32.00    -8000.00
01021             -34.00    -7800.00
01022              22.00    -8200.00
01023              32.00    -8200.00
01024               8.00    -8400.00
01025               8.00    -8600.00
01026               2.00    -8600.00
01027              16.00    -8600.00
01028              30.00    -8800.00
01029              10.00    -9000.00
01030               0.00    -9200.00
01031              14.00    -9200.00
01032              18.00    -9400.00
01033              16.00    -9600.00
01034              24.00    -9600.00
01035              10.00    -9600.00
01036               6.00    -9800.00
01037              16.00   -10000.00
01038               6.00   -10000.00
01039              22.00   -10000.00
01040              32.00   -10200.00
01041              16.00   -10400.00
01042              14.00   -10400.00
01043               8.00   -10400.00
01044               8.00   -10600.00
01045              22.00   -10600.00
01046              30.00   -10800.00
01047              20.00   -11000.00
01048              18.00   -11000.00
01049              14.00   -11000.00
01050               8.00   -11200.00
01051              16.00   -11200.00
01052              24.00   -11200.00
01053              22.00   -11200.00
01054              30.00   -11400.00
01055              20.00   -11600.00
01056               8.00   -11600.00
01057              14.00   -11600.00
01058              18.00   -11600.00
01059              22.00   -11600.00
01060              30.00   -11800.00
01061              24.00   -11600.00
01062              14.00   -11800.00
01063              16.00   -11600.00
01064              16.00   -11800.00
01065              20.00   -11800.00
01066              30.00   -11800.00
01067              24.00   -11800.00
01068              22.00   -11800.00
01069              20.00   -11800.00
01070              14.00   -12000.00
01071              18.00   -11800.00
01072              24.00   -11800.00
01073              22.00   -11800.00
01074              24.00   -12000.00
01075              22.00   -11800.00
01076              16.00   -11800.00
01077              16.00   -11800.00
01078              18.00   -11600.00
01079              22.00   -11800.00
01080              30.00   -11600.00
01081              26.00   -11600.00
01082              16.00   -11800.00
01083              16.00   -11600.00
01084              14.00   -11600.00
01085              16.00   -11600.00
01086              22.00   -11600.00
01087              24.00   -11600.00
01088              22.00   -11400.00
01089              22.00   -11400.00
01090              12.00   -11200.00
01091              16.00   -11200.00
01092              18.00   -11200.00
01093              22.00   -11200.00
01094              22.00   -11000.00
01095              18.00   -11000.00
01096              16.00   -11000.00
01097              16.00   -10800.00
01098              16.00   -10800.00
01099              18.00   -10800.00
01100              24.00   -10600.00
01101              22.00   -10400.00
01102              14.00   -10400.00
01103              10.00   -10200.00
01104              10.00   -10000.00
01105              22.00   -10000.00
01106              22.00   -10000.00
01107              18.00   -10000.00
01108              16.00    -9800.00
01109              14.00    -9600.00
01110              10.00    -9600.00
01111              14.00    -9400.00
01112              16.00    -9200.00
01113              22.00    -9200.00
01114              22.00    -9200.00
01115              10.00    -8800.00
01116              10.00    -8800.00
01117              10.00    -8600.00
01118              16.00    -8400.00
01119              22.00    -8400.00
01120              18.00    -8400.00
01121              14.00    -8000.00
01122              14.00    -7800.00
01123               8.00    -7800.00
01124              10.00    -7400.00
01125              12.00    -7200.00
01126              14.00    -7200.00
01127              16.00    -7200.00
01128              14.00    -7000.00
01129               8.00    -7000.00
01130               6.00    -6800.00
01131               8.00    -6800.00
01132              10.00    -6400.00
01133              16.00    -6200.00
01134              14.00    -6000.00
01135               8.00    -5800.00
01136               6.00    -5800.00
01137               6.00    -5400.00
01138               8.00    -5200.00
01139              14.00    -5200.00
01140              14.00    -5000.00
01141              10.00    -4800.00
01142               6.00    -4600.00
01143               0.00    -4600.00
01144               2.00    -4200.00
01145               6.00    -4000.00
01146              10.00    -3800.00
01147               8.00    -3800.00
01148               6.00    -3600.00
01149               0.00    -3200.00
01150               2.00    -3200.00
01151               2.00    -3000.00
01152               0.00    -2800.00
01153               0.00    -2800.00
01154               2.00    -2400.00
01155               6.00    -2200.00
01156               0.00    -2000.00
01157              -6.00    -2000.00
01158              -2.00    -1400.00
01159               2.00    -1400.00
01160               6.00    -1000.00
01161               0.00    -1000.00
01162              -6.00     -800.00
01163              -6.00     -800.00
01164              -6.00     -600.00
01165              -2.00     -400.00
01166              -2.00        0.00
01167               6.00      200.00
01168               2.00      200.00
01169               0.00      400.00
01170              18.00      600.00
01171              26.00      800.00
01172               2.00     1000.00
01173             -22.00     1200.00
01174             -12.00     1200.00
01175              14.00     1600.00
01176              58.00     1600.00
01177             246.00     2400.00
01178             208.00     2600.00
01179            -254.00     2400.00
01180            -254.00     2400.00
01181            -110.00     2800.00
01182             246.00     3000.00
01183             246.00     3400.00
01184             -48.00     3400.00
01185            -254.00     3200.00
01186             158.00     4000.00
01187             246.00     3800.00
01188              -8.00     4000.00
01189              82.00     4400.00
01190            -254.00     4400.00
01191              76.00     4600.00
01192             234.00     5000.00
01193            -184.00     5200.00
01194             -80.00     5200.00
01195             -30.00     5600.00
01196              96.00     5600.00
01197              34.00     5600.00
01198             -42.00     6200.00
01199            -102.00     6000.00
01200             -58.00     6200.00
01201             170.00     6600.00
01202             -72.00     6400.00
01203             -64.00     6800.00
01204              -6.00     6800.00
01205             -30.00     7200.00
01206              50.00     7400.00
01207             -48.00     7600.00
01208             -54.00     7600.00
01209               6.00     7800.00
01210              36.00     8000.00
01211             -56.00     8000.00
01212             -32.00     8400.00
01213             -14.00     8400.00
01214             -26.00     8400.00
01215              16.00     8800.00
01216             -32.00     8800.00
01217             -50.00     8800.00
01218             -10.00     9000.00
01219               8.00     9200.00
01220             -34.00     9200.00
01221              -8.00     9600.00
01222             -42.00     9600.00
01223             -38.00     9600.00
01224               8.00     9800.00
01225             -20.00     9800.00
01226             -24.00    10000.00
01227             -26.00    10200.00
01228             -48.00    10400.00
01229             -34.00    10400.00
01230              14.00    10600.00
01231             -18.00    10400.00
01232             -26.00    10800.00
01233             -30.00    10800.00
01234             -42.00    10800.00
01235             -16.00    11000.00
01236              -8.00    11200.00
01237             -30.00    11200.00
01238             -24.00    11200.00
01239             -22.00    11400.00
01240             -34.00    11400.00
01241             -16.00    11400.00
01242             -26.00    11400.00
01243             -32.00    11800.00
01244             -16.00    11600.00
01245             -20.00    12000.00
01246             -26.00    11800.00
01247             -22.00    12000.00
01248             -34.00    12000.00
01249             -34.00    12000.00
01250             -16.00    12000.00
01251             -18.00    12200.00
01252             -22.00    12200.00
01253             -26.00    12200.00
01254             -34.00    12000.00
01255             -26.00    12200.00
01256             -18.00    12200.00
01257             -26.00    12200.00
01258             -22.00    12200.00
01259             -24.00    12200.00
01260             -32.00    12400.00
01261             -30.00    12200.00
01262             -30.00    12400.00
01263             -26.00    12200.00
01264             -18.00    12200.00
01265             -22.00    12200.00
01266             -24.00    12200.00
01267             -26.00    12200.00
01268             -32.00    12200.00
01269             -32.00    12200.00
01270             -24.00    12200.00
01271             -16.00    12200.00
01272             -18.00    12200.00
01273             -26.00    12200.00
01274             -38.00    12000.00
01275             -32.00    12000.00
01276             -24.00    12000.00
01277             -18.00    12000.00
01278             -22.00    12000.00
01279             -26.00    11800.00
01280             -32.00    11800.00
01281             -32.00    12000.00
01282             -30.00    11600.00
01283             -22.00    11800.00
01284             -18.00    11600.00
01285             -24.00    11600.00
01286             -28.00    11600.00
01287             -32.00    11400.00
01288             -26.00    11400.00
01289             -26.00    11400.00
01290             -24.00    11000.00
01291             -22.00    11000.00
01292             -22.00    10800.00
01293             -24.00    10800.00
01294             -30.00    10800.00
01295             -32.00    10600.00
01296             -26.00    10600.00
01297             -16.00    10400.00
01298             -18.00    10400.00
01299             -22.00    10400.00
01300             -26.00    10000.00
01301             -30.00    10000.00
01302             -26.00    10000.00
01303             -24.00     9600.00
01304             -18.00     9600.00
01305             -16.00     9600.00
01306             -22.00     9400.00
01307             -24.00     9200.00
01308             -26.00     9200.00
01309             -22.00     9000.00
01310             -18.00     9000.00
01311             -18.00     8600.00
01312             -18.00     8600.00
01313             -22.00     8400.00
01314             -22.00     8200.00
01315             -26.00     8200.00
01316             -18.00     8000.00
01317             -14.00     7800.00
01318             -10.00     7800.00
01319             -16.00     7600.00
01320             -20.00     7600.00
01321             -24.00     7400.00
01322             -16.00     7200.00
01323             -16.00     6800.00
01324             -16.00     6600.00
01325             -16.00     6600.00
01326             -16.00     6600.00
01327             -16.00     6400.00
01328             -14.00     6000.00
01329             -16.00     6000.00
01330             -14.00     5800.00
01331             -10.00     5600.00
01332             -10.00     5400.00
01333             -16.00     5200.00
01334             -16.00     5000.00
01335             -16.00     4800.00
01336             -14.00     4600.00
01337              -8.00     4400.00
01338              -8.00     4200.00
01339             -10.00     4000.00
01340             -16.00     4000.00
01341             -14.00     3800.00
01342              -8.00     3400.00
01343              -6.00     3400.00
01344             -10.00     3200.00
01345             -14.00     3000.00
01346             -10.00     2600.00
01347              -4.00     2600.00
01348             -10.00     2400.00
01349             -16.00     2200.00
01350             -16.00     2000.00
01351              -2.00     1600.00
01352               2.00     1600.00
01353              -2.00     1600.00
01354             -14.00     1200.00
01355             -16.00     1000.00
01356             -12.00     1000.00
01357              -2.00      800.00
01358               6.00      400.00
01359              -2.00      200.00
01360              -4.00        0.00
01361               0.00        0.00
01362              30.00     -400.00
01363              22.00     -400.00
01364             -12.00     -800.00
01365             -24.00     -800.00
01366               4.00    -1000.00
01367              22.00    -1200.00
01368              40.00    -1400.00
01369             182.00    -1400.00
01370             246.00    -2000.00
01371            -200.00    -2400.00
01372            -254.00    -2600.00
01373            -190.00    -2400.00
01374             170.00    -2400.00
01375             246.00    -2400.00
01376             246.00    -3000.00
01377            -254.00    -3400.00
01378            -254.00    -3200.00
01379             246.00    -3800.00
01380             126.00    -3600.00
01381              18.00    -3800.00
01382             -98.00    -4400.00
01383            -102.00    -4000.00
01384             206.00    -4600.00
01385              38.00    -4800.00
01386            -114.00    -4800.00
01387            -118.00    -5000.00
01388              62.00    -5200.00
01389             200.00    -5400.00
01390             -42.00    -5400.00
01391             -66.00    -5800.00
01392             -74.00    -6000.00
01393              60.00    -6000.00
01394             144.00    -6400.00
01395             -48.00    -6200.00
01396             -42.00    -6800.00
01397              -6.00    -6600.00
01398              58.00    -6800.00
01399              26.00    -7200.00
01400             -18.00    -7000.00
01401               4.00    -7600.00
01402               8.00    -7400.00
01403              54.00    -7600.00
01404              -2.00    -7800.00
01405              -8.00    -7800.00
01406              38.00    -8400.00
01407               6.00    -8000.00
01408               0.00    -8600.00
01409               4.00    -8600.00
01410               8.00    -8800.00
01411              30.00    -9000.00
01412              30.00    -9000.00
01413               6.00    -9200.00
01414               6.00    -9200.00
01415              14.00    -9400.00
01416               8.00    -9400.00
01417              18.00    -9600.00
01418              24.00    -9600.00
01419               8.00    -9600.00
01420              16.00   -10000.00
01421               8.00    -9800.00
01422               6.00   -10200.00
01423              32.00   -10200.00
01424              30.00   -10400.00
01425              10.00   -10400.00
01426               8.00   -10400.00
01427               6.00   -10600.00
01428              16.00   -10800.00
01429              32.00   -10800.00
01430              22.00   -10800.00
01431              10.00   -11000.00
01432              16.00   -11000.00
01433              16.00   -11200.00
01434              22.00   -11200.00
01435              26.00   -11200.00
01436              16.00   -11200.00
01437              18.00   -11400.00
01438              30.00   -11600.00
01439              12.00   -11600.00
01440              12.00   -11600.00
01441              22.00   -11600.00
01442              22.00   -11600.00
01443              28.00   -11600.00
01444              26.00   -11600.00
01445              14.00   -11600.00
01446              14.00   -11600.00
01447              18.00   -11800.00
01448              16.00   -11600.00
01449              30.00   -11800.00
01450              30.00   -11800.00
01451              22.00   -11800.00
01452              16.00   -12000.00
01453               8.00   -11800.00
01454              16.00   -11600.00
01455              32.00   -11600.00
01456              30.00   -11800.00
01457              24.00   -11800.00
01458              22.00   -11800.00
01459              16.00   -11800.00
01460              16.00   -11800.00
01461              16.00   -11800.00
01462              20.00   -11800.00
01463              30.00   -11600.00
01464              30.00   -11600.00
01465              18.00   -11600.00
01466              10.00   -11600.00
01467              14.00   -11800.00
01468              20.00   -11600.00
01469              32.00   -11600.00
01470              26.00   -11400.00
01471              16.00   -11400.00
01472              14.00   -11400.00
01473              16.00   -11200.00
01474              22.00   -11200.00
01475              24.00   -11400.00
01476              18.00   -11200.00
01477              14.00   -11200.00
01478              18.00   -11000.00
01479              16.00   -11000.00
01480              22.00   -11000.00
01481              18.00   -10800.00
01482              16.00   -10800.00
01483              18.00   -10800.00
01484              22.00   -10400.00
01485              16.00   -10600.00
01486              14.00   -10200.00
01487              14.00   -10000.00
01488              18.00   -10200.00
01489              18.00   -10200.00
01490              16.00    -9800.00
01491              18.00    -9800.00
01492              16.00    -9600.00
01493              14.00    -9600.00
01494              10.00    -9400.00
01495              14.00    -9400.00
01496              16.00    -9200.00
01497              22.00    -9200.00
01498              18.00    -8800.00
01499              10.00    -8800.00
01500               6.00    -8800.00
01501               8.00    -8600.00
01502              16.00    -8400.00
01503              18.00    -8400.00
01504              16.00    -8000.00
01505               8.00    -8000.00
01506               4.00    -7800.00
01507              10.00    -7600.00
01508              16.00    -7400.00
01509              18.00    -7400.00
01510              16.00    -7200.00
01511              10.00    -7000.00
01512               8.00    -7000.00
01513              12.00    -6800.00
01514               2.00    -6400.00
01515              -2.00    -6400.00
01516               8.00    -6200.00
01517              18.00    -6200.00
01518              26.00    -6000.00
01519              16.00    -5800.00
01520               0.00    -5600.00
01521              -8.00    -5600.00
01522              -2.00    -5200.00
01523               8.00    -5200.00
01524              22.00    -4800.00
01525              22.00    -4800.00
01526               6.00    -4600.00
01527              -2.00    -4400.00
01528              -6.00    -4200.00
01529               6.00    -4000.00
01530              12.00    -3800.00
01531               6.00    -3600.00
01532               0.00    -3400.00
01533               6.00    -3200.00
01534              10.00    -3000.00
01535               6.00    -2800.00
01536              -2.00    -2800.00
01537              -8.00    -2400.00
01538               0.00    -2200.00
01539               8.00    -2000.00
01540              10.00    -2000.00
01541               2.00    -1600.00
01542              -8.00    -1600.00
01543              -8.00    -1400.00
01544               0.00    -1000.00
01545               2.00     -800.00
01546               2.00     -600.00
01547              -2.00     -600.00
01548             -10.00     -400.00
01549              -6.00        0.00
01550               0.00      200.00
01551               2.00      400.00
01552               0.00      400.00
01553               4.00      600.00
01554              32.00      800.00
01555              18.00     1000.00
01556             -16.00     1200.00
01557             -22.00     1200.00
01558               2.00     1400.00
01559              26.00     1600.00
01560             162.00     2000.00
01561             246.00     2400.00
01562            -134.00     2400.00
01563            -254.00     2400.00
01564            -254.00     2600.00
01565              90.00     2800.00
01566             246.00     3200.00
01567             246.00     3400.00
01568            -254.00     3200.00
01569            -254.00     3600.00
01570             246.00     3800.00
01571              42.00     4000.00
01572             102.00     4200.00
01573            -160.00     4400.00
01574            -226.00     4400.00
01575             246.00     4800.00
01576             -26.00     5000.00
01577            -162.00     5200.00
01578             -38.00     5400.00
01579              34.00     5600.00
01580             104.00     5400.00
01581             -38.00     5800.00
01582             -56.00     6000.00
01583            -138.00     6000.00
01584             110.00     6600.00
01585              76.00     6600.00
01586            -128.00     6400.00
01587               8.00     7000.00
01588             -42.00     7000.00
01589              30.00     7200.00
01590               2.00     7400.00
01591             -72.00     7600.00
01592             -22.00     7600.00
01593              38.00     7800.00
01594             -10.00     8000.00
01595             -70.00     8000.00
01596              -2.00     8400.00
01597             -28.00     8400.00
01598               8.00     8600.00
01599              -6.00     8800.00
01600             -50.00     9000.00
01601             -34.00     9000.00
01602              16.00     9200.00
01603             -16.00     9200.00
01604             -26.00     9200.00
01605             -18.00     9600.00
01606             -56.00     9600.00
01607               2.00     9800.00
01608              -6.00     9800.00
01609             -24.00    10000.00
01610             -18.00    10000.00
01611             -32.00    10200.00
01612             -50.00    10400.00
01613             -14.00    10400.00
01614               0.00    10400.00
01615             -16.00    10600.00
01616             -14.00    10800.00
01617             -48.00    10800.00
01618             -44.00    10800.00
01619             -10.00    10800.00
01620             -10.00    11200.00
01621             -24.00    11200.00
01622             -16.00    11200.00
01623             -34.00    11400.00
01624             -30.00    11400.00
01625             -22.00    11800.00
01626             -42.00    11600.00
01627             -30.00    11800.00
01628             -10.00    11800.00
01629             -14.00    12000.00
01630             -18.00    11800.00
01631             -40.00    12000.00
01632             -56.00    12000.00
01633             -26.00    12000.00
01634               0.00    12200.00
01635             -10.00    12000.00
01636             -26.00    12000.00
01637             -40.00    12200.00
01638             -40.00    12200.00
01639             -22.00    12000.00
01640             -24.00    12200.00
01641             -26.00    12200.00
01642             -16.00    12400.00
01643             -24.00    12400.00
01644             -32.00    12400.00
01645             -32.00    12400.00
01646             -26.00    12400.00
01647             -24.00    12200.00
01648             -22.00    12200.00
01649             -24.00    12200.00
01650             -26.00    12200.00
01651             -26.00    12200.00
01652             -30.00    12200.00
01653             -30.00    12200.00
01654             -24.00    12200.00
01655             -22.00    12200.00
01656             -26.00    12200.00
01657             -26.00    12200.00
01658             -32.00    12000.00
01659             -26.00    12000.00
01660             -24.00    12000.00
01661             -24.00    12000.00
01662             -24.00    12000.00
01663             -26.00    12000.00
01664             -26.00    11800.00
01665             -30.00    12000.00
01666             -24.00    11600.00
01667             -22.00    11800.00
01668             -22.00    11600.00
01669             -30.00    11400.00
01670             -32.00    11600.00
01671             -26.00    11400.00
01672             -24.00    11400.00
01673             -26.00    11200.00
01674             -24.00    11200.00
01675             -24.00    11000.00
01676             -26.00    10800.00
01677             -26.00    10800.00
01678             -26.00    10600.00
01679             -30.00    10600.00
01680             -24.00    10600.00
01681             -24.00    10400.00
01682             -24.00    10400.00
01683             -20.00    10200.00
01684             -22.00    10000.00
01685             -30.00    10000.00
01686             -32.00     9800.00
01687             -26.00     9800.00
01688             -18.00     9600.00
01689             -16.00     9600.00
01690             -26.00     9400.00
01691             -28.00     9200.00
01692             -26.00     9000.00
01693             -22.00     9000.00
01694             -18.00     8800.00
01695             -20.00     8800.00
01696             -18.00     8400.00
01697             -24.00     8400.00
01698             -26.00     8200.00
01699             -22.00     8200.00
01700             -10.00     8000.00
01701             -14.00     7800.00
01702             -24.00     7600.00
01703             -26.00     7400.00
01704             -20.00     7400.00
01705             -14.00     7200.00
01706             -16.00     7000.00
01707             -20.00     7000.00
01708             -14.00     6400.00
01709             -10.00     6600.00
01710             -14.00     6400.00
01711             -24.00     6400.00
01712             -22.00     6000.00
01713             -14.00     5800.00
01714             -10.00     5600.00
01715             -10.00     5600.00
01716             -14.00     5400.00
01717             -16.00     5000.00
01718             -20.00     5000.00
01719             -16.00     4800.00
01720             -12.00     4600.00
01721              -6.00     4400.00
01722              -2.00     4200.00
01723             -14.00     4000.00
01724             -16.00     3800.00
01725             -16.00     3600.00
01726              -8.00     3400.00
01727              -4.00     3200.00
01728              -4.00     3000.00
01729             -10.00     2800.00
01730             -10.00     2600.00
01731             -10.00     2600.00
01732             -10.00     2200.00
01733             -10.00     2200.00
01734             -10.00     2000.00
01735              -8.00     1800.00
01736              -2.00     1600.00
01737              -8.00     1200.00
01738              -8.00     1200.00
01739             -10.00     1000.00
01740              -8.00      600.00
01741               0.00      600.00
01742               0.00      400.00
01743              -2.00      200.00
01744              -2.00        0.00
01745              18.00        0.00
01746              30.00     -400.00
01747               0.00     -400.00
01748             -26.00     -800.00
01749             -14.00    -1000.00
01750              14.00    -1200.00
01751              26.00    -1400.00
01752              96.00    -1400.00
01753             246.00    -1600.00
01754              62.00    -2200.00
01755            -254.00    -2400.00
01756            -254.00    -2600.00
01757              58.00    -2400.00
01758             224.00    -2400.00
01759             246.00    -2800.00
01760              78.00    -3200.00
01761            -254.00    -3200.00
01762              34.00    -3400.00
01763             246.00    -3800.00
01764              22.00    -3400.00
01765              -2.00    -4400.00
01766            -182.00    -3800.00
01767              78.00    -4400.00
01768             170.00    -4600.00
01769             -72.00    -4600.00
01770            -112.00    -5000.00
01771             -56.00    -4600.00
01772             186.00    -5400.00
01773              64.00    -5400.00
01774             -80.00    -5600.00
01775             -50.00    -6000.00
01776             -30.00    -5600.00
01777             146.00    -6400.00
01778              30.00    -6200.00
01779             -66.00    -6400.00
01780             -10.00    -6600.00
01781              30.00    -6800.00
01782              54.00    -7200.00
01783             -18.00    -7000.00
01784              -2.00    -7200.00
01785              10.00    -7400.00
01786              40.00    -7400.00
01787              30.00    -7800.00
01788             -32.00    -7800.00
01789              24.00    -8000.00
01790              26.00    -8000.00
01791               8.00    -8400.00
01792              10.00    -8600.00
01793               2.00    -8600.00
01794              18.00    -8800.00
01795              30.00    -8800.00
01796              14.00    -9200.00
01797               0.00    -9200.00
01798              16.00    -9200.00
01799              18.00    -9600.00
01800              14.00    -9600.00
01801              24.00    -9600.00
01802              14.00    -9800.00
01803              10.00   -10000.00
01804              18.00   -10000.00
01805               6.00   -10000.00
01806              22.00   -10200.00
01807              36.00   -10200.00
01808              18.00   -10400.00
01809              10.00   -10400.00
01810               4.00   -10600.00
01811               8.00   -10600.00
01812              28.00   -10800.00
01813              34.00   -10800.00
01814              16.00   -11000.00
01815              14.00   -11000.00
01816              16.00   -11000.00
01817              14.00   -11200.00
01818              22.00   -11200.00
01819              18.00   -11200.00
01820              18.00   -11200.00
01821              30.00   -11600.00
01822              16.00   -11600.00
01823               8.00   -11600.00
01824              18.00   -11600.00
01825              18.00   -11600.00
01826              22.00   -11600.00
01827              26.00   -11800.00
01828              20.00   -11800.00
01829              18.00   -11600.00
01830              22.00   -11800.00
01831              10.00   -11600.00
01832              18.00   -11600.00
01833              28.00   -11800.00
01834              24.00   -11800.00
01835              24.00   -11800.00
01836              14.00   -11800.00
01837              10.00   -11800.00
01838              22.00   -11800.00
01839              24.00   -11800.00
01840              22.00   -12000.00
01841              24.00   -11600.00
01842              22.00   -11800.00
01843              16.00   -11800.00
01844              14.00   -11800.00
01845              18.00   -11600.00
01846              26.00   -11800.00
01847              30.00   -11600.00
01848              22.00   -11600.00
01849              16.00   -11600.00
01850              14.00   -11600.00
01851              14.00   -11600.00
01852              18.00   -11600.00
01853              26.00   -11600.00
01854              28.00   -11600.00
01855              24.00   -11400.00
01856              14.00   -11600.00
01857              10.00   -11200.00
01858              18.00   -11200.00
01859              24.00   -11200.00
01860              26.00   -11000.00
01861              22.00   -11000.00
01862              10.00   -11000.00
01863              14.00   -11000.00
01864              16.00   -10800.00
01865              22.00   -10800.00
01866              24.00   -10400.00
01867              18.00   -10400.00
01868              18.00   -10400.00
01869              14.00   -10400.00
01870              14.00   -10200.00
01871              14.00   -10000.00
01872              16.00   -10000.00
01873              16.00   -10000.00
01874              22.00    -9800.00
01875              18.00    -9800.00
01876              12.00    -9600.00
01877               6.00    -9400.00
01878               8.00    -9400.00
01879              18.00    -9200.00
01880              22.00    -9200.00
01881              14.00    -9200.00
01882              10.00    -8800.00
01883              10.00    -8800.00
01884              10.00    -8800.00
01885              14.00    -8600.00
01886              12.00    -8400.00
01887              14.00    -8200.00
01888              16.00    -8000.00
01889               8.00    -8000.00
01890               6.00    -7800.00
01891               8.00    -7600.00
01892              12.00    -7400.00
01893              16.00    -7200.00
01894              12.00    -7200.00
01895              10.00    -7000.00
01896              10.00    -6800.00
01897               8.00    -6600.00
01898               8.00    -6400.00
01899              10.00    -6400.00
01900              14.00    -6200.00
01901              14.00    -6000.00
01902              10.00    -5800.00
01903               2.00    -5800.00
01904               6.00    -5600.00
01905              10.00    -5400.00
01906               8.00    -5200.00
01907              10.00    -5000.00
01908               8.00    -4800.00
01909               6.00    -4600.00
01910               2.00    -4600.00
01911               2.00    -4400.00
01912               6.00    -4000.00
01913              10.00    -4000.00
01914               6.00    -3600.00
01915               2.00    -3600.00
01916               2.00    -3200.00
01917               0.00    -3200.00
01918               2.00    -3000.00
01919               2.00    -3000.00
01920               2.00    -2400.00
01921               8.00    -2400.00
01922               2.00    -2200.00
01923              -2.00    -2000.00
01924              -4.00    -1600.00
01925              -2.00    -1600.00
01926               2.00    -1400.00
01927               6.00    -1000.00
01928               2.00    -1200.00
01929              -6.00     -800.00
01930              -6.00     -600.00
01931              -6.00     -400.00
01932              -2.00     -400.00
01933               0.00        0.00
01934               0.00      200.00
01935              -2.00      200.00
01936               0.00      400.00
01937              22.00      800.00
01938              32.00      800.00
01939              -2.00     1000.00
01940             -26.00     1200.00
01941             -10.00     1200.00
01942              16.00     1600.00
01943              66.00     1600.00
01944             246.00     2000.00
01945             168.00     2600.00
01946            -254.00     2400.00
01947            -254.00     2600.00
01948             -82.00     2600.00
01949             246.00     2800.00
01950             246.00     3400.00
01951            -152.00     3200.00
01952            -254.00     3400.00
01953             218.00     3800.00
01954             246.00     3800.00
01955               2.00     4000.00
01956              56.00     4400.00
01957            -254.00     4400.00
01958             124.00     4400.00
01959             208.00     4800.00
01960            -194.00     5000.00
01961             -78.00     5200.00
01962             -18.00     5600.00
01963             112.00     5600.00
01964              22.00     5600.00
01965             -48.00     6000.00
01966            -114.00     5800.00
01967             -40.00     6200.00
01968             168.00     6600.00
01969             -90.00     6400.00
01970             -48.00     6800.00
01971              -6.00     6800.00
01972             -24.00     7200.00
01973              46.00     7200.00
01974             -56.00     7400.00
01975             -50.00     7600.00
01976              14.00     7600.00
01977              34.00     8000.00
01978             -64.00     8000.00
01979             -24.00     8200.00
01980             -16.00     8400.00
01981             -22.00     8600.00
01982              16.00     8800.00
01983             -34.00     8800.00
01984             -50.00     9000.00
01985              -8.00     9200.00
01986               8.00     9200.00
01987             -32.00     9400.00
01988              -2.00     9600.00
01989             -50.00     9600.00
01990             -34.00     9600.00
01991               8.00    10000.00
01992             -18.00    10000.00
01993             -14.00    10200.00
01994             -24.00    10200.00
01995             -48.00    10400.00
01996             -32.00    10400.00
01997               8.00    10600.00
01998             -18.00    10600.00
01999             -18.00    10600.00
02000             -30.00    10800.00
02001             -48.00    11000.00
02002             -22.00    11000.00
02003             -10.00    11200.00
02004             -24.00    11000.00
02005             -20.00    11200.00
02006             -26.00    11400.00
02007             -34.00    11400.00
02008             -18.00    11600.00
02009             -28.00    11600.00
02010             -28.00    11800.00
02011             -14.00    11800.00
02012             -24.00    11800.00
02013             -34.00    11800.00
02014             -26.00    12000.00
02015             -32.00    12000.00
02016             -26.00    12000.00
02017             -16.00    12000.00
02018             -26.00    12000.00
02019             -30.00    12000.00
02020             -26.00    12200.00
02021             -32.00    12200.00
02022             -32.00    12200.00
02023             -26.00    12200.00
02024             -26.00    12200.00
02025             -22.00    12200.00
02026             -22.00    12400.00
02027             -34.00    12400.00
02028             -34.00    12400.00
02029             -26.00    12200.00
02030             -28.00    12400.00
02031             -24.00    12200.00
02032             -18.00    12400.00
02033             -26.00    12200.00
02034             -26.00    12200.00
02035             -34.00    12200.00
02036             -38.00    12200.00
02037             -22.00    12200.00
02038             -14.00    12000.00
02039             -24.00    12200.00
02040             -32.00    12200.00
02041             -40.00    12200.00
02042             -34.00    12000.00
02043             -18.00    12000.00
02044             -20.00    12000.00
02045             -24.00    12000.00
02046             -26.00    12000.00
02047             -34.00    12000.00
02048             -30.00    12000.00
02049             -22.00    11800.00
02050             -22.00    11600.00
02051             -22.00    11800.00
02052             -26.00    11400.00
02053             -30.00    11600.00
02054             -24.00    11400.00
02055             -26.00    11400.00
02056             -30.00    11200.00
02057             -24.00    11200.00
02058             -20.00    11000.00
02059             -22.00    10800.00
02060             -26.00    10800.00
02061             -34.00    10800.00
02062             -32.00    10600.00
02063             -24.00    10400.00
02064             -18.00    10400.00
02065             -18.00    10400.00
02066             -22.00    10200.00
02067             -30.00    10200.00
02068             -30.00    10000.00
02069             -28.00     9800.00
02070             -24.00     9800.00
02071             -18.00     9800.00
02072             -22.00     9600.00
02073             -24.00     9400.00
02074             -26.00     9200.00
02075             -24.00     9200.00
02076             -24.00     8800.00
02077             -16.00     9000.00
02078             -22.00     8800.00
02079             -18.00     8400.00
02080             -24.00     8400.00
02081             -26.00     8200.00
02082             -26.00     8000.00
02083             -22.00     8000.00
02084             -18.00     8000.00
02085             -16.00     7600.00
02086             -18.00     7400.00
02087             -22.00     7400.00
02088             -22.00     7200.00
02089             -22.00     7200.00
02090             -18.00     7000.00
02091             -14.00     6600.00
02092             -10.00     6600.00
02093             -16.00     6400.00
02094             -22.00     6400.00
02095             -16.00     6000.00
02096             -12.00     5800.00
02097             -16.00     5800.00
02098             -16.00     5600.00
02099             -14.00     5400.00
02100             -14.00     5000.00
02101             -16.00     5000.00
02102             -18.00     4800.00
02103             -14.00     4800.00
02104              -6.00     4400.00
02105              -8.00     4200.00
02106             -10.00     4000.00
02107             -16.00     4000.00
02108             -14.00     3600.00
02109             -10.00     3400.00
02110             -10.00     3200.00
02111             -10.00     3200.00
02112              -4.00     3200.00
02113              -6.00     2800.00
02114             -14.00     2600.00
02115             -10.00     2400.00
02116              -8.00     2200.00
02117              -6.00     2000.00
02118              -4.00     1800.00
02119              -8.00     1600.00
02120              -8.00     1400.00
02121              -4.00     1200.00
02122             -10.00      800.00
02123             -10.00      800.00
02124              -2.00      600.00
02125               0.00      400.00
02126               6.00      200.00
02127               0.00      200.00
02128               0.00        0.00
02129              30.00     -400.00
02130              18.00     -400.00
02131             -12.00     -800.00
02132             -22.00     -800.00
02133               0.00    -1000.00
02134              22.00    -1200.00
02135              54.00    -1400.00
02136             200.00    -1600.00
02137             246.00    -2000.00
02138            -246.00    -2400.00
02139            -254.00    -2400.00
02140            -144.00    -2600.00
02141             192.00    -2600.00
02142             246.00    -2400.00
02143             246.00    -3000.00
02144            -254.00    -3200.00
02145            -254.00    -3000.00
02146             246.00    -4000.00
02147             112.00    -3400.00
02148              28.00    -3800.00
02149            -118.00    -4200.00
02150             -94.00    -4000.00
02151             202.00    -4600.00
02152              16.00    -4600.00
02153            -106.00    -4800.00
02154             -96.00    -5000.00
02155              80.00    -5200.00
02156             170.00    -5400.00
02157             -64.00    -5200.00
02158             -54.00    -6000.00
02159             -54.00    -5800.00
02160              82.00    -6000.00
02161             120.00    -6400.00
02162             -68.00    -6200.00
02163             -40.00    -6800.00
02164               6.00    -6800.00
02165              72.00    -6800.00
02166              18.00    -7200.00
02167             -26.00    -7000.00
02168               0.00    -7600.00
02169              16.00    -7200.00
02170              62.00    -7600.00
02171              -8.00    -7800.00
02172             -14.00    -8000.00
02173              30.00    -8200.00
02174              14.00    -8000.00
02175              14.00    -8600.00
02176              14.00    -8400.00
02177              10.00    -8800.00
02178              26.00    -8800.00
02179              24.00    -8800.00
02180               2.00    -9200.00
02181               8.00    -9200.00
02182              24.00    -9200.00
02183              18.00    -9400.00
02184              20.00    -9600.00
02185              18.00    -9600.00
02186               2.00    -9600.00
02187              22.00   -10000.00
02188              16.00   -10000.00
02189               8.00   -10200.00
02190              30.00   -10000.00
02191              22.00   -10400.00
02192              10.00   -10600.00
02193               8.00   -10600.00
02194               6.00   -10800.00
02195              18.00   -10800.00
02196              34.00   -10800.00
02197              16.00   -10800.00
02198              10.00   -11200.00
02199              16.00   -10800.00
02200              14.00   -11000.00
02201              22.00   -11200.00
02202              24.00   -11200.00
02203              14.00   -11200.00
02204              22.00   -11400.00
02205              22.00   -11400.00
02206              10.00   -11400.00
02207              18.00   -11600.00
02208              20.00   -11600.00
02209              16.00   -11800.00
02210              20.00   -11600.00
02211              22.00   -11600.00
02212              22.00   -11600.00
02213              20.00   -11800.00
02214              14.00   -11800.00
02215              10.00   -11800.00
02216              24.00   -11600.00
02217              26.00   -11800.00
02218              24.00   -11800.00
02219              22.00   -11800.00
02220              14.00   -12000.00
02221              14.00   -11800.00
02222              22.00   -12000.00
02223              24.00   -11800.00
02224              26.00   -11800.00
02225              22.00   -12000.00
02226              14.00   -11800.00
02227              10.00   -11800.00
02228              16.00   -11800.00
02229              26.00   -11600.00
02230              26.00   -11800.00
02231              24.00   -11800.00
02232              18.00   -11600.00
02233              18.00   -11600.00
02234              16.00   -11600.00
02235              16.00   -11600.00
02236              22.00   -11400.00
02237              28.00   -11600.00
02238              24.00   -11400.00
02239              16.00   -11600.00
02240              14.00   -11200.00
02241              16.00   -11200.00
02242              22.00   -11200.00
02243              24.00   -11200.00
02244              22.00   -11000.00
02245              18.00   -11000.00
02246              18.00   -11000.00
02247              16.00   -10800.00
02248              16.00   -10800.00
02249              20.00   -10800.00
02250              22.00   -10600.00
02251              18.00   -10400.00
02252              18.00   -10400.00
02253               8.00   -10200.00
02254              16.00   -10200.00
02255              16.00   -10200.00
02256              16.00   -10000.00
02257              22.00    -9800.00
02258              18.00    -9800.00
02259              16.00    -9600.00
02260              10.00    -9600.00
02261               6.00    -9400.00
02262              16.00    -9200.00
02263              22.00    -9200.00
02264              16.00    -9000.00
02265              14.00    -9000.00
02266              10.00    -8800.00
02267               8.00    -8800.00
02268              10.00    -8600.00
02269              16.00    -8400.00
02270              16.00    -8400.00
02271              16.00    -8000.00
02272               8.00    -8000.00
02273               6.00    -8000.00
02274              10.00    -7600.00
02275              10.00    -7600.00
02276              14.00    -7400.00
02277              14.00    -7200.00
02278              10.00    -7200.00
02279              14.00    -7000.00
02280               8.00    -6800.00
02281               6.00    -6600.00
02282              10.00    -6400.00
02283              10.00    -6400.00
02284              12.00    -6200.00
02285               8.00    -6000.00
02286               6.00    -5600.00
02287               8.00    -5600.00
02288               6.00    -5400.00
02289               6.00    -5200.00
02290              10.00    -5200.00
02291              10.00    -4800.00
02292               6.00    -4600.00
02293               4.00    -4600.00
02294               2.00    -4400.00
02295               6.00    -4000.00
02296              10.00    -4000.00
02297               6.00    -3800.00
02298               6.00    -3600.00
02299               6.00    -3200.00
02300               6.00    -3200.00
02301               6.00    -3000.00
02302               0.00    -2800.00
02303               0.00    -2800.00
02304               6.00    -2400.00
02305               8.00    -2400.00
02306               2.00    -2200.00
02307               0.00    -2000.00
02308               0.00    -1600.00
02309               0.00    -1600.00
02310               2.00    -1400.00
02311               6.00    -1000.00
02312               8.00    -1000.00
02313              -2.00     -800.00
02314              -8.00     -400.00
02315             -10.00     -600.00
02316               0.00        0.00
02317              12.00        0.00
02318              10.00      200.00
02319              -2.00      400.00
02320               2.00      600.00
02321              26.00      800.00
02322              10.00     1000.00
02323             -16.00     1200.00
02324             -10.00     1200.00
02325               8.00     1600.00
02326              30.00     1600.00
02327             176.00     2000.00
02328             246.00     2400.00
02329            -178.00     2400.00
02330            -254.00     2600.00
02331            -254.00     2600.00
02332             114.00     2800.00
02333             246.00     3200.00
02334             246.00     3400.00
02335            -254.00     3400.00
02336            -254.00     3600.00
02337             246.00     4000.00
02338               8.00     3800.00
02339             102.00     4400.00
02340            -192.00     4400.00
02341            -178.00     4200.00
02342             246.00     4800.00
02343             -64.00     5000.00
02344            -162.00     5200.00
02345             -46.00     5400.00
02346              48.00     5600.00
02347             104.00     5400.00
02348             -32.00     6000.00
02349             -64.00     6000.00
02350            -146.00     6000.00
02351             114.00     6600.00
02352              50.00     6400.00
02353            -114.00     6800.00
02354              24.00     7000.00
02355             -46.00     6800.00
02356              22.00     7200.00
02357             -10.00     7400.00
02358             -68.00     7600.00
02359             -16.00     7600.00
02360              42.00     7800.00
02361             -16.00     8000.00
02362             -64.00     8000.00
02363               0.00     8400.00
02364             -32.00     8200.00
02365              14.00     8600.00
02366             -10.00     8800.00
02367             -58.00     8800.00
02368             -40.00     9200.00
02369              18.00     9200.00
02370              -8.00     9200.00
02371             -12.00     9400.00
02372             -26.00     9600.00
02373             -70.00     9600.00
02374               0.00     9800.00
02375              -2.00    10000.00
02376             -16.00    10000.00
02377             -24.00    10000.00
02378             -42.00    10200.00
02379             -46.00    10400.00
02380              -2.00    10400.00
02381               0.00    10800.00
02382             -24.00    10600.00
02383             -18.00    10800.00
02384             -42.00    10800.00
02385             -34.00    11000.00
02386             -12.00    11000.00
02387             -18.00    11200.00
02388             -26.00    11200.00
02389             -16.00    11400.00
02390             -32.00    11400.00
02391             -24.00    11400.00
02392             -18.00    11800.00
02393             -34.00    11600.00
02394             -26.00    11800.00
02395             -18.00    11800.00
02396             -26.00    11800.00
02397             -26.00    11800.00
02398             -26.00    12000.00
02399             -34.00    11800.00
02400             -26.00    12000.00
02401             -20.00    12000.00
02402             -26.00    12000.00
02403             -24.00    12000.00
02404             -30.00    12200.00
02405             -34.00    12200.00
02406             -26.00    12200.00
02407             -24.00    12400.00
02408             -26.00    12200.00
02409             -24.00    12200.00
02410             -32.00    12200.00
02411             -32.00    12400.00
02412             -26.00    12200.00
02413             -30.00    12200.00
02414             -32.00    12400.00
02415             -22.00    12200.00
02416             -24.00    12200.00
02417             -28.00    12400.00
02418             -32.00    12200.00
02419             -34.00    12200.00
02420             -26.00    12200.00
02421             -16.00    12200.00
02422             -26.00    12000.00
02423             -30.00    12000.00
02424             -30.00    12000.00
02425             -32.00    12000.00
02426             -26.00    12000.00
02427             -22.00    12000.00
02428             -24.00    12200.00
02429             -18.00    12000.00
02430             -32.00    12000.00
02431             -38.00    11800.00
02432             -30.00    11800.00
02433             -24.00    11600.00
02434             -18.00    11800.00
02435             -18.00    11600.00
02436             -28.00    11400.00
02437             -30.00    11400.00
02438             -28.00    11400.00
02439             -24.00    11200.00
02440             -26.00    11200.00
02441             -32.00    10800.00
02442             -24.00    11000.00
02443             -24.00    10800.00
02444             -20.00    10800.00
02445             -64.00    10600.00
02446               0.00    10600.00
02447               2.00    10600.00
02448               6.00    10400.00
02449             -26.00    10400.00
02450             -46.00    10000.00
02451             -32.00    10000.00
02452             -40.00    10000.00
02453             -48.00     9800.00
02454             -14.00     9800.00
02455              10.00     9600.00
02456             -14.00     9600.00
02457             -32.00     9200.00
02458             -32.00     9200.00
02459             -14.00     9000.00
02460             -16.00     9000.00
02461             -32.00     8800.00
02462             -20.00     8600.00
02463             -16.00     8400.00
02464             -34.00     8200.00
02465             -40.00     8200.00
02466             -16.00     8000.00
02467               0.00     8000.00
02468              -2.00     7600.00
02469             -28.00     7600.00
02470             -16.00     7600.00
02471             -16.00     7200.00
02472             -30.00     7200.00
02473             -40.00     7000.00
02474             -18.00     6800.00
02475              -8.00     6600.00
02476              -8.00     6400.00
02477             -16.00     6400.00
02478             -10.00     6200.00
02479              -6.00     6000.00
02480             -20.00     5800.00
02481             -20.00     5600.00
02482             -18.00     5600.00
02483             -16.00     5200.00
02484             -22.00     5000.00
02485             -18.00     4800.00
02486             -10.00     4800.00
02487              -2.00     4600.00
02488              -2.00     4200.00
02489             -14.00     4200.00
02490             -14.00     4000.00
02491             -14.00     3800.00
02492             -10.00     3600.00
02493             -14.00     3400.00
02494             -14.00     3200.00
02495              -8.00     3000.00
02496               0.00     2800.00
02497              -6.00     2800.00
02498             -10.00     2600.00
02499             -12.00     2000.00
02500             -12.00     2000.00
02501              -6.00     1800.00
02502              -6.00     1600.00
02503              -6.00     1600.00
02504              -6.00     1200.00
02505             -10.00     1200.00
02506              -8.00     1000.00
02507               0.00      800.00
02508               2.00      600.00
02509               0.00      400.00
02510              -2.00        0.00
02511              -2.00        0.00
02512              24.00        0.00
02513              30.00     -400.00
02514              -6.00     -600.00
02515             -22.00     -800.00
02516              -6.00     -800.00
02517              18.00    -1000.00
02518              28.00    -1200.00
02519             104.00    -1400.00
02520             246.00    -2000.00
02521              32.00    -2200.00
02522            -254.00    -2400.00
02523            -254.00    -2400.00
02524              80.00    -2600.00
02525             226.00    -2600.00
02526             246.00    -2800.00
02527              14.00    -3200.00
02528            -254.00    -3200.00
02529              96.00    -3600.00
02530             246.00    -3800.00
02531              16.00    -3600.00
02532             -18.00    -4200.00
02533            -178.00    -4000.00
02534             104.00    -4400.00
02535             150.00    -4800.00
02536             -86.00    -4600.00
02537            -112.00    -5000.00
02538             -46.00    -5000.00
02539             192.00    -5400.00
02540              50.00    -5400.00
02541             -74.00    -5600.00
02542             -56.00    -6000.00
02543             -24.00    -6000.00
02544             150.00    -6400.00
02545              16.00    -6200.00
02546             -64.00    -6400.00
02547             -18.00    -6800.00
02548              34.00    -6800.00
02549              50.00    -7200.00
02550             -20.00    -7000.00
02551               0.00    -7400.00
02552               6.00    -7600.00
02553              46.00    -7600.00
02554              26.00    -7800.00
02555             -38.00    -8000.00
02556              24.00    -8200.00
02557              26.00    -8000.00
02558              10.00    -8400.00
02559              10.00    -8600.00
02560               0.00    -8600.00
02561              18.00    -8800.00
02562              34.00    -8800.00
02563              10.00    -9200.00
02564              -2.00    -9000.00
02565              18.00    -9400.00
02566              22.00    -9400.00
02567              22.00    -9400.00
02568              24.00    -9600.00
02569               6.00    -9800.00
02570              16.00    -9800.00
02571              20.00   -10000.00
02572               6.00   -10000.00
02573              24.00   -10200.00
02574              34.00   -10200.00
02575              16.00   -10400.00
02576              12.00   -10400.00
02577               2.00   -10400.00
02578              10.00   -10600.00
02579              32.00   -10800.00
02580              30.00   -10800.00
02581              14.00   -11000.00
02582              16.00   -11000.00
02583              16.00   -11000.00
02584              10.00   -11200.00
02585              18.00   -11000.00
02586              18.00   -11200.00
02587              24.00   -11200.00
02588              30.00   -11200.00
02589              14.00   -11600.00
02590              10.00   -11600.00
02591              18.00   -11600.00
02592              18.00   -11600.00
02593              22.00   -11600.00
02594              24.00   -11600.00
02595              22.00   -11600.00
02596              18.00   -11800.00
02597              18.00   -11800.00
02598              12.00   -11800.00
02599              14.00   -12000.00
02600              26.00   -11800.00
02601              32.00   -11800.00
02602              22.00   -12000.00
02603              10.00   -12000.00
02604              12.00   -11800.00
02605              18.00   -11800.00
02606              30.00   -11800.00
02607              30.00   -11800.00
02608              18.00   -11800.00
02609               8.00   -11800.00
02610              16.00   -11800.00
02611              26.00   -11800.00
02612              30.00   -11800.00
02613              14.00   -11800.00
02614               6.00   -11600.00
02615              18.00   -11800.00
02616              34.00   -11800.00
02617              30.00   -11600.00
02618              10.00   -11600.00
02619               6.00   -11600.00
02620              22.00   -11400.00
02621              30.00   -11600.00
02622              32.00   -11600.00
02623              22.00   -11400.00
02624               8.00   -11400.00
02625               6.00   -11200.00
02626              10.00   -11200.00
02627              26.00   -11000.00
02628              40.00   -11000.00
02629              42.00   -11000.00
02630              16.00   -10800.00
02631              -8.00   -10800.00
02632             -10.00   -10800.00
02633              20.00   -10600.00
02634              40.00   -10400.00
02635              38.00   -10400.00
02636              22.00   -10200.00
02637               6.00   -10200.00
02638              -8.00   -10200.00
02639              10.00   -10000.00
02640              36.00   -10000.00
02641              36.00    -9800.00
02642              18.00    -9600.00
02643               0.00    -9600.00
02644               0.00    -9400.00
02645              20.00    -9400.00
02646              18.00    -9200.00
02647              18.00    -9200.00
02648              34.00    -9000.00
02649              16.00    -8800.00
02650              -6.00    -8800.00
02651              -2.00    -8600.00
02652              24.00    -8400.00
02653              46.00    -8400.00
02654              20.00    -8200.00
02655             -24.00    -8200.00
02656             -18.00    -8000.00
02657              22.00    -7800.00
02658              48.00    -7600.00
02659              38.00    -7600.00
02660              -4.00    -7200.00
02661             -24.00    -7200.00
02662              -2.00    -7000.00
02663              22.00    -7000.00
02664              30.00    -6800.00
02665              24.00    -6400.00
02666               6.00    -6400.00
02667              -4.00    -6200.00
02668               0.00    -6200.00
02669               2.00    -5800.00
02670              10.00    -5600.00
02671              18.00    -5600.00
02672              10.00    -5400.00
02673               8.00    -5200.00
02674               6.00    -5000.00
02675               0.00    -4800.00
02676               6.00    -4600.00
02677               2.00    -4400.00
02678               0.00    -4400.00
02679               8.00    -4000.00
02680              14.00    -3800.00
02681              14.00    -3600.00
02682               6.00    -3600.00
02683              -8.00    -3200.00
02684             -12.00    -3200.00
02685              -2.00    -3000.00
02686              10.00    -2800.00
02687              22.00    -2400.00
02688              14.00    -2400.00
02689              -6.00    -2200.00
02690             -18.00    -2000.00
02691              -8.00    -2000.00
02692              10.00    -1600.00
02693              20.00    -1400.00
02694              14.00    -1000.00
02695              -2.00    -1200.00
02696             -16.00     -800.00
02697             -14.00     -800.00
02698               6.00     -400.00
02699              14.00     -200.00
02700               6.00        0.00
02701              -2.00      200.00
02702              -6.00      400.00
02703               2.00      400.00
02704              30.00      800.00
02705              22.00      800.00
02706              -8.00     1000.00
02707             -16.00     1200.00
02708               0.00     1400.00
02709              22.00     1600.00
02710              74.00     1800.00
02711             246.00     2000.00
02712             130.00     2400.00
02713            -254.00     2400.00
02714            -254.00     2600.00
02715             -54.00     2800.00
02716             246.00     2800.00
02717             246.00     3400.00
02718            -254.00     3200.00
02719            -254.00     3400.00
02720             246.00     3800.00
02721             230.00     3800.00
02722              12.00     4200.00
02723              34.00     4400.00
02724            -254.00     4400.00
02725             162.00     4400.00
02726             168.00     4800.00
02727            -202.00     5000.00
02728             -66.00     5400.00
02729             -10.00     5600.00
02730             112.00     5400.00
02731              10.00     5600.00
02732             -42.00     6000.00
02733            -126.00     6000.00
02734             -20.00     6400.00
02735             160.00     6600.00
02736            -106.00     6400.00
02737             -34.00     6800.00
02738             -16.00     7000.00
02739             -18.00     7200.00
02740              42.00     7200.00
02741             -60.00     7600.00
02742             -48.00     7600.00
02743              16.00     7600.00
02744              32.00     8000.00
02745             -66.00     8000.00
02746             -26.00     8400.00
02747             -26.00     8400.00
02748             -16.00     8400.00
02749              14.00     8800.00
02750             -40.00     8800.00
02751             -50.00     8800.00
02752              -2.00     9200.00
02753              14.00     9200.00
02754             -26.00     9400.00
02755             -10.00     9600.00
02756             -60.00     9600.00
02757             -26.00     9600.00
02758               8.00     9800.00
02759             -16.00    10000.00
02760             -14.00    10000.00
02761             -26.00    10200.00
02762             -46.00    10200.00
02763             -32.00    10400.00
02764               4.00    10400.00
02765             -18.00    10600.00
02766             -16.00    10800.00
02767             -26.00    10800.00
02768             -46.00    10800.00
02769             -22.00    11000.00
02770             -14.00    11200.00
02771             -32.00    11200.00
02772             -20.00    11200.00
02773             -16.00    11400.00
02774             -24.00    11400.00
02775             -16.00    11400.00
02776             -34.00    11800.00
02777             -40.00    11600.00
02778             -14.00    11800.00
02779             -16.00    12000.00
02780             -32.00    11800.00
02781             -26.00    12000.00
02782             -30.00    12000.00
02783             -30.00    12000.00
02784             -16.00    12000.00
02785             -26.00    12000.00
02786             -24.00    12000.00
02787             -18.00    12000.00
02788             -40.00    12200.00
02789             -34.00    12200.00
02790             -26.00    12200.00
02791             -24.00    12200.00
02792             -18.00    12200.00
02793             -24.00    12400.00
02794             -40.00    12200.00
02795             -32.00    12200.00
02796             -26.00    12200.00
02797             -26.00    12200.00
02798             -18.00    12200.00
02799             -22.00    12200.00
02800             -32.00    12200.00
02801             -32.00    12400.00
02802             -34.00    12200.00
02803             -32.00    12200.00
02804             -20.00    12200.00
02805             -24.00    12200.00
02806             -24.00    12000.00
02807             -26.00    12200.00
02808             -34.00    12000.00
02809             -34.00    12000.00
02810             -26.00    12000.00
02811             -18.00    12000.00
02812             -16.00    12000.00
02813             -24.00    12000.00
02814             -34.00    11800.00
02815             -34.00    12000.00
02816             -26.00    11600.00
02817             -24.00    11800.00
02818             -22.00    11600.00
02819             -22.00    11600.00
02820             -24.00    11400.00
02821             -26.00    11400.00
02822             -32.00    11400.00
02823             -26.00    11400.00
02824             -22.00    11200.00
02825             -22.00    11000.00
02826             -22.00    10800.00
02827             -26.00    10800.00
02828             -24.00    10800.00
02829             -26.00    10600.00
02830             -26.00    10600.00
02831             -24.00    10400.00
02832             -18.00    10400.00
02833             -16.00    10200.00
02834             -24.00    10200.00
02835             -30.00    10000.00
02836             -26.00     9800.00
02837             -16.00     9800.00
02838             -18.00     9600.00
02839             -22.00     9600.00
02840             -24.00     9600.00
02841             -24.00     9400.00
02842             -22.00     9200.00
02843             -22.00     9000.00
02844             -22.00     9000.00
02845             -14.00     8800.00
02846             -20.00     8600.00
02847             -26.00     8400.00
02848             -26.00     8200.00
02849             -20.00     8200.00
02850             -18.00     8000.00
02851             -16.00     8000.00
02852             -22.00     7600.00
02853             -16.00     7400.00
02854             -18.00     7400.00
02855             -24.00     7200.00
02856             -22.00     7200.00
02857             -16.00     6800.00
02858             -14.00     6800.00
02859             -14.00     6400.00
02860             -22.00     6400.00
02861             -22.00     6400.00
02862             -16.00     6000.00
02863             -14.00     6000.00
02864             -14.00     5600.00
02865             -10.00     5600.00
02866             -14.00     5400.00
02867             -16.00     5200.00
02868             -18.00     5000.00
02869             -18.00     4800.00
02870             -14.00     4600.00
02871              -8.00     4400.00
02872             -10.00     4200.00
02873             -10.00     4000.00
02874             -14.00     4000.00
02875             -16.00     3600.00
02876             -14.00     3400.00
02877             -10.00     3400.00
02878              -8.00     3200.00
02879              -8.00     2800.00
02880             -12.00     2800.00
02881             -10.00     2600.00
02882             -10.00     2400.00
02883             -10.00     2200.00
02884              -8.00     2000.00
02885              -6.00     1800.00
02886              -2.00     1600.00
02887              -2.00     1400.00
02888             -10.00     1200.00
02889             -10.00     1000.00
02890              -2.00      800.00
02891              -2.00      800.00
02892               0.00      400.00
02893              -2.00      200.00
02894               0.00        0.00
02895              12.00        0.00
02896              32.00     -400.00
02897              10.00     -400.00
02898             -18.00     -600.00
02899             -16.00     -800.00
02900               8.00    -1000.00
02901              24.00    -1200.00
02902              50.00    -1400.00
02903             214.00    -1400.00
02904             230.00    -2200.00
02905            -254.00    -2400.00
02906            -254.00    -2400.00
02907            -106.00    -2600.00
02908             192.00    -2600.00
02909             246.00    -2400.00
02910             246.00    -3000.00
02911            -254.00    -3200.00
02912            -254.00    -3200.00
02913             246.00    -3800.00
02914              88.00    -3600.00
02915              26.00    -3800.00
02916            -138.00    -4400.00
02917             -66.00    -4000.00
02918             208.00    -4600.00
02919               4.00    -4600.00
02920            -104.00    -4800.00
02921            -104.00    -5000.00
02922              94.00    -5200.00
02923             166.00    -5600.00
02924             -64.00    -5200.00
02925             -54.00    -6000.00
02926             -70.00    -6000.00
02927              86.00    -6000.00
02928             118.00    -6400.00
02929             -62.00    -6200.00
02930             -34.00    -6800.00
02931               0.00    -6600.00
02932              64.00    -7000.00
02933               8.00    -7200.00
02934             -16.00    -7200.00
02935               8.00    -7400.00
02936              22.00    -7600.00
02937              54.00    -7800.00
02938             -26.00    -7800.00
02939             -10.00    -8000.00
02940              38.00    -8200.00
02941              14.00    -8400.00
02942              12.00    -8600.00
02943               4.00    -8600.00
02944               6.00    -8800.00
02945              30.00    -8800.00
02946              22.00    -9200.00
02947              -2.00    -9200.00
02948              10.00    -9200.00
02949              24.00    -9400.00
02950              16.00    -9600.00
02951              18.00    -9600.00
02952              16.00    -9600.00
02953              10.00    -9800.00
02954              22.00   -10000.00
02955               8.00   -10000.00
02956              14.00   -10200.00
02957              38.00   -10200.00
02958              24.00   -10200.00
02959              10.00   -10400.00
02960               6.00   -10400.00
02961               8.00   -10600.00
02962              26.00   -10800.00
02963              32.00   -11000.00
02964              20.00   -10800.00
02965              16.00   -11000.00
02966              22.00   -11000.00
02967              16.00   -11200.00
02968              16.00   -11200.00
02969              22.00   -11200.00
02970              22.00   -11200.00
02971              28.00   -11400.00
02972              22.00   -11600.00
02973              10.00   -11600.00
02974              16.00   -11600.00
02975              18.00   -11600.00
02976              16.00   -11600.00
02977              22.00   -11600.00
02978              28.00   -11800.00
02979              20.00   -11800.00
02980              14.00   -11600.00
02981              14.00   -11800.00
02982              16.00   -11800.00
02983              26.00   -11800.00
02984              24.00   -11800.00
02985              16.00   -11800.00
02986              22.00   -11800.00
02987              18.00   -11800.00
02988              14.00   -11600.00
02989              24.00   -11800.00
02990              22.00   -11600.00
02991              24.00   -11800.00
02992              22.00   -11800.00
02993              16.00   -11800.00
02994              14.00   -11800.00
02995              20.00   -11800.00
02996              22.00   -11800.00
02997              24.00   -11800.00
02998              24.00   -11600.00
02999              16.00   -11800.00
03000              16.00   -11600.00
03001              16.00   -11800.00
03002              18.00   -11600.00
03003              26.00   -11600.00
03004              26.00   -11600.00
03005              22.00   -11600.00
03006              18.00   -11600.00
03007              14.00   -11200.00
03008              16.00   -11200.00
03009              16.00   -11200.00
03010              22.00   -11200.00
03011              26.00   -11000.00
03012              22.00   -11000.00
03013              14.00   -11000.00
03014              10.00   -10800.00
03015              20.00   -10800.00
03016              22.00   -10800.00
03017              24.00   -10400.00
03018              18.00   -10400.00
03019              16.00   -10400.00
03020              18.00   -10400.00
03021              16.00   -10200.00
03022              14.00   -10200.00
03023              22.00   -10000.00
03024              22.00   -10000.00
03025              22.00    -9600.00
03026              16.00    -9600.00
03027              10.00    -9600.00
03028              14.00    -9400.00
03029              18.00    -9400.00
03030              16.00    -9200.00
03031              18.00    -9000.00
03032              20.00    -9000.00
03033              16.00    -8800.00
03034              12.00    -8800.00
03035              14.00    -8600.00
03036              18.00    -8400.00
03037              18.00    -8400.00
03038              16.00    -8000.00
03039              12.00    -8000.00
03040              10.00    -7800.00
03041               8.00    -7600.00
03042              14.00    -7400.00
03043               8.00    -7400.00
03044              14.00    -7200.00
03045              16.00    -7200.00
03046               8.00    -7000.00
03047               6.00    -6800.00
03048               8.00    -6800.00
03049              10.00    -6600.00
03050              14.00    -6400.00
03051               8.00    -6000.00
03052               6.00    -6000.00
03053               8.00    -5800.00
03054               8.00    -5600.00
03055               6.00    -5400.00
03056               8.00    -5200.00
03057              10.00    -5200.00
03058               6.00    -4800.00
03059               2.00    -4600.00
03060               0.00    -4600.00
03061               2.00    -4400.00
03062               8.00    -4000.00
03063               6.00    -4000.00
03064               2.00    -3800.00
03065               4.00    -3600.00
03066               2.00    -3400.00
03067               0.00    -3200.00
03068               0.00    -3200.00
03069               0.00    -2800.00
03070               6.00    -2600.00
03071               6.00    -2400.00
03072               8.00    -2400.00
03073               0.00    -2000.00
03074              -4.00    -2000.00
03075              -2.00    -1800.00
03076               2.00    -1400.00
03077               4.00    -1400.00
03078               4.00    -1200.00
03079              -2.00     -800.00
03080              -6.00     -800.00
03081               0.00     -400.00
03082               6.00     -400.00
03083               0.00        0.00
03084              -2.00        0.00
03085              -2.00      200.00
03086               2.00      400.00
03087              18.00      800.00
03088              32.00      800.00
03089               6.00     1000.00
03090             -22.00     1000.00
03091             -14.00     1200.00
03092              14.00     1600.00
03093              38.00     1800.00
03094             200.00     2000.00
03095             246.00     2400.00
03096            -240.00     2400.00
03097            -254.00     2400.00
03098            -254.00     2600.00
03099             152.00     2800.00
03100             246.00     3200.00
03101             246.00     3600.00
03102            -254.00     3200.00
03103            -202.00     3600.00
03104             246.00     4000.00
03105              -8.00     4000.00
03106             114.00     4200.00
03107            -224.00     4400.00
03108            -138.00     4400.00
03109             246.00     4800.00
03110             -98.00     5000.00
03111            -142.00     5200.00
03112             -34.00     5200.00
03113              54.00     5600.00
03114              86.00     5600.00
03115             -40.00     5800.00
03116             -62.00     6200.00
03117            -130.00     6000.00
03118             136.00     6600.00
03119              24.00     6400.00
03120            -112.00     6600.00
03121              10.00     7200.00
03122             -54.00     6800.00
03123              40.00     7200.00
03124             -12.00     7400.00
03125             -66.00     7600.00
03126             -14.00     7600.00
03127              42.00     8000.00
03128             -18.00     7800.00
03129             -58.00     8000.00
03130             -10.00     8400.00
03131             -42.00     8400.00
03132              14.00     8600.00
03133             -10.00     8800.00
03134             -46.00     8800.00
03135             -26.00     9000.00
03136              12.00     9200.00
03137             -26.00     9200.00
03138             -18.00     9400.00
03139             -28.00     9600.00
03140             -52.00     9600.00
03141               6.00     9800.00
03142             -10.00    10000.00
03143             -22.00    10000.00
03144             -16.00    10200.00
03145             -34.00    10200.00
03146             -42.00    10400.00
03147              -2.00    10400.00
03148              -2.00    10600.00
03149             -22.00    10600.00
03150             -18.00    10800.00
03151             -42.00    10800.00
03152             -38.00    10800.00
03153             -10.00    11000.00
03154             -18.00    11200.00
03155             -24.00    11200.00
03156             -14.00    11400.00
03157             -32.00    11400.00
03158             -26.00    11400.00
03159             -22.00    11600.00
03160             -34.00    11800.00
03161             -14.00    11800.00
03162             -10.00    11800.00
03163             -30.00    11800.00
03164             -32.00    12000.00
03165             -28.00    12000.00
03166             -32.00    12000.00
03167             -20.00    12000.00
03168             -18.00    12000.00
03169             -26.00    12200.00
03170             -16.00    12200.00
03171             -32.00    12200.00
03172             -40.00    12200.00
03173             -26.00    12200.00
03174             -22.00    12200.00
03175             -22.00    12400.00
03176             -22.00    12200.00
03177             -32.00    12200.00
03178             -30.00    12200.00
03179             -26.00    12200.00
03180             -30.00    12200.00
03181             -24.00    12200.00
03182             -16.00    12200.00
03183             -26.00    12200.00
03184             -30.00    12200.00
03185             -34.00    12200.00
03186             -34.00    12200.00
03187             -24.00    12200.00
03188             -18.00    12200.00
03189             -22.00    12200.00
03190             -26.00    12200.00
03191             -32.00    12200.00
03192             -34.00    12000.00
03193             -28.00    12200.00
03194             -22.00    12000.00
03195             -22.00    12000.00
03196             -30.00    11800.00
03197             -30.00    12000.00
03198             -30.00    11800.00
03199             -26.00    11600.00
03200             -26.00    11800.00
03201             -26.00    11600.00
03202             -22.00    11400.00
03203             -22.00    11600.00
03204             -26.00    11400.00
03205             -34.00    11400.00
03206             -26.00    11200.00
03207             -18.00    11200.00
03208             -18.00    11000.00
03209             -26.00    11000.00
03210             -32.00    10800.00
03211             -26.00    10800.00
03212             -22.00    10600.00
03213             -24.00    10600.00
03214             -22.00    10400.00
03215             -22.00    10400.00
03216             -18.00    10200.00
03217             -18.00    10200.00
03218             -26.00    10000.00
03219             -30.00    10000.00
03220             -26.00     9800.00
03221             -18.00     9600.00
03222             -16.00     9600.00
03223             -18.00     9400.00
03224             -26.00     9400.00
03225             -26.00     9400.00
03226             -24.00     9200.00
03227             -18.00     9000.00
03228             -10.00     8600.00
03229             -16.00     8400.00
03230             -26.00     8400.00
03231             -30.00     8400.00
03232             -26.00     8200.00
03233             -20.00     8000.00
03234             -10.00     8000.00
03235             -14.00     7800.00
03236             -16.00     7600.00
03237             -18.00     7400.00
03238             -32.00     7200.00
03239             -24.00     7000.00
03240             -16.00     6800.00
03241             -14.00     6800.00
03242             -14.00     6600.00
03243             -18.00     6600.00
03244             -16.00     6400.00
03245             -12.00     6200.00
03246             -22.00     5800.00
03247             -22.00     5800.00
03248             -12.00     5600.00
03249             -10.00     5600.00
03250             -12.00     5200.00
03251             -16.00     5000.00
03252             -26.00     5000.00
03253             -18.00     4800.00
03254              -8.00     4400.00
03255              -2.00     4200.00
03256              -8.00     4000.00
03257             -18.00     4000.00
03258             -18.00     3600.00
03259             -14.00     3600.00
03260             -10.00     3400.00
03261              -8.00     3200.00
03262              -8.00     2800.00
03263              -8.00     2800.00
03264              -8.00     2600.00
03265             -10.00     2600.00
03266             -10.00     2200.00
03267             -12.00     2000.00
03268              -6.00     2000.00
03269              -2.00     1600.00
03270              -2.00     1600.00
03271             -10.00     1200.00
03272             -14.00     1000.00
03273             -10.00      800.00
03274              -6.00      800.00
03275               0.00      400.00
03276               2.00      400.00
03277               0.00      200.00
03278               4.00        0.00
03279              24.00     -200.00
03280              22.00     -400.00
03281              -6.00     -600.00
03282             -22.00     -800.00
03283              -2.00     -800.00
03284              16.00    -1200.00
03285              26.00    -1200.00
03286             120.00    -1400.00
03287             246.00    -2000.00
03288             -14.00    -2200.00
03289            -254.00    -2400.00
03290            -254.00    -2600.00
03291             106.00    -2400.00
03292             234.00    -2400.00
03293             246.00    -2800.00
03294             -46.00    -3200.00
03295            -254.00    -3000.00
03296             142.00    -3600.00
03297             246.00    -3800.00
03298              18.00    -3600.00
03299             -26.00    -4400.00
03300            -176.00    -4000.00
03301             122.00    -4400.00
03302             134.00    -4800.00
03303             -80.00    -4800.00
03304            -110.00    -5200.00
03305             -36.00    -4800.00
03306             192.00    -5600.00
03307              30.00    -5400.00
03308             -68.00    -5600.00
03309             -52.00    -6000.00
03310             -10.00    -6000.00
03311             150.00    -6400.00
03312              -2.00    -6400.00
03313             -62.00    -6400.00
03314             -10.00    -6800.00
03315              42.00    -6800.00
03316              42.00    -7200.00
03317             -24.00    -7000.00
03318               6.00    -7600.00
03319              14.00    -7400.00
03320              48.00    -7600.00
03321              14.00    -8000.00
03322             -38.00    -8000.00
03323              30.00    -8200.00
03324              26.00    -8200.00
03325               8.00    -8400.00
03326               6.00    -8400.00
03327               2.00    -8800.00
03328              26.00    -8800.00
03329              38.00    -9000.00
03330               6.00    -9200.00
03331              -8.00    -9200.00
03332              14.00    -9200.00
03333              22.00    -9400.00
03334              24.00    -9400.00
03335              30.00    -9600.00
03336               6.00    -9600.00
03337               8.00   -10000.00
03338              18.00    -9800.00
03339               6.00   -10000.00
03340              30.00   -10200.00
03341              34.00   -10000.00
03342              16.00   -10400.00
03343              14.00   -10400.00
03344               6.00   -10600.00
03345               8.00   -10600.00
03346              26.00   -10800.00
03347              30.00   -10800.00
03348              22.00   -11000.00
03349              24.00   -11000.00
03350              14.00   -11000.00
03351               6.00   -11200.00
03352              20.00   -11200.00
03353              26.00   -11200.00
03354              26.00   -11600.00
03355              30.00   -11400.00
03356              10.00   -11600.00
03357               8.00   -11400.00
03358              22.00   -11600.00
03359              22.00   -11600.00
03360              24.00   -11600.00
03361              26.00   -11600.00
03362              22.00   -11800.00
03363              18.00   -11600.00
03364              22.00   -11600.00
03365              16.00   -11800.00
03366              18.00   -11800.00
03367              24.00   -11800.00
03368              22.00   -11800.00
03369              24.00   -12000.00
03370              18.00   -11800.00
03371               8.00   -12000.00
03372              18.00   -11800.00
03373              24.00   -11800.00
03374              26.00   -11800.00
03375              24.00   -11800.00
03376              18.00   -11800.00
03377              16.00   -11800.00
03378              22.00   -11800.00
03379              20.00   -11800.00
03380              22.00   -11800.00
03381              22.00   -11800.00
03382              22.00   -11800.00
03383              18.00   -11600.00
03384              18.00   -11600.00
03385              14.00   -11600.00
03386              16.00   -11400.00
03387              24.00   -11600.00
03388              22.00   -11400.00
03389              22.00   -11400.00
03390              14.00   -11400.00
03391              14.00   -11200.00
03392              18.00   -11200.00
03393              24.00   -11200.00
03394              24.00   -11200.00
03395              22.00   -11000.00
03396              14.00   -11000.00
03397              18.00   -10800.00
03398              22.00   -10800.00
03399              22.00   -10800.00
03400              16.00   -10600.00
03401              14.00   -10600.00
03402              16.00   -10400.00
03403              24.00   -10200.00
03404              22.00   -10400.00
03405              14.00   -10000.00
03406              16.00   -10000.00
03407              16.00   -10000.00
03408              22.00    -9800.00
03409              22.00    -9600.00
03410              14.00    -9600.00
03411              12.00    -9600.00
03412              14.00    -9400.00
03413              22.00    -9200.00
03414              18.00    -9200.00
03415              16.00    -9200.00
03416              10.00    -9000.00
03417              10.00    -8800.00
03418              10.00    -8600.00
03419              14.00    -8400.00
03420              16.00    -8400.00
03421              22.00    -8200.00
03422              16.00    -8000.00
03423              12.00    -8000.00
03424               2.00    -7800.00
03425               8.00    -7400.00
03426              16.00    -7600.00
03427              18.00    -7200.00
03428              14.00    -7000.00
03429               8.00    -7000.00
03430               6.00    -7000.00
03431               8.00    -6800.00
03432              10.00    -6400.00
03433              14.00    -6400.00
03434              16.00    -6200.00
03435              14.00    -6000.00
03436               8.00    -6000.00
03437               0.00    -5800.00
03438              -2.00    -5600.00
03439              -2.00    -5400.00
03440              10.00    -5200.00
03441              22.00    -4800.00
03442              18.00    -4800.00
03443               8.00    -4800.00
03444              -6.00    -4400.00
03445             -14.00    -4200.00
03446              -2.00    -4000.00
03447              14.00    -3800.00
03448              22.00    -3800.00
03449              16.00    -3600.00
03450              -4.00    -3400.00
03451             -16.00    -3200.00
03452              -6.00    -3000.00
03453               8.00    -2800.00
03454              12.00    -2600.00
03455               0.00    -2400.00
03456              -2.00    -2200.00
03457               0.00    -2200.00
03458               2.00    -1800.00
03459               0.00    -1600.00
03460              -6.00    -1400.00
03461              -8.00    -1200.00
03462               0.00    -1000.00
03463               8.00     -800.00
03464              10.00     -600.00
03465              -2.00     -400.00
03466             -10.00     -200.00
03467             -10.00        0.00
03468               0.00      200.00
03469              14.00      400.00
03470              14.00      400.00
03471              22.00      800.00
03472              16.00      800.00
03473             -12.00     1000.00
03474             -18.00     1200.00
03475               6.00     1400.00
03476              22.00     1600.00
03477              86.00     1800.00
03478             246.00     2200.00
03479              86.00     2400.00
03480            -254.00     2600.00
03481            -254.00     2800.00
03482             -26.00     2800.00
03483             246.00     3000.00
03484             246.00     3400.00
03485            -254.00     3200.00
03486            -254.00     3400.00
03487             246.00     4000.00
03488             182.00     4000.00
03489              32.00     4200.00
03490              14.00     4400.00
03491            -254.00     4400.00
03492             198.00     4600.00
03493             132.00     4800.00
03494            -194.00     5000.00
03495             -50.00     5400.00
03496             -14.00     5600.00
03497             112.00     5600.00
03498               2.00     5800.00
03499             -40.00     6200.00
03500            -128.00     5800.00
03501               0.00     6400.00
03502             146.00     6600.00
03503            -110.00     6600.00
03504             -14.00     6800.00
03505             -18.00     6800.00
03506             -18.00     7000.00
03507              22.00     7200.00
03508             -66.00     7600.00
03509             -32.00     7600.00
03510              30.00     7600.00
03511              24.00     8000.00
03512             -78.00     8000.00
03513             -26.00     8200.00
03514             -22.00     8400.00
03515             -10.00     8400.00
03516              14.00     8800.00
03517             -42.00     8800.00
03518             -50.00     8800.00
03519               2.00     9200.00
03520               6.00     9200.00
03521             -32.00     9200.00
03522             -10.00     9600.00
03523             -58.00     9600.00
03524             -20.00     9800.00
03525               8.00    10000.00
03526             -22.00    10000.00
03527             -16.00    10000.00
03528             -26.00    10200.00
03529             -52.00    10400.00
03530             -28.00    10400.00
03531              10.00    10600.00
03532             -16.00    10600.00
03533             -14.00    10800.00
03534             -34.00    10800.00
03535             -48.00    10800.00
03536             -18.00    11200.00
03537             -10.00    11200.00
03538             -22.00    11200.00
03539             -14.00    11400.00
03540             -26.00    11400.00
03541             -36.00    11400.00
03542             -16.00    11600.00
03543             -34.00    11800.00
03544             -30.00    11600.00
03545             -10.00    11800.00
03546             -16.00    11800.00
03547             -28.00    11800.00
03548             -26.00    11800.00
03549             -38.00    12000.00
03550             -26.00    12000.00
03551             -14.00    12000.00
03552             -22.00    12200.00
03553             -22.00    12000.00
03554             -24.00    12400.00
03555             -38.00    12200.00
03556             -32.00    12200.00
03557             -26.00    12200.00
03558             -24.00    12200.00
03559             -16.00    12200.00
03560             -18.00    12200.00
03561             -32.00    12200.00
03562             -34.00    12400.00
03563             -32.00    12400.00
03564             -28.00    12200.00
03565             -18.00    12200.00
03566             -20.00    12400.00
03567             -30.00    12200.00
03568             -32.00    12200.00
03569             -34.00    12200.00
03570             -30.00    12200.00
03571             -26.00    12000.00
03572             -22.00    12200.00
03573             -24.00    12200.00
03574             -26.00    12000.00
03575             -34.00    12000.00
03576             -32.00    12200.00
03577             -24.00    12200.00
03578             -18.00    12000.00
03579             -24.00    12000.00
03580             -24.00    11800.00
03581             -32.00    11800.00
03582             -32.00    11600.00
03583             -30.00    11800.00
03584             -24.00    11600.00
03585             -18.00    11800.00
03586             -18.00    11400.00
03587             -30.00    11400.00
03588             -36.00    11400.00
03589             -32.00    11400.00
03590             -24.00    11200.00
03591             -16.00    11200.00
03592             -24.00    11200.00
03593             -30.00    11000.00
03594             -26.00    10800.00
03595             -24.00    10800.00
03596             -26.00    10600.00
03597             -24.00    10600.00
03598             -22.00    10400.00
03599             -20.00    10400.00
03600             -22.00    10200.00
03601             -26.00    10000.00
03602             -30.00    10000.00
03603             -22.00     9800.00
03604             -18.00     9600.00
03605             -16.00     9600.00
03606             -16.00     9600.00
03607             -26.00     9400.00
03608             -30.00     9200.00
03609             -24.00     9200.00
03610             -22.00     9000.00
03611             -16.00     8800.00
03612             -14.00     8800.00
03613             -18.00     8600.00
03614             -24.00     8400.00
03615             -24.00     8200.00
03616             -24.00     8000.00
03617             -16.00     8200.00
03618             -14.00     8000.00
03619             -14.00     7600.00
03620             -16.00     7600.00
03621             -20.00     7400.00
03622             -22.00     7200.00
03623             -18.00     7200.00
03624             -16.00     6800.00
03625             -14.00     6600.00
03626             -14.00     6600.00
03627             -18.00     6400.00
03628             -20.00     6200.00
03629             -18.00     6000.00
03630             -14.00     5800.00
03631             -12.00     5600.00
03632             -14.00     5600.00
03633             -18.00     5200.00
03634             -16.00     5200.00
03635             -16.00     5000.00
03636             -16.00     4800.00
03637             -14.00     4600.00
03638             -10.00     4400.00
03639              -6.00     4200.00
03640              -8.00     4000.00
03641             -18.00     3800.00
03642             -20.00     3400.00
03643             -14.00     3600.00
03644              -8.00     3200.00
03645              -6.00     3200.00
03646              -8.00     2800.00
03647              -8.00     2600.00
03648             -10.00     2400.00
03649             -14.00     2200.00
03650             -16.00     2000.00
03651              -6.00     1800.00
03652               2.00     1600.00
03653               0.00     1600.00
03654             -10.00     1600.00
03655             -14.00     1200.00
03656              -8.00     1000.00
03657              -4.00      800.00
03658               0.00      800.00
03659               0.00      400.00
03660               0.00      200.00
03661               0.00        0.00
03662               8.00     -200.00
03663              32.00     -400.00
03664              14.00     -600.00
03665             -18.00     -600.00
03666             -20.00     -800.00
03667               6.00    -1000.00
03668              24.00    -1200.00
03669              64.00    -1400.00
03670             232.00    -1400.00
03671             208.00    -2200.00
03672            -254.00    -2400.00
03673            -254.00    -2400.00
03674             -78.00    -2600.00
03675             198.00    -2800.00
03676             246.00    -2600.00
03677             246.00    -3000.00
03678            -254.00    -3200.00
03679            -216.00    -3200.00
03680             246.00    -3800.00
03681              70.00    -3600.00
03682              30.00    -4000.00
03683            -146.00    -4400.00
03684             -40.00    -4200.00
03685             210.00    -4800.00
03686             -10.00    -4600.00
03687            -110.00    -5200.00
03688            -104.00    -4800.00
03689             120.00    -5200.00
03690             154.00    -5600.00
03691             -70.00    -5400.00
03692             -54.00    -6000.00
03693             -66.00    -5800.00
03694             106.00    -6200.00
03695             104.00    -6400.00
03696             -70.00    -6400.00
03697             -32.00    -6800.00
03698               6.00    -6800.00
03699              66.00    -7000.00
03700               2.00    -7200.00
03701             -14.00    -7200.00
03702               8.00    -7600.00
03703              24.00    -7400.00
03704              50.00    -7600.00
03705             -30.00    -7800.00
03706               0.00    -8000.00
03707              34.00    -8400.00
03708              10.00    -8200.00
03709               8.00    -8600.00
03710               2.00    -8600.00
03711              10.00    -8800.00
03712              32.00    -8800.00
03713              18.00    -9000.00
03714              -2.00    -9200.00
03715              10.00    -9200.00
03716              22.00    -9400.00
03717              16.00    -9400.00
03718              22.00    -9600.00
03719              14.00    -9600.00
03720               6.00   -10000.00
03721              18.00   -10000.00
03722               8.00   -10000.00
03723              14.00   -10000.00
03724              34.00   -10200.00
03725              22.00   -10400.00
03726              14.00   -10400.00
03727              12.00   -10600.00
03728               8.00   -10600.00
03729              18.00   -10800.00
03730              32.00   -10800.00
03731              22.00   -11000.00
03732              18.00   -11000.00
03733              18.00   -11000.00
03734              10.00   -11000.00
03735              18.00   -11200.00
03736              24.00   -11200.00
03737              18.00   -11200.00
03738              24.00   -11400.00
03739              24.00   -11200.00
03740              10.00   -11600.00
03741              16.00   -11600.00
03742              18.00   -11600.00
03743              18.00   -11600.00
03744              30.00   -11600.00
03745              26.00   -11800.00
03746              14.00   -11800.00
03747              16.00   -11800.00
03748              16.00   -11800.00
03749              18.00   -11800.00
03750              30.00   -11800.00
03751              24.00   -11800.00
03752              22.00   -11800.00
03753              20.00   -11800.00
03754               8.00   -11800.00
03755              14.00   -11800.00
03756              26.00   -11800.00
03757              26.00   -11800.00
03758              24.00   -11800.00
03759              16.00   -12000.00
03760              14.00   -11800.00
03761              22.00   -11800.00
03762              20.00   -11800.00
03763              22.00   -11800.00
03764              24.00   -11800.00
03765              22.00   -11600.00
03766              16.00   -11800.00
03767              16.00   -11600.00
03768              14.00   -11600.00
03769              22.00   -11600.00
03770              26.00   -11600.00
03771              22.00   -11600.00
03772              18.00   -11600.00
03773              18.00   -11600.00
03774              16.00   -11600.00
03775              14.00   -11200.00
03776              16.00   -11200.00
03777              22.00   -11000.00
03778              24.00   -11200.00
03779              18.00   -11000.00
03780              16.00   -11000.00
03781              16.00   -10800.00
03782              16.00   -10800.00
03783              22.00   -10800.00
03784              18.00   -10400.00
03785              22.00   -10600.00
03786              18.00   -10400.00
03787              14.00   -10400.00
03788              14.00   -10400.00
03789              16.00   -10000.00
03790              22.00   -10000.00
03791              22.00   -10000.00
03792              16.00    -9800.00
03793              10.00    -9800.00
03794              16.00    -9600.00
03795              10.00    -9400.00
03796              16.00    -9400.00
03797              18.00    -9200.00
03798              22.00    -9200.00
03799              14.00    -9000.00
03800              10.00    -9000.00
03801               8.00    -8800.00
03802              10.00    -8600.00
03803              16.00    -8400.00
03804              18.00    -8000.00
03805              16.00    -8200.00
03806              16.00    -7800.00
03807              10.00    -7800.00
03808               8.00    -7600.00
03809              10.00    -7400.00
03810              14.00    -7400.00
03811              18.00    -7200.00
03812              14.00    -7000.00
03813               6.00    -7000.00
03814               8.00    -6800.00
03815              12.00    -6800.00
03816              14.00    -6400.00
03817              10.00    -6200.00
03818              10.00    -6200.00
03819              14.00    -6000.00
03820               8.00    -5600.00
03821               6.00    -5400.00
03822               6.00    -5200.00
03823              10.00    -5200.00
03824              10.00    -5000.00
03825               8.00    -4800.00
03826               2.00    -4800.00
03827               6.00    -4600.00
03828               6.00    -4400.00
03829               0.00    -4400.00
03830               6.00    -4000.00
03831               6.00    -3800.00
03832               6.00    -3600.00
03833               2.00    -3600.00
03834              -2.00    -3200.00
03835               0.00    -3200.00
03836               6.00    -2800.00
03837               4.00    -2800.00
03838               2.00    -2400.00
03839               2.00    -2200.00
03840               0.00    -2200.00
03841              -2.00    -2000.00
03842               0.00    -1600.00
03843               0.00    -1400.00
03844               6.00    -1200.00
03845               0.00    -1200.00
03846              -6.00     -800.00
03847              -2.00     -800.00
03848              -2.00     -600.00
03849               0.00     -400.00
03850              -2.00        0.00
03851              -2.00      200.00
03852               2.00      200.00
03853               6.00      400.00
03854              14.00      800.00
03855              32.00      800.00
03856               8.00     1000.00
03857             -22.00     1200.00
03858             -14.00     1200.00
03859               8.00     1600.00
03860              38.00     1600.00
03861             224.00     2000.00
03862             246.00     2600.00
03863            -254.00     2400.00
03864            -254.00     2600.00
03865            -230.00     2800.00
03866             184.00     2800.00
03867             246.00     3200.00
03868             246.00     3400.00
03869            -254.00     3200.00
03870            -112.00     3600.00
03871             246.00     4000.00
03872             -10.00     4000.00
03873             114.00     4400.00
03874            -254.00     4200.00
03875             -90.00     4400.00
03876             246.00     4800.00
03877            -120.00     4800.00
03878            -128.00     5200.00
03879             -38.00     5400.00
03880              70.00     5600.00
03881              80.00     5600.00
03882             -42.00     6000.00
03883             -74.00     6200.00
03884            -120.00     6000.00
03885             152.00     6600.00
03886               6.00     6600.00
03887            -104.00     6800.00
03888              10.00     6800.00
03889             -48.00     7000.00
03890              46.00     7400.00
03891             -22.00     7200.00
03892             -64.00     7600.00
03893             -10.00     7600.00
03894              42.00     7800.00
03895             -32.00     8000.00
03896             -52.00     8000.00
03897              -6.00     8400.00
03898             -34.00     8400.00
03899              14.00     8800.00
03900             -16.00     8600.00
03901             -52.00     8800.00
03902             -26.00     9000.00
03903              16.00     9200.00
03904             -28.00     9200.00
03905             -12.00     9600.00
03906             -32.00     9600.00
03907             -54.00     9600.00
03908               2.00     9800.00
03909             -18.00     9800.00
03910             -18.00    10000.00
03911             -16.00    10200.00
03912             -42.00    10200.00
03913             -46.00    10400.00
03914               2.00    10400.00
03915              -6.00    10400.00
03916             -24.00    10600.00
03917             -26.00    10600.00
03918             -48.00    10800.00
03919             -30.00    11000.00
03920              -2.00    11000.00
03921             -22.00    11200.00
03922             -26.00    11200.00
03923             -20.00    11400.00
03924             -34.00    11400.00
03925             -22.00    11400.00
03926             -22.00    11800.00
03927             -34.00    11600.00
03928             -16.00    11800.00
03929             -12.00    11800.00
03930             -26.00    11800.00
03931             -30.00    12000.00
03932             -30.00    12000.00
03933             -34.00    12000.00
03934             -18.00    12000.00
03935             -16.00    12000.00
03936             -24.00    12200.00
03937             -22.00    12200.00
03938             -32.00    12200.00
03939             -34.00    12200.00
03940             -22.00    12200.00
03941             -24.00    12200.00
03942             -22.00    12200.00
03943             -18.00    12200.00
03944             -30.00    12400.00
03945             -32.00    12200.00
03946             -30.00    12200.00
03947             -26.00    12400.00
03948             -22.00    12200.00
03949             -18.00    12400.00
03950             -30.00    12200.00
03951             -30.00    12400.00
03952             -30.00    12200.00
03953             -30.00    12200.00
03954             -26.00    12200.00
03955             -24.00    12000.00
03956             -26.00    12200.00
03957             -22.00    12000.00
03958             -28.00    12000.00
03959             -34.00    12200.00
03960             -32.00    12000.00
03961             -24.00    12000.00
03962             -22.00    12000.00
03963             -22.00    12000.00
03964             -32.00    11800.00
03965             -34.00    11800.00
03966             -26.00    11600.00
03967             -24.00    11800.00
03968             -24.00    11400.00
03969             -26.00    11600.00
03970             -30.00    11400.00
03971             -32.00    11400.00
03972             -26.00    11200.00
03973             -26.00    11200.00
03974             -26.00    11200.00
03975             -24.00    11000.00
03976             -24.00    10800.00
03977             -26.00    10800.00
03978             -26.00    10800.00
03979             -26.00    10800.00
03980             -26.00    10600.00
03981             -24.00    10600.00
03982             -22.00    10400.00
03983             -22.00    10200.00
03984             -24.00    10200.00
03985             -26.00    10000.00
03986             -26.00     9800.00
03987             -24.00     9800.00
03988             -22.00     9600.00
03989             -14.00     9600.00
03990             -18.00     9400.00
03991             -26.00     9400.00
03992             -28.00     9200.00
03993             -24.00     9000.00
03994             -16.00     9000.00
03995             -16.00     8800.00
03996             -18.00     8600.00
03997             -26.00     8400.00
03998             -24.00     8400.00
03999             -20.00     8200.00
04000             -16.00     8000.00
04001             -14.00     7800.00
04002             -18.00     7800.00
04003             -20.00     7600.00
04004             -18.00     7400.00
04005             -18.00     7200.00
04006             -16.00     7200.00
04007             -18.00     6800.00
04008             -14.00     6600.00
04009             -14.00     6600.00
04010             -14.00     6400.00
04011             -18.00     6400.00
04012             -22.00     6000.00
04013             -18.00     6000.00
04014             -14.00     5800.00
04015              -8.00     5600.00
04016             -10.00     5400.00
04017             -16.00     5400.00
04018             -20.00     5000.00
04019             -18.00     5000.00
04020             -10.00     4600.00
04021              -8.00     4400.00
04022              -8.00     4200.00
04023             -10.00     4200.00
04024             -16.00     4000.00
04025             -16.00     4000.00
04026             -10.00     3600.00
04027             -10.00     3400.00
04028              -8.00     3200.00
04029              -8.00     2800.00
04030             -10.00     2800.00
04031             -10.00     2600.00
04032             -12.00     2400.00
04033             -14.00     2200.00
04034             -10.00     2000.00
04035              -2.00     1800.00
04036              -2.00     1600.00
04037              -6.00     1600.00
04038             -12.00     1200.00
04039             -10.00     1000.00
04040              -8.00      800.00
04041              -6.00      800.00
04042              -2.00      600.00
04043               0.00      400.00
04044               2.00      200.00
04045               0.00        0.00
04046              22.00     -200.00
04047              24.00     -400.00
04048              -6.00     -600.00
04049             -16.00     -800.00
04050              -2.00     -800.00
04051              16.00    -1200.00
04052              32.00    -1200.00
04053             134.00    -1400.00
04054             246.00    -2000.00
04055             -56.00    -2400.00
04056            -254.00    -2400.00
04057            -254.00    -2400.00
04058             122.00    -2600.00
04059             242.00    -2400.00
04060             246.00    -2800.00
04061            -106.00    -3200.00
04062            -254.00    -3000.00
04063             186.00    -3600.00
04064             222.00    -3800.00
04065              12.00    -3600.00
04066             -40.00    -4400.00
04067            -158.00    -4000.00
04068             152.00    -4600.00
04069             106.00    -4600.00
04070            -104.00    -4800.00
04071            -110.00    -5200.00
04072               0.00    -5000.00
04073             214.00    -5600.00
04074               6.00    -5200.00
04075             -86.00    -5600.00
04076             -74.00    -6000.00
04077              10.00    -5600.00
04078             166.00    -6400.00
04079              -8.00    -6200.00
04080             -62.00    -6600.00
04081             -22.00    -6800.00
04082              46.00    -6800.00
04083              48.00    -7000.00
04084             -18.00    -7000.00
04085               6.00    -7400.00
04086               2.00    -7400.00
04087              42.00    -7600.00
04088              10.00    -7800.00
04089             -24.00    -8000.00
04090              38.00    -8200.00
04091              18.00    -8400.00
04092               0.00    -8400.00
04093               6.00    -8600.00
04094               8.00    -8800.00
04095              30.00    -8800.00
04096              30.00    -8800.00
04097               0.00    -9000.00
04098              -2.00    -9200.00
04099              20.00    -9200.00
04100              22.00    -9400.00
04101              18.00    -9600.00
04102              22.00    -9600.00
04103               2.00    -9600.00
04104              10.00   -10000.00
04105              16.00   -10000.00
04106               6.00   -10200.00
04107              30.00   -10200.00
04108              32.00   -10200.00
04109              10.00   -10400.00
04110               6.00   -10400.00
04111               2.00   -10400.00
04112              10.00   -10800.00
04113              32.00   -10800.00
04114              32.00   -10800.00
04115              16.00   -11000.00
04116              14.00   -11000.00
04117               8.00   -11200.00
04118              14.00   -11000.00
04119              30.00   -11200.00
04120              22.00   -11200.00
04121              20.00   -11200.00
04122              26.00   -11400.00
04123              10.00   -11400.00
04124              10.00   -11600.00
04125              22.00   -11600.00
04126              20.00   -11600.00
04127              30.00   -11600.00
04128              26.00   -11600.00
04129              16.00   -11800.00
04130              14.00   -11800.00
04131              18.00   -11800.00
04132              16.00   -11800.00
04133              24.00   -11600.00
04134              26.00   -11800.00
04135              24.00   -11800.00
04136              22.00   -11800.00
04137              16.00   -11800.00
04138              14.00   -11800.00
04139              24.00   -11800.00
04140              24.00   -11800.00
04141              22.00   -11800.00
04142              22.00   -11800.00
04143              22.00   -11800.00
04144              16.00   -12000.00
04145              14.00   -11800.00
04146              18.00   -11800.00
04147              26.00   -11600.00
04148              30.00   -11600.00
04149              18.00   -11600.00
04150              10.00   -11600.00
04151              14.00   -11600.00
04152              20.00   -11600.00
04153              24.00   -11600.00
04154              24.00   -11600.00
04155              22.00   -11600.00
04156              16.00   -11400.00
04157              16.00   -11400.00
04158              14.00   -11200.00
04159              16.00   -11400.00
04160              22.00   -11200.00
04161              24.00   -11200.00
04162              16.00   -11000.00
04163              14.00   -11000.00
04164              16.00   -11000.00
04165              22.00   -10800.00
04166              22.00   -10800.00
04167              16.00   -10800.00
04168              16.00   -10800.00
04169              22.00   -10400.00
04170              16.00   -10400.00
04171              16.00   -10200.00
04172              16.00   -10200.00
04173              14.00   -10000.00
04174              16.00   -10000.00
04175              16.00   -10000.00
04176              22.00    -9600.00
04177              22.00    -9600.00
04178              14.00    -9600.00
04179               2.00    -9400.00
04180              10.00    -9200.00
04181              18.00    -9200.00
04182              24.00    -9000.00
04183              22.00    -8800.00
04184              10.00    -8800.00
04185               6.00    -8800.00
04186               8.00    -8400.00
04187              14.00    -8400.00
04188              22.00    -8200.00
04189              22.00    -8000.00
04190              14.00    -7800.00
04191               0.00    -7800.00
04192               0.00    -7400.00
04193              14.00    -7600.00
04194              26.00    -7200.00
04195              24.00    -7000.00
04196              14.00    -7000.00
04197               4.00    -7000.00
04198               2.00    -6800.00
04199              10.00    -6600.00
04200              14.00    -6200.00
04201              14.00    -6200.00
04202              10.00    -6000.00
04203               8.00    -5800.00
04204               2.00    -5600.00
04205               6.00    -5400.00
04206              14.00    -5200.00
04207              16.00    -5200.00
04208              14.00    -4800.00
04209               2.00    -4800.00
04210               0.00    -4600.00
04211               2.00    -4400.00
04212               4.00    -4400.00
04213              16.00    -4000.00
04214              14.00    -3800.00
04215               2.00    -3600.00
04216              -2.00    -3600.00
04217              -2.00    -3200.00
04218               2.00    -3200.00
04219               6.00    -3000.00
04220               4.00    -2800.00
04221               2.00    -2400.00
04222               6.00    -2400.00
04223               2.00    -2200.00
04224               0.00    -2000.00
04225              -6.00    -1800.00
04226               0.00    -1600.00
04227               6.00    -1400.00
04228               2.00    -1200.00
04229              -2.00    -1000.00
04230              -8.00     -800.00
04231              -8.00     -600.00
04232              -2.00     -600.00
04233               2.00     -400.00
04234               2.00        0.00
04235               0.00      200.00
04236               0.00      200.00
04237               0.00      600.00
04238              28.00      800.00
04239              24.00      800.00
04240             -10.00     1200.00
04241             -18.00     1200.00
04242               0.00     1400.00
04243              18.00     1600.00
04244             102.00     1800.00
04245             246.00     2400.00
04246              38.00     2400.00
04247            -254.00     2400.00
04248            -254.00     2600.00
04249               4.00     2800.00
04250             246.00     3000.00
04251             246.00     3400.00
04252            -254.00     3200.00
04253            -254.00     3400.00
04254             246.00     4000.00
04255             146.00     4000.00
04256              50.00     4200.00
04257             -30.00     4400.00
04258            -254.00     4400.00
04259             236.00     4600.00
04260             104.00     5000.00
04261            -194.00     5000.00
04262             -54.00     5200.00
04263              -6.00     5600.00
04264             114.00     5600.00
04265              -8.00     5600.00
04266             -42.00     6200.00
04267            -136.00     5800.00
04268              32.00     6400.00
04269             136.00     6600.00
04270            -130.00     6400.00
04271              -8.00     7000.00
04272             -22.00     7000.00
04273               4.00     7200.00
04274              26.00     7400.00
04275             -76.00     7400.00
04276             -38.00     7600.00
04277              34.00     7800.00
04278              22.00     8000.00
04279             -72.00     8000.00
04280             -22.00     8400.00
04281             -32.00     8400.00
04282              -8.00     8400.00
04283              14.00     8800.00
04284             -42.00     8800.00
04285             -48.00     9000.00
04286               0.00     9200.00
04287              -2.00     9200.00
04288             -26.00     9400.00
04289              -4.00     9600.00
04290             -62.00     9600.00
04291             -26.00     9600.00
04292              -6.00     9800.00
04293             -18.00     9800.00
04294              -8.00    10200.00
04295             -30.00    10200.00
04296             -54.00    10400.00
04297             -22.00    10400.00
04298              10.00    10600.00
04299             -22.00    10600.00
04300             -28.00    10800.00
04301             -46.00    10800.00
04302             -40.00    10800.00
04303              -8.00    10800.00
04304              -8.00    11200.00
04305             -28.00    11000.00
04306             -24.00    11400.00
04307             -30.00    11400.00
04308             -30.00    11400.00
04309             -16.00    11800.00
04310             -34.00    11400.00
04311             -34.00    11600.00
04312             -18.00    11800.00
04313             -22.00    11800.00
04314             -26.00    11800.00
04315             -22.00    12000.00
04316             -32.00    12000.00
04317             -30.00    12000.00
04318             -22.00    12200.00
04319             -30.00    12000.00
04320             -24.00    12200.00
04321             -22.00    12000.00
04322             -30.00    12200.00
04323             -24.00    12200.00
04324             -26.00    12200.00
04325             -32.00    12200.00
04326             -24.00    12200.00
04327             -18.00    12400.00
04328             -32.00    12200.00
04329             -30.00    12200.00
04330             -30.00    12200.00
04331             -26.00    12200.00
04332             -18.00    12200.00
04333             -22.00    12400.00
04334             -26.00    12200.00
04335             -24.00    12200.00
04336             -32.00    12200.00
04337             -30.00    12200.00
04338             -22.00    12200.00
04339             -24.00    12200.00
04340             -26.00    12200.00
04341             -24.00    12200.00
04342             -32.00    12200.00
04343             -32.00    12200.00
04344             -22.00    12000.00
04345             -16.00    12000.00
04346             -16.00    11800.00
04347             -32.00    12000.00
04348             -48.00    12000.00
04349             -40.00    11800.00
04350             -16.00    11800.00
04351              -8.00    11400.00
04352             -22.00    11600.00
04353             -38.00    11400.00
04354             -34.00    11400.00
04355             -24.00    11400.00
04356             -16.00    11200.00
04357             -26.00    11200.00
04358             -30.00    10800.00
04359             -26.00    10800.00
04360             -22.00    10800.00
04361             -24.00    10800.00
04362             -34.00    10800.00
04363             -34.00    10600.00
04364             -16.00    10600.00
04365              -6.00    10400.00
04366             -16.00    10400.00
04367             -40.00    10000.00
04368             -38.00    10000.00
04369             -22.00    10000.00
04370             -10.00     9800.00
04371             -18.00     9600.00
04372             -30.00     9600.00
04373             -28.00     9400.00
04374             -20.00     9200.00
04375             -16.00     9200.00
04376             -22.00     9000.00
04377             -26.00     9200.00
04378             -22.00     8800.00
04379             -18.00     8800.00
04380             -14.00     8400.00
04381             -20.00     8400.00
04382             -24.00     8200.00
04383             -24.00     8000.00
04384             -22.00     8000.00
04385             -16.00     7800.00
04386             -14.00     7600.00
04387             -14.00     7600.00
04388             -18.00     7400.00
04389             -20.00     7200.00
04390             -22.00     7000.00
04391             -18.00     6800.00
04392             -12.00     6800.00
04393             -10.00     6600.00
04394             -14.00     6400.00
04395             -16.00     6200.00
04396             -22.00     6000.00
04397             -16.00     5800.00
04398             -10.00     5600.00
04399             -10.00     5600.00
04400             -14.00     5200.00
04401             -14.00     5400.00
04402             -16.00     5000.00
04403             -16.00     4800.00
04404             -10.00     4600.00
04405              -8.00     4400.00
04406              -8.00     4200.00
04407             -10.00     4000.00
04408             -14.00     3800.00
04409             -14.00     3600.00
04410             -10.00     3600.00
04411             -10.00     3200.00
04412              -6.00     3000.00
04413             -10.00     2800.00
04414             -10.00     2600.00
04415             -10.00     2600.00
04416              -8.00     2200.00
04417             -10.00     2000.00
04418              -8.00     1800.00
04419              -8.00     1600.00
04420              -6.00     1600.00
04421              -8.00     1400.00
04422             -10.00     1200.00
04423              -8.00     1000.00
04424              -6.00      800.00
04425              -2.00      400.00
04426              -2.00      400.00
04427              -2.00      200.00
04428              -2.00        0.00
04429              12.00     -200.00
04430              32.00     -400.00
04431               8.00     -400.00
04432             -22.00     -600.00
04433             -16.00    -1000.00
04434              10.00    -1000.00
04435              24.00    -1200.00
04436              64.00    -1400.00
04437             246.00    -1600.00
04438             178.00    -2000.00
04439            -254.00    -2400.00
04440            -254.00    -2400.00
04441             -40.00    -2800.00
04442             204.00    -2600.00
04443             246.00    -2600.00
04444             246.00    -3200.00
04445            -254.00    -3200.00
04446            -150.00    -3200.00
04447             246.00    -3800.00
04448              48.00    -3400.00
04449              22.00    -4000.00
04450            -158.00    -4000.00
04451             -10.00    -4200.00
04452             206.00    -4800.00
04453             -36.00    -4600.00
04454            -112.00    -4800.00
04455             -94.00    -4800.00
04456             142.00    -5200.00
04457             138.00    -5400.00
04458             -80.00    -5200.00
04459             -54.00    -6000.00
04460             -62.00    -5800.00
04461             120.00    -6200.00
04462              88.00    -6400.00
04463             -72.00    -6400.00
04464             -22.00    -6800.00
04465              14.00    -6600.00
04466              58.00    -7000.00
04467              -8.00    -7000.00
04468              -2.00    -7200.00
04469              14.00    -7400.00
04470              24.00    -7400.00
04471              48.00    -7800.00
04472             -30.00    -7800.00
04473               8.00    -8200.00
04474              38.00    -8200.00
04475               8.00    -8400.00
04476               0.00    -8600.00
04477               2.00    -8600.00
04478              22.00    -9000.00
04479              40.00    -8800.00
04480              14.00    -9000.00
04481             -22.00    -9200.00
04482               0.00    -9200.00
04483              32.00    -9200.00
04484              32.00    -9400.00
04485              20.00    -9600.00
04486               2.00    -9600.00
04487               6.00    -9600.00
04488              22.00   -10000.00
04489              10.00   -10000.00
04490              14.00   -10200.00
04491              30.00   -10200.00
04492              18.00   -10200.00
04493               6.00   -10600.00
04494               8.00   -10400.00
04495              22.00   -10800.00
04496              40.00   -10800.00
04497              26.00   -10800.00
04498             -10.00   -11000.00
04499              -8.00   -11000.00
04500              30.00   -11000.00
04501              48.00   -11200.00
04502              30.00   -11200.00
04503             -12.00   -11200.00
04504             -14.00   -11200.00
04505              40.00   -11200.00
04506              60.00   -11400.00
04507              22.00   -11400.00
04508             -10.00   -11600.00
04509              -6.00   -11600.00
04510              26.00   -11600.00
04511              42.00   -11600.00
04512              30.00   -11600.00
04513              10.00   -11800.00
04514              10.00   -11600.00
04515              16.00   -11800.00
04516              26.00   -11800.00
04517              26.00   -11600.00
04518              22.00   -11800.00
04519              22.00   -11800.00
04520              18.00   -11800.00
04521              10.00   -11800.00
04522              16.00   -11800.00
04523              22.00   -11800.00
04524              28.00   -11800.00
04525              30.00   -11800.00
04526              22.00   -11800.00
04527              14.00   -11800.00
04528              10.00   -12000.00
04529              18.00   -11600.00
04530              30.00   -11800.00
04531              34.00   -11800.00
04532              24.00   -11600.00
04533              14.00   -11600.00
04534               8.00   -11600.00
04535               8.00   -11600.00
04536              18.00   -11600.00
04537              32.00   -11400.00
04538              34.00   -11600.00
04539              24.00   -11600.00
04540               8.00   -11400.00
04541               2.00   -11400.00
04542              10.00   -11200.00
04543              24.00   -11200.00
04544              34.00   -11000.00
04545              38.00   -11000.00
04546              22.00   -11000.00
04547              -6.00   -11000.00
04548              -4.00   -11000.00
04549              22.00   -10800.00
04550              34.00   -10800.00
04551              32.00   -10600.00
04552              12.00   -10400.00
04553               6.00   -10400.00
04554              14.00   -10400.00
04555              10.00   -10200.00
04556              16.00   -10200.00
04557              26.00   -10000.00
04558              26.00    -9800.00
04559              20.00    -9800.00
04560              10.00    -9600.00
04561               2.00    -9600.00
04562               6.00    -9400.00
04563              14.00    -9400.00
04564              24.00    -9200.00
04565              32.00    -9000.00
04566              18.00    -8800.00
04567               0.00    -8800.00
04568               2.00    -8800.00
04569              16.00    -8600.00
04570              24.00    -8400.00
04571              20.00    -8400.00
04572              10.00    -8000.00
04573               6.00    -8000.00
04574              10.00    -7800.00
04575              14.00    -7600.00
04576              16.00    -7600.00
04577              16.00    -7200.00
04578              10.00    -7200.00
04579               8.00    -7200.00
04580              10.00    -7000.00
04581              10.00    -6800.00
04582              16.00    -6600.00
04583              16.00    -6400.00
04584              10.00    -6400.00
04585               6.00    -6000.00
04586               2.00    -6000.00
04587               6.00    -5600.00
04588              12.00    -5600.00
04589              14.00    -5400.00
04590              10.00    -5200.00
04591              10.00    -4800.00
04592               4.00    -4800.00
04593               2.00    -4600.00
04594               6.00    -4400.00
04595               8.00    -4400.00
04596               8.00    -4200.00
04597               4.00    -4000.00
04598               2.00    -3800.00
04599               6.00    -3600.00
04600              10.00    -3200.00
04601              14.00    -3200.00
04602               0.00    -3000.00
04603             -16.00    -2800.00
04604             -10.00    -2600.00
04605              22.00    -2400.00
04606              30.00    -2200.00
04607               0.00    -2200.00
04608             -30.00    -1800.00
04609             -20.00    -1600.00
04610              16.00    -1400.00
04611              30.00    -1000.00
04612              10.00    -1000.00
04613             -18.00    -1000.00
04614             -26.00     -600.00
04615             -10.00     -600.00
04616               8.00     -400.00
04617              14.00        0.00
04618               6.00        0.00
04619              -2.00      200.00
04620              -6.00      400.00
04621               8.00      600.00
04622              24.00      800.00
04623               2.00     1000.00
04624             -12.00     1000.00
04625              -6.00     1400.00
04626              12.00     1400.00
04627              32.00     1600.00
04628             242.00     2000.00
04629             246.00     2400.00
04630            -254.00     2400.00
04631            -254.00     2600.00
04632            -194.00     2800.00
04633             216.00     2800.00
04634             246.00     3200.00
04635             212.00     3400.00
04636            -254.00     3200.00
04637             -24.00     3800.00
04638             246.00     4000.00
04639             -26.00     4000.00
04640             110.00     4400.00
04641            -254.00     4400.00
04642             -30.00     4600.00
04643             246.00     4600.00
04644            -160.00     5000.00
04645            -122.00     5000.00
04646             -24.00     5400.00
04647              90.00     5600.00
04648              66.00     5600.00
04649             -52.00     6000.00
04650             -88.00     6000.00
04651             -98.00     6000.00
04652             170.00     6600.00
04653             -26.00     6400.00
04654             -96.00     6600.00
04655              10.00     6800.00
04656             -40.00     7000.00
04657              48.00     7200.00
04658             -38.00     7400.00
04659             -70.00     7600.00
04660              -2.00     7600.00
04661              48.00     8000.00
04662             -38.00     8000.00
04663             -50.00     8000.00
04664             -10.00     8400.00
04665             -34.00     8400.00
04666              18.00     8800.00
04667             -22.00     8800.00
04668             -54.00     8800.00
04669             -18.00     9000.00
04670              16.00     9200.00
04671             -30.00     9200.00
04672             -14.00     9400.00
04673             -42.00     9600.00
04674             -48.00     9600.00
04675              10.00     9800.00
04676             -14.00     9800.00
04677             -22.00    10000.00
04678             -26.00    10200.00
04679             -46.00    10200.00
04680             -40.00    10400.00
04681               8.00    10400.00
04682              -6.00    10400.00
04683             -26.00    10600.00
04684             -32.00    10800.00
04685             -54.00    10800.00
04686             -28.00    11200.00
04687               0.00    11000.00
04688             -16.00    11200.00
04689             -24.00    11200.00
04690             -26.00    11200.00
04691             -42.00    11400.00
04692             -24.00    11400.00
04693             -24.00    11600.00
04694             -34.00    11800.00
04695             -16.00    11800.00
04696             -14.00    11800.00
04697             -30.00    11800.00
04698             -30.00    11800.00
04699             -30.00    12000.00
04700             -32.00    12000.00
04701             -16.00    12000.00
04702             -18.00    12000.00
04703             -26.00    12200.00
04704             -24.00    12200.00
04705             -34.00    12200.00
04706             -32.00    12200.00
04707             -18.00    12200.00
04708             -24.00    12200.00
04709             -26.00    12000.00
04710             -20.00    12200.00
04711             -26.00    12200.00
04712             -26.00    12200.00
04713             -26.00    12200.00
04714             -32.00    12200.00
04715             -26.00    12400.00
04716             -18.00    12200.00
04717             -24.00    12200.00
04718             -28.00    12400.00
04719             -32.00    12200.00
04720             -32.00    12200.00
04721             -22.00    12200.00
04722             -20.00    12200.00
04723             -26.00    12200.00
04724             -30.00    12000.00
04725             -30.00    12000.00
04726             -30.00    12000.00
04727             -22.00    12000.00
04728             -22.00    12000.00
04729             -26.00    12000.00
04730             -24.00    11800.00
04731             -30.00    11800.00
04732             -32.00    11800.00
04733             -26.00    11800.00
04734             -22.00    11600.00
04735             -16.00    11800.00
04736             -18.00    11600.00
04737             -28.00    11400.00
04738             -30.00    11400.00
04739             -30.00    11200.00
04740             -26.00    11200.00
04741             -22.00    11200.00
04742             -18.00    11200.00
04743             -24.00    10800.00
04744             -28.00    10800.00
04745             -30.00    10600.00
04746             -30.00    10600.00
04747             -24.00    10400.00
04748             -20.00    10400.00
04749             -18.00    10400.00
04750             -18.00    10200.00
04751             -26.00    10000.00
04752             -32.00     9800.00
04753             -32.00     9800.00
04754             -24.00     9800.00
04755             -16.00     9600.00
04756             -16.00     9400.00
04757             -22.00     9600.00
04758             -26.00     9200.00
04759             -26.00     9200.00
04760             -24.00     9000.00
04761             -22.00     8800.00
04762             -18.00     8800.00
04763             -16.00     8400.00
04764             -18.00     8400.00
04765             -22.00     8200.00
04766             -24.00     8200.00
04767             -22.00     8000.00
04768             -18.00     7800.00
04769             -18.00     7800.00
04770             -14.00     7600.00
04771             -16.00     7400.00
04772             -24.00     7200.00
04773             -20.00     7200.00
04774             -18.00     7200.00
04775             -16.00     6600.00
04776             -16.00     6600.00
04777             -12.00     6400.00
04778             -16.00     6400.00
04779             -14.00     6200.00
04780             -18.00     6000.00
04781             -14.00     5800.00
04782             -12.00     5600.00
04783             -10.00     5400.00
04784             -16.00     5200.00
04785             -16.00     5000.00
04786             -18.00     4800.00
04787             -12.00     4400.00
04788              -8.00     4400.00
04789              -8.00     4200.00
04790             -10.00     4200.00
04791             -12.00     4000.00
04792             -16.00     3600.00
04793             -12.00     3600.00
04794             -10.00     3400.00
04795              -8.00     3200.00
04796              -8.00     3000.00
04797              -8.00     2800.00
04798             -12.00     2600.00
04799             -10.00     2400.00
04800             -10.00     2000.00
04801              -8.00     2000.00
04802              -2.00     1800.00
04803              -6.00     1800.00
04804              -8.00     1600.00
04805             -10.00     1200.00
04806             -10.00     1000.00
04807              -8.00      800.00
04808               0.00      800.00
04809              -2.00      400.00
04810              -2.00      200.00
04811              -2.00      200.00
04812               0.00     -200.00
04813              26.00     -400.00
04814              22.00     -600.00
04815             -10.00     -600.00
04816             -24.00     -800.00
04817               0.00    -1000.00
04818              18.00    -1200.00
04819              32.00    -1400.00
04820             144.00    -1400.00
04821             246.00    -2000.00
04822            -102.00    -2400.00
04823            -254.00    -2400.00
04824            -254.00    -2400.00
04825             142.00    -2600.00
04826             246.00    -2400.00
04827             246.00    -3000.00
04828            -184.00    -3400.00
04829            -254.00    -3200.00
04830             230.00    -3800.00
04831             198.00    -3600.00
04832              16.00    -3600.00
04833             -64.00    -4200.00
04834            -152.00    -4000.00
04835             170.00    -4600.00
04836              90.00    -4600.00
04837            -102.00    -4800.00
04838            -110.00    -5000.00
04839              14.00    -4800.00
04840             206.00    -5400.00
04841             -10.00    -5200.00
04842             -68.00    -5800.00
04843             -64.00    -6000.00
04844              22.00    -5800.00
04845             150.00    -6400.00
04846             -26.00    -6200.00
04847             -48.00    -6600.00
04848              -6.00    -6800.00
04849              54.00    -6800.00
04850              32.00    -7200.00
04851             -26.00    -7000.00
04852              10.00    -7400.00
04853              14.00    -7600.00
04854              54.00    -7600.00
04855               0.00    -7800.00
04856             -26.00    -7800.00
04857              34.00    -8200.00
04858              22.00    -8200.00
04859              10.00    -8400.00
04860               6.00    -8600.00
04861               2.00    -8800.00
04862              30.00    -8800.00
04863              30.00    -8800.00
04864               6.00    -9200.00
04865               4.00    -9200.00
04866              20.00    -9400.00
04867              18.00    -9400.00
04868              18.00    -9600.00
04869              22.00    -9600.00
04870               6.00    -9800.00
04871              16.00    -9800.00
04872              14.00   -10000.00
04873               4.00   -10200.00
04874              30.00   -10200.00
04875              30.00   -10200.00
04876              14.00   -10400.00
04877               8.00   -10600.00
04878               6.00   -10800.00
04879              14.00   -10800.00
04880              30.00   -10800.00
04881              24.00   -10800.00
04882              14.00   -10800.00
04883              18.00   -11000.00
04884              16.00   -11200.00
04885              14.00   -11200.00
04886              22.00   -11200.00
04887              18.00   -11200.00
04888              22.00   -11200.00
04889              24.00   -11400.00
04890              12.00   -11400.00
04891              14.00   -11600.00
04892              20.00   -11600.00
04893              22.00   -11600.00
04894              22.00   -11800.00
04895              24.00   -11600.00
04896              16.00   -11800.00
04897              14.00   -11600.00
04898              16.00   -11600.00
04899              16.00   -11800.00
04900              24.00   -11800.00
04901              30.00   -11800.00
04902              22.00   -12000.00
04903              22.00   -11800.00
04904              16.00   -11800.00
04905              14.00   -12000.00
04906              22.00   -11800.00
04907              24.00   -11600.00
04908              26.00   -12000.00
04909              24.00   -11800.00
04910              16.00   -11800.00
04911              16.00   -11800.00
04912              18.00   -11800.00
04913              22.00   -11800.00
04914              24.00   -11800.00
04915              30.00   -11800.00
04916              22.00   -11600.00
04917              16.00   -11600.00
04918              16.00   -11600.00
04919              16.00   -11600.00
04920              22.00   -11600.00
04921              26.00   -11600.00
04922              24.00   -11600.00
04923              18.00   -11400.00
04924              16.00   -11400.00
04925              16.00   -11200.00
04926              18.00   -11200.00
04927              22.00   -11200.00
04928              24.00   -11000.00
04929              22.00   -11000.00
04930              18.00   -10800.00
04931              14.00   -11000.00
04932              16.00   -10800.00
04933              16.00   -10800.00
04934              22.00   -10800.00
04935              18.00   -10400.00
04936              18.00   -10400.00
04937              16.00   -10200.00
04938              14.00   -10200.00
04939              14.00   -10200.00
04940              18.00   -10000.00
04941              18.00   -10000.00
04942              18.00    -9800.00
04943              16.00    -9600.00
04944              12.00    -9600.00
04945              10.00    -9600.00
04946              16.00    -9200.00
04947              16.00    -9200.00
04948              16.00    -9200.00
04949              16.00    -9000.00
04950              14.00    -9000.00
04951               8.00    -8800.00
04952              14.00    -8600.00
04953              14.00    -8600.00
04954              16.00    -8200.00
04955              14.00    -8000.00
04956              14.00    -8000.00
04957               8.00    -7800.00
04958              10.00    -7800.00
04959              14.00    -7400.00
04960              14.00    -7400.00
04961              14.00    -7400.00
04962              14.00    -7000.00
04963              10.00    -7000.00
04964               8.00    -6800.00
04965               8.00    -6800.00
04966               8.00    -6400.00
04967              10.00    -6400.00
04968              14.00    -6200.00
04969              10.00    -6000.00
04970              10.00    -5800.00
04971               6.00    -5600.00
04972               6.00    -5400.00
04973               8.00    -5200.00
04974               8.00    -5200.00
04975              10.00    -4800.00
04976               8.00    -4800.00
04977               6.00    -4600.00
04978               2.00    -4400.00
04979               6.00    -4400.00
04980               8.00    -4000.00
04981               8.00    -3800.00
04982               8.00    -3800.00
04983               2.00    -3600.00
04984               2.00    -3200.00
04985               2.00    -3000.00
04986               2.00    -2800.00
04987               2.00    -2600.00
04988               6.00    -2400.00
04989               6.00    -2400.00
04990               0.00    -2200.00
04991              -2.00    -2000.00
04992               0.00    -1800.00
04993               0.00    -1600.00
04994               2.00    -1400.00
04995               2.00    -1000.00
04996               0.00     -800.00
04997              -2.00     -800.00
04998              -2.00     -600.00
04999              -2.00     -400.00
05000              -2.00     -200.00
