Unit:(mV)
                     CH1         CH2
Frequency              ? 260.905 kHz
00001               6.00    -3400.00
00002               6.00    -3200.00
00003               2.00    -3000.00
00004              -6.00    -2800.00
00005               0.00    -2800.00
00006              10.00    -2400.00
00007               8.00    -2200.00
00008               0.00    -2000.00
00009              -8.00    -2000.00
00010              -6.00    -1600.00
00011               0.00    -1400.00
00012               6.00    -1400.00
00013               6.00    -1000.00
00014               0.00     -800.00
00015              -8.00     -800.00
00016              -8.00     -600.00
00017               0.00     -200.00
00018               2.00        0.00
00019               0.00      200.00
00020               2.00      200.00
00021               6.00      400.00
00022              24.00      600.00
00023              22.00      800.00
00024              -2.00     1000.00
00025             -14.00     1200.00
00026               0.00     1400.00
00027              16.00     1600.00
00028              58.00     1800.00
00029             246.00     2000.00
00030             174.00     2400.00
00031            -254.00     2400.00
00032            -254.00     2600.00
00033             -74.00     2800.00
00034             190.00     3000.00
00035             246.00     3400.00
00036              -2.00     3400.00
00037            -254.00     3200.00
00038             200.00     3800.00
00039             182.00     4000.00
00040            -128.00     4000.00
00041              92.00     4400.00
00042            -160.00     4400.00
00043             118.00     4600.00
00044              88.00     4800.00
00045            -232.00     5400.00
00046              10.00     5000.00
00047              22.00     5600.00
00048              58.00     5600.00
00049              -6.00     5600.00
00050             -46.00     6000.00
00051             -46.00     5800.00
00052             -16.00     6400.00
00053             102.00     6600.00
00054            -106.00     6400.00
00055             -22.00     7000.00
00056              26.00     6800.00
00057             -32.00     7200.00
00058              16.00     7400.00
00059             -64.00     7600.00
00060             -22.00     7600.00
00061              22.00     7600.00
00062              10.00     8000.00
00063             -56.00     8000.00
00064             -24.00     8200.00
00065             -14.00     8400.00
00066             -22.00     8400.00
00067              -6.00     8800.00
00068             -40.00     8800.00
00069             -30.00     9000.00
00070             -10.00     9200.00
00071              -8.00     9400.00
00072             -34.00     9600.00
00073             -14.00     9600.00
00074             -42.00     9600.00
00075             -26.00     9600.00
00076             -10.00    10000.00
00077             -26.00    10000.00
00078             -16.00    10000.00
00079             -30.00    10200.00
00080             -46.00    10200.00
00081             -34.00    10400.00
00082             -10.00    10600.00
00083             -18.00    10600.00
00084             -24.00    10800.00
00085             -38.00    10800.00
00086             -48.00    11000.00
00087             -30.00    10800.00
00088             -24.00    11200.00
00089             -26.00    11000.00
00090             -26.00    11400.00
00091             -34.00    11200.00
00092             -40.00    11600.00
00093             -28.00    11400.00
00094             -38.00    11600.00
00095             -34.00    11800.00
00096             -28.00    11600.00
00097             -38.00    11800.00
00098             -40.00    11800.00
00099             -40.00    12000.00
00100             -42.00    12000.00
00101             -46.00    12000.00
00102             -34.00    12000.00
00103             -38.00    12200.00
00104             -40.00    12200.00
00105             -42.00    12200.00
00106             -50.00    12200.00
00107             -48.00    12200.00
00108             -50.00    12200.00
00109             -48.00    12200.00
00110             -42.00    12400.00
00111             -46.00    12200.00
00112             -58.00    12200.00
00113             -64.00    12400.00
00114             -58.00    12200.00
00115             -54.00    12400.00
00116             -54.00    12400.00
00117             -58.00    12400.00
00118             -70.00    12400.00
00119             -74.00    12200.00
00120             -82.00    12400.00
00121             -80.00    12200.00
00122             -78.00    12200.00
00123             -78.00    12200.00
00124             -82.00    12200.00
00125             -88.00    12200.00
00126             -90.00    12200.00
00127             -92.00    12200.00
00128             -88.00    12000.00
00129             -86.00    12000.00
00130             -80.00    12000.00
00131             -72.00    12000.00
00132             -74.00    11800.00
00133             -86.00    11800.00
00134             -80.00    11800.00
00135             -66.00    11800.00
00136             -58.00    11600.00
00137             -54.00    11600.00
00138             -58.00    11600.00
00139             -64.00    11400.00
00140             -58.00    11400.00
00141             -54.00    11200.00
00142             -46.00    11200.00
00143             -42.00    11200.00
00144             -40.00    10800.00
00145             -46.00    10800.00
00146             -46.00    10800.00
00147             -48.00    10600.00
00148             -40.00    10800.00
00149             -32.00    10400.00
00150             -32.00    10400.00
00151             -34.00    10200.00
00152             -38.00    10000.00
00153             -40.00    10000.00
00154             -36.00     9800.00
00155             -32.00     9800.00
00156             -24.00     9800.00
00157             -18.00     9600.00
00158             -28.00     9600.00
00159             -32.00     9200.00
00160             -32.00     9200.00
00161             -26.00     9000.00
00162             -22.00     8800.00
00163             -22.00     8800.00
00164             -24.00     8600.00
00165             -26.00     8400.00
00166             -26.00     8200.00
00167             -26.00     8200.00
00168             -18.00     8000.00
00169             -18.00     7800.00
00170             -22.00     7800.00
00171             -22.00     7600.00
00172             -18.00     7400.00
00173             -22.00     7200.00
00174             -18.00     7200.00
00175             -22.00     6800.00
00176             -16.00     6800.00
00177             -14.00     6600.00
00178             -14.00     6400.00
00179             -16.00     6400.00
00180             -18.00     6000.00
00181             -18.00     5800.00
00182             -16.00     5800.00
00183             -10.00     5600.00
00184             -10.00     5400.00
00185             -14.00     5200.00
00186             -18.00     5000.00
00187             -20.00     4800.00
00188             -14.00     4600.00
00189              -6.00     4400.00
00190             -10.00     4200.00
00191             -10.00     4000.00
00192             -14.00     4000.00
00193             -16.00     3600.00
00194             -14.00     3400.00
00195             -10.00     3200.00
00196              -8.00     3000.00
00197              -8.00     2800.00
00198              -8.00     2600.00
00199             -14.00     2400.00
00200             -14.00     2400.00
00201             -10.00     2000.00
00202              -8.00     2000.00
00203              -4.00     1800.00
00204              -6.00     1600.00
00205             -10.00     1200.00
00206             -10.00     1200.00
00207             -10.00      800.00
00208              -6.00      800.00
00209              -2.00      600.00
00210              -2.00      400.00
00211              -2.00      200.00
00212              -2.00        0.00
00213              10.00        0.00
00214              30.00     -400.00
00215              14.00     -600.00
00216             -18.00     -800.00
00217             -14.00     -800.00
00218              10.00    -1000.00
00219              16.00    -1200.00
00220              46.00    -1400.00
00221             202.00    -1600.00
00222             224.00    -2200.00
00223            -240.00    -2400.00
00224            -254.00    -2400.00
00225            -104.00    -2400.00
00226             126.00    -2600.00
00227             160.00    -2600.00
00228             246.00    -3000.00
00229            -206.00    -3200.00
00230            -242.00    -3200.00
00231             238.00    -4000.00
00232              26.00    -3600.00
00233             -10.00    -3800.00
00234             -30.00    -4400.00
00235              -8.00    -4000.00
00236             136.00    -4800.00
00237             -72.00    -4600.00
00238             -64.00    -4800.00
00239             -26.00    -5200.00
00240              54.00    -5200.00
00241             120.00    -5600.00
00242             -68.00    -5400.00
00243             -26.00    -6000.00
00244              -2.00    -5800.00
00245              48.00    -6200.00
00246              56.00    -6600.00
00247             -40.00    -6400.00
00248              16.00    -6800.00
00249               8.00    -6800.00
00250              38.00    -7000.00
00251             -10.00    -7200.00
00252             -14.00    -7200.00
00253              42.00    -7600.00
00254              16.00    -7600.00
00255              30.00    -7800.00
00256              -8.00    -7800.00
00257               0.00    -8200.00
00258              38.00    -8400.00
00259              14.00    -8400.00
00260              -4.00    -8600.00
00261              14.00    -8800.00
00262              26.00    -8800.00
00263              22.00    -9000.00
00264              18.00    -9000.00
00265               8.00    -9400.00
00266               8.00    -9400.00
00267              30.00    -9400.00
00268              22.00    -9600.00
00269              14.00    -9600.00
00270              28.00    -9800.00
00271              14.00   -10000.00
00272              16.00   -10000.00
00273              20.00   -10200.00
00274              16.00   -10200.00
00275              34.00   -10200.00
00276              38.00   -10400.00
00277              16.00   -10600.00
00278              10.00   -10800.00
00279              18.00   -10800.00
00280              24.00   -10800.00
00281              36.00   -10800.00
00282              38.00   -11000.00
00283              22.00   -11000.00
00284              30.00   -11000.00
00285              30.00   -11200.00
00286              24.00   -11200.00
00287              34.00   -11200.00
00288              32.00   -11600.00
00289              36.00   -11600.00
00290              40.00   -11400.00
00291              30.00   -11600.00
00292              26.00   -11600.00
00293              34.00   -11800.00
00294              38.00   -11800.00
00295              42.00   -11800.00
00296              46.00   -11800.00
00297              36.00   -11800.00
00298              38.00   -11800.00
00299              38.00   -11800.00
00300              38.00   -12000.00
00301              52.00   -11800.00
00302              54.00   -11800.00
00303              50.00   -11800.00
00304              48.00   -11800.00
00305              44.00   -11800.00
00306              48.00   -12000.00
00307              62.00   -12000.00
00308              62.00   -12000.00
00309              64.00   -12000.00
00310              64.00   -12000.00
00311              66.00   -12000.00
00312              66.00   -12000.00
00313              72.00   -11800.00
00314              78.00   -12000.00
00315              86.00   -11800.00
00316              86.00   -11800.00
00317              80.00   -12000.00
00318              80.00   -11800.00
00319              80.00   -11800.00
00320              78.00   -11600.00
00321              82.00   -11800.00
00322              82.00   -11600.00
00323              74.00   -11600.00
00324              70.00   -11600.00
00325              62.00   -11600.00
00326              60.00   -11400.00
00327              56.00   -11400.00
00328              62.00   -11200.00
00329              58.00   -11200.00
00330              52.00   -11200.00
00331              42.00   -11000.00
00332              46.00   -11200.00
00333              42.00   -11000.00
00334              38.00   -10800.00
00335              38.00   -10800.00
00336              40.00   -10800.00
00337              38.00   -10600.00
00338              30.00   -10400.00
00339              26.00   -10400.00
00340              28.00   -10200.00
00341              30.00   -10000.00
00342              32.00   -10000.00
00343              32.00   -10000.00
00344              26.00    -9600.00
00345              18.00    -9600.00
00346              18.00    -9600.00
00347              22.00    -9400.00
00348              30.00    -9400.00
00349              24.00    -9200.00
00350              18.00    -9000.00
00351              16.00    -9000.00
00352              14.00    -8800.00
00353              16.00    -8600.00
00354              18.00    -8400.00
00355              24.00    -8400.00
00356              24.00    -8200.00
00357              16.00    -8200.00
00358              10.00    -8000.00
00359               8.00    -7800.00
00360              10.00    -7400.00
00361              18.00    -7400.00
00362              18.00    -7200.00
00363              18.00    -7200.00
00364              10.00    -7000.00
00365               8.00    -6800.00
00366               4.00    -6800.00
00367              14.00    -6400.00
00368              18.00    -6400.00
00369              18.00    -6200.00
00370              12.00    -6000.00
00371               2.00    -5800.00
00372               6.00    -5600.00
00373              12.00    -5600.00
00374              14.00    -5200.00
00375              12.00    -5200.00
00376               8.00    -4800.00
00377               8.00    -4800.00
00378               4.00    -4600.00
00379               6.00    -4400.00
00380               4.00    -4200.00
00381               8.00    -3800.00
00382               8.00    -3800.00
00383               8.00    -3600.00
00384               6.00    -3400.00
00385               2.00    -3200.00
00386               0.00    -3000.00
00387               2.00    -2800.00
00388               0.00    -2800.00
00389               6.00    -2600.00
00390               6.00    -2400.00
00391               2.00    -2200.00
00392               0.00    -2000.00
00393              -2.00    -1600.00
00394               0.00    -1600.00
00395               0.00    -1200.00
00396               2.00    -1000.00
00397               0.00     -800.00
00398              -2.00     -800.00
00399              -2.00     -600.00
00400              -4.00     -200.00
00401              -2.00        0.00
00402               0.00      200.00
00403               6.00      200.00
00404               0.00      400.00
00405              16.00      600.00
00406              30.00      800.00
00407               0.00     1000.00
00408             -16.00     1200.00
00409              -4.00     1200.00
00410              10.00     1600.00
00411              38.00     1800.00
00412             216.00     2000.00
00413             246.00     2400.00
00414            -254.00     2400.00
00415            -254.00     2600.00
00416            -192.00     2800.00
00417             102.00     2800.00
00418             246.00     3200.00
00419             246.00     3400.00
00420            -254.00     3200.00
00421             -54.00     3600.00
00422             246.00     4000.00
00423            -144.00     4000.00
00424              78.00     4400.00
00425             -96.00     4400.00
00426             -10.00     4400.00
00427             190.00     4800.00
00428            -206.00     5200.00
00429             -58.00     5200.00
00430              40.00     5400.00
00431              34.00     5800.00
00432              32.00     5600.00
00433             -62.00     5800.00
00434             -30.00     6000.00
00435             -58.00     6000.00
00436             102.00     6600.00
00437             -42.00     6600.00
00438             -80.00     6800.00
00439              48.00     7000.00
00440             -34.00     7000.00
00441              16.00     7400.00
00442             -42.00     7400.00
00443             -42.00     7600.00
00444              16.00     7600.00
00445              22.00     8000.00
00446             -40.00     8000.00
00447             -42.00     8200.00
00448              -2.00     8400.00
00449             -26.00     8400.00
00450              -2.00     8800.00
00451             -34.00     8800.00
00452             -32.00     9000.00
00453             -10.00     9000.00
00454               0.00     9200.00
00455             -30.00     9400.00
00456             -24.00     9600.00
00457             -32.00     9600.00
00458             -38.00     9600.00
00459               0.00     9800.00
00460             -26.00    10000.00
00461             -18.00    10000.00
00462             -26.00    10200.00
00463             -42.00    10200.00
00464             -40.00    10400.00
00465             -10.00    10400.00
00466             -16.00    10600.00
00467             -24.00    10600.00
00468             -32.00    10800.00
00469             -48.00    10800.00
00470             -34.00    11200.00
00471             -22.00    11200.00
00472             -26.00    11200.00
00473             -30.00    11200.00
00474             -34.00    11400.00
00475             -42.00    11400.00
00476             -26.00    11600.00
00477             -32.00    11800.00
00478             -42.00    11600.00
00479             -36.00    11600.00
00480             -36.00    11800.00
00481             -38.00    11800.00
00482             -38.00    12000.00
00483             -42.00    12000.00
00484             -44.00    12000.00
00485             -40.00    12200.00
00486             -40.00    12200.00
00487             -38.00    12200.00
00488             -40.00    12200.00
00489             -50.00    12200.00
00490             -50.00    12400.00
00491             -50.00    12200.00
00492             -48.00    12400.00
00493             -42.00    12200.00
00494             -40.00    12200.00
00495             -56.00    12200.00
00496             -62.00    12400.00
00497             -62.00    12400.00
00498             -58.00    12400.00
00499             -56.00    12400.00
00500             -60.00    12200.00
00501             -64.00    12400.00
00502             -74.00    12400.00
00503             -80.00    12200.00
00504             -82.00    12400.00
00505             -78.00    12200.00
00506             -74.00    12200.00
00507             -78.00    12200.00
00508             -86.00    12200.00
00509             -94.00    12200.00
00510             -96.00    12000.00
00511             -88.00    12000.00
00512             -78.00    12000.00
00513             -74.00    12000.00
00514             -80.00    12000.00
00515             -82.00    12000.00
00516             -88.00    12000.00
00517             -74.00    11800.00
00518             -66.00    11600.00
00519             -58.00    11600.00
00520             -58.00    11600.00
00521             -62.00    11400.00
00522             -64.00    11400.00
00523             -58.00    11400.00
00524             -50.00    11200.00
00525             -48.00    11200.00
00526             -42.00    11200.00
00527             -46.00    11000.00
00528             -48.00    10800.00
00529             -48.00    10800.00
00530             -42.00    10800.00
00531             -38.00    10600.00
00532             -32.00    10600.00
00533             -34.00    10400.00
00534             -38.00    10400.00
00535             -34.00    10200.00
00536             -32.00    10000.00
00537             -32.00    10000.00
00538             -34.00     9800.00
00539             -30.00     9600.00
00540             -26.00     9600.00
00541             -26.00     9400.00
00542             -26.00     9400.00
00543             -30.00     9200.00
00544             -30.00     9000.00
00545             -30.00     9000.00
00546             -26.00     8800.00
00547             -18.00     8800.00
00548             -18.00     8400.00
00549             -24.00     8400.00
00550             -28.00     8200.00
00551             -26.00     8200.00
00552             -18.00     8000.00
00553             -16.00     7600.00
00554             -18.00     7400.00
00555             -18.00     7400.00
00556             -24.00     7200.00
00557             -24.00     7200.00
00558             -24.00     7000.00
00559             -10.00     6800.00
00560             -10.00     6600.00
00561             -16.00     6400.00
00562             -22.00     6200.00
00563             -24.00     6000.00
00564             -18.00     6000.00
00565             -10.00     5800.00
00566             -10.00     5600.00
00567             -14.00     5400.00
00568             -18.00     5200.00
00569             -16.00     5000.00
00570             -16.00     5000.00
00571             -14.00     4600.00
00572             -10.00     4400.00
00573             -10.00     4200.00
00574             -10.00     4000.00
00575             -10.00     4000.00
00576             -14.00     3600.00
00577             -10.00     3400.00
00578             -10.00     3200.00
00579              -8.00     3200.00
00580              -8.00     2800.00
00581             -10.00     2800.00
00582             -10.00     2600.00
00583             -10.00     2400.00
00584             -10.00     2000.00
00585              -8.00     2000.00
00586              -6.00     1800.00
00587              -8.00     1600.00
00588             -10.00     1400.00
00589             -10.00     1200.00
00590              -8.00     1000.00
00591              -8.00      800.00
00592              -6.00      600.00
00593              -6.00      400.00
00594              -2.00      400.00
00595               0.00        0.00
00596               6.00        0.00
00597              30.00     -400.00
00598              16.00     -600.00
00599             -12.00     -800.00
00600             -16.00     -800.00
00601               2.00    -1000.00
00602              16.00    -1200.00
00603              26.00    -1400.00
00604             146.00    -1600.00
00605             246.00    -2000.00
00606             -90.00    -2400.00
00607            -254.00    -2400.00
00608            -236.00    -2400.00
00609             110.00    -2800.00
00610             126.00    -2600.00
00611             246.00    -3000.00
00612             -18.00    -3400.00
00613            -254.00    -3200.00
00614             158.00    -3800.00
00615             122.00    -3800.00
00616             -38.00    -3600.00
00617               6.00    -4400.00
00618             -50.00    -4000.00
00619             130.00    -4600.00
00620              -8.00    -4800.00
00621             -96.00    -4800.00
00622             -18.00    -5200.00
00623               8.00    -5000.00
00624             142.00    -5600.00
00625             -24.00    -5400.00
00626             -56.00    -5600.00
00627              -2.00    -6000.00
00628              20.00    -6000.00
00629              82.00    -6400.00
00630             -24.00    -6200.00
00631              -6.00    -6800.00
00632               4.00    -6800.00
00633              26.00    -6800.00
00634              10.00    -7200.00
00635             -26.00    -7200.00
00636              48.00    -7600.00
00637              22.00    -7600.00
00638              22.00    -7600.00
00639               0.00    -8000.00
00640             -22.00    -8000.00
00641              34.00    -8400.00
00642              32.00    -8200.00
00643               8.00    -8600.00
00644               8.00    -8800.00
00645              14.00    -8800.00
00646              18.00    -8800.00
00647              30.00    -8800.00
00648              26.00    -9400.00
00649               0.00    -9400.00
00650              14.00    -9600.00
00651              24.00    -9400.00
00652              18.00    -9600.00
00653              30.00    -9800.00
00654              16.00   -10000.00
00655               8.00   -10000.00
00656              22.00   -10000.00
00657              18.00   -10200.00
00658              30.00   -10200.00
00659              38.00   -10400.00
00660              18.00   -10600.00
00661               8.00   -10400.00
00662              18.00   -10800.00
00663              20.00   -10800.00
00664              34.00   -11000.00
00665              42.00   -11000.00
00666              24.00   -11000.00
00667              18.00   -11200.00
00668              22.00   -11200.00
00669              24.00   -11200.00
00670              38.00   -11400.00
00671              36.00   -11400.00
00672              26.00   -11600.00
00673              34.00   -11600.00
00674              32.00   -11600.00
00675              32.00   -11800.00
00676              38.00   -11600.00
00677              32.00   -11600.00
00678              34.00   -11800.00
00679              48.00   -11800.00
00680              46.00   -11800.00
00681              38.00   -11800.00
00682              38.00   -12000.00
00683              32.00   -12000.00
00684              44.00   -11800.00
00685              58.00   -12000.00
00686              54.00   -12000.00
00687              46.00   -12000.00
00688              42.00   -12000.00
00689              46.00   -12000.00
00690              58.00   -12000.00
00691              64.00   -12000.00
00692              62.00   -12000.00
00693              64.00   -12000.00
00694              66.00   -11800.00
00695              68.00   -11800.00
00696              72.00   -12000.00
00697              74.00   -11800.00
00698              80.00   -11800.00
00699              88.00   -12000.00
00700              80.00   -11600.00
00701              80.00   -11800.00
00702              78.00   -11800.00
00703              82.00   -11600.00
00704              82.00   -11600.00
00705              80.00   -11600.00
00706              74.00   -11600.00
00707              70.00   -11600.00
00708              64.00   -11600.00
00709              64.00   -11400.00
00710              62.00   -11200.00
00711              64.00   -11200.00
00712              56.00   -11200.00
00713              54.00   -11200.00
00714              46.00   -11000.00
00715              46.00   -11000.00
00716              40.00   -11000.00
00717              46.00   -10800.00
00718              40.00   -10800.00
00719              38.00   -10600.00
00720              34.00   -10400.00
00721              30.00   -10600.00
00722              30.00   -10200.00
00723              32.00   -10200.00
00724              30.00   -10000.00
00725              30.00   -10000.00
00726              30.00   -10000.00
00727              24.00    -9800.00
00728              22.00    -9800.00
00729              22.00    -9400.00
00730              22.00    -9400.00
00731              24.00    -9200.00
00732              24.00    -9200.00
00733              22.00    -9200.00
00734              18.00    -9000.00
00735              16.00    -8800.00
00736              16.00    -8800.00
00737              18.00    -8400.00
00738              22.00    -8400.00
00739              22.00    -8400.00
00740              16.00    -8000.00
00741              10.00    -8000.00
00742              14.00    -7800.00
00743              20.00    -7800.00
00744              18.00    -7400.00
00745              16.00    -7200.00
00746              14.00    -7200.00
00747              14.00    -7000.00
00748              14.00    -7000.00
00749              12.00    -6800.00
00750              10.00    -6600.00
00751              10.00    -6400.00
00752              14.00    -6200.00
00753              14.00    -6000.00
00754              10.00    -5800.00
00755               8.00    -5600.00
00756               6.00    -5600.00
00757               8.00    -5200.00
00758              10.00    -5200.00
00759              14.00    -4800.00
00760               8.00    -4800.00
00761               6.00    -4600.00
00762               2.00    -4400.00
00763               6.00    -4400.00
00764              10.00    -4000.00
00765               8.00    -3800.00
00766               6.00    -3600.00
00767               4.00    -3600.00
00768               2.00    -3200.00
00769               2.00    -3200.00
00770               2.00    -3000.00
00771               6.00    -2800.00
00772               6.00    -2600.00
00773               6.00    -2400.00
00774               0.00    -2200.00
00775               2.00    -2200.00
00776               0.00    -2000.00
00777               2.00    -1600.00
00778               2.00    -1400.00
00779               0.00    -1000.00
00780               0.00    -1000.00
00781               0.00     -800.00
00782              -2.00     -600.00
00783              -6.00     -600.00
00784               0.00     -200.00
00785               0.00        0.00
00786               2.00      200.00
00787               4.00      400.00
00788               8.00      600.00
00789              32.00      800.00
00790              14.00      800.00
00791             -10.00     1000.00
00792             -10.00     1200.00
00793               8.00     1400.00
00794              22.00     1600.00
00795             142.00     1800.00
00796             246.00     2400.00
00797             -80.00     2400.00
00798            -254.00     2400.00
00799            -254.00     2600.00
00800              34.00     2800.00
00801             246.00     3200.00
00802             246.00     3400.00
00803            -254.00     3200.00
00804            -254.00     3600.00
00805             246.00     3600.00
00806             -62.00     4000.00
00807               2.00     4200.00
00808               0.00     4400.00
00809            -120.00     4400.00
00810             224.00     4600.00
00811            -112.00     4800.00
00812            -150.00     5200.00
00813              50.00     5400.00
00814              18.00     5800.00
00815              58.00     5600.00
00816             -52.00     5800.00
00817             -26.00     6000.00
00818             -70.00     6000.00
00819              64.00     6600.00
00820              26.00     6600.00
00821            -120.00     6600.00
00822              48.00     6800.00
00823             -18.00     6800.00
00824              -2.00     7200.00
00825             -18.00     7400.00
00826             -62.00     7600.00
00827               6.00     7600.00
00828              24.00     8000.00
00829             -22.00     8000.00
00830             -58.00     8200.00
00831               2.00     8400.00
00832             -26.00     8400.00
00833              -6.00     8800.00
00834             -20.00     8800.00
00835             -34.00     8800.00
00836             -16.00     9200.00
00837              -2.00     9200.00
00838             -24.00     9200.00
00839             -26.00     9600.00
00840             -16.00     9800.00
00841             -46.00     9600.00
00842             -10.00     9800.00
00843             -24.00    10000.00
00844             -18.00    10000.00
00845             -16.00    10200.00
00846             -40.00    10400.00
00847             -48.00    10400.00
00848             -18.00    10400.00
00849             -10.00    10600.00
00850             -24.00    10600.00
00851             -26.00    10800.00
00852             -48.00    10800.00
00853             -40.00    11200.00
00854             -26.00    11000.00
00855             -26.00    11200.00
00856             -26.00    11200.00
00857             -26.00    11400.00
00858             -40.00    11400.00
00859             -38.00    11400.00
00860             -34.00    11800.00
00861             -42.00    11600.00
00862             -32.00    11800.00
00863             -32.00    11800.00
00864             -40.00    11800.00
00865             -40.00    11800.00
00866             -46.00    12000.00
00867             -48.00    12000.00
00868             -40.00    12000.00
00869             -40.00    12000.00
00870             -40.00    12200.00
00871             -40.00    12200.00
00872             -48.00    12200.00
00873             -56.00    12200.00
00874             -50.00    12200.00
00875             -48.00    12200.00
00876             -46.00    12200.00
00877             -42.00    12400.00
00878             -50.00    12400.00
00879             -62.00    12400.00
00880             -62.00    12400.00
00881             -62.00    12400.00
00882             -58.00    12200.00
00883             -56.00    12200.00
00884             -64.00    12200.00
00885             -70.00    12400.00
00886             -78.00    12400.00
00887             -82.00    12200.00
00888             -80.00    12400.00
00889             -78.00    12400.00
00890             -80.00    12200.00
00891             -86.00    12200.00
00892             -88.00    12200.00
00893             -94.00    12000.00
00894             -90.00    12000.00
00895             -86.00    12000.00
00896             -80.00    12000.00
00897             -74.00    12000.00
00898             -74.00    12000.00
00899             -82.00    12000.00
00900             -80.00    11800.00
00901             -70.00    11800.00
00902             -58.00    11600.00
00903             -56.00    11800.00
00904             -64.00    11600.00
00905             -62.00    11400.00
00906             -58.00    11400.00
00907             -54.00    11400.00
00908             -46.00    11200.00
00909             -42.00    11000.00
00910             -48.00    11000.00
00911             -48.00    10800.00
00912             -42.00    10800.00
00913             -40.00    10600.00
00914             -38.00    10600.00
00915             -40.00    10400.00
00916             -40.00    10400.00
00917             -32.00    10200.00
00918             -30.00    10200.00
00919             -32.00    10000.00
00920             -40.00    10000.00
00921             -42.00     9800.00
00922             -26.00     9800.00
00923             -18.00     9600.00
00924             -22.00     9600.00
00925             -32.00     9200.00
00926             -36.00     9200.00
00927             -34.00     9000.00
00928             -24.00     8800.00
00929             -18.00     8800.00
00930             -22.00     8400.00
00931             -24.00     8600.00
00932             -32.00     8400.00
00933             -30.00     8200.00
00934             -26.00     8000.00
00935             -18.00     8000.00
00936             -16.00     7800.00
00937             -18.00     7600.00
00938             -20.00     7600.00
00939             -24.00     7200.00
00940             -22.00     7200.00
00941             -18.00     7000.00
00942             -16.00     6800.00
00943             -18.00     6600.00
00944             -18.00     6400.00
00945             -18.00     6200.00
00946             -16.00     6000.00
00947             -16.00     6000.00
00948             -16.00     5800.00
00949             -16.00     5600.00
00950             -16.00     5400.00
00951             -14.00     5200.00
00952             -10.00     5000.00
00953             -12.00     4800.00
00954             -16.00     4800.00
00955             -16.00     4600.00
00956             -12.00     4400.00
00957              -6.00     4200.00
00958              -8.00     4000.00
00959             -10.00     3800.00
00960             -16.00     3600.00
00961             -16.00     3400.00
00962             -10.00     3200.00
00963              -4.00     3000.00
00964              -2.00     2800.00
00965             -10.00     2600.00
00966             -12.00     2600.00
00967             -12.00     2000.00
00968              -8.00     2000.00
00969              -2.00     2000.00
00970               0.00     1600.00
00971              -8.00     1600.00
00972             -10.00     1200.00
00973              -8.00     1000.00
00974              -6.00      800.00
00975              -6.00      800.00
00976              -2.00      400.00
00977              -2.00      200.00
00978              -2.00      200.00
00979               0.00        0.00
00980              22.00     -400.00
00981              24.00     -400.00
00982               0.00     -400.00
00983             -18.00     -800.00
00984              -4.00    -1000.00
00985              14.00    -1200.00
00986              22.00    -1400.00
00987              96.00    -1600.00
00988             246.00    -1800.00
00989              58.00    -2400.00
00990            -254.00    -2400.00
00991            -254.00    -2600.00
00992              56.00    -2800.00
00993             122.00    -2600.00
00994             246.00    -2800.00
00995             162.00    -3400.00
00996            -254.00    -3200.00
00997              12.00    -3600.00
00998             216.00    -4000.00
00999             -48.00    -3600.00
01000              18.00    -4400.00
01001             -70.00    -4200.00
01002              80.00    -4400.00
01003              70.00    -4800.00
01004            -102.00    -4800.00
01005             -22.00    -5200.00
01006             -26.00    -5000.00
01007             114.00    -5600.00
01008              36.00    -5600.00
01009             -78.00    -5600.00
01010               6.00    -6000.00
01011               6.00    -5600.00
01012              80.00    -6400.00
01013              -6.00    -6400.00
01014             -30.00    -6400.00
01015              20.00    -6800.00
01016              22.00    -6800.00
01017              34.00    -7200.00
01018             -34.00    -7200.00
01019              16.00    -7600.00
01020              32.00    -7800.00
01021              18.00    -7400.00
01022              24.00    -8000.00
01023             -14.00    -7800.00
01024              22.00    -8400.00
01025              30.00    -8200.00
01026               0.00    -8400.00
01027               4.00    -8600.00
01028              22.00    -8600.00
01029              30.00    -9000.00
01030              20.00    -8800.00
01031              16.00    -9200.00
01032               2.00    -9200.00
01033              18.00    -9400.00
01034              34.00    -9400.00
01035              18.00    -9600.00
01036              18.00    -9600.00
01037              18.00    -9800.00
01038              10.00   -10000.00
01039              26.00   -10200.00
01040              22.00   -10000.00
01041              24.00   -10200.00
01042              38.00   -10400.00
01043              24.00   -10400.00
01044              10.00   -10600.00
01045              18.00   -10800.00
01046              22.00   -10800.00
01047              26.00   -10800.00
01048              38.00   -11000.00
01049              26.00   -11000.00
01050              24.00   -11200.00
01051              30.00   -11200.00
01052              22.00   -11200.00
01053              30.00   -11400.00
01054              32.00   -11400.00
01055              32.00   -11600.00
01056              38.00   -11600.00
01057              32.00   -11600.00
01058              24.00   -11800.00
01059              32.00   -11600.00
01060              38.00   -11800.00
01061              38.00   -11600.00
01062              42.00   -12000.00
01063              40.00   -12000.00
01064              34.00   -11800.00
01065              40.00   -12000.00
01066              36.00   -12000.00
01067              38.00   -12000.00
01068              48.00   -12000.00
01069              50.00   -12000.00
01070              50.00   -12000.00
01071              50.00   -12000.00
01072              46.00   -12000.00
01073              50.00   -12000.00
01074              58.00   -12000.00
01075              62.00   -12000.00
01076              64.00   -12000.00
01077              64.00   -11800.00
01078              64.00   -12000.00
01079              66.00   -12000.00
01080              78.00   -11800.00
01081              82.00   -11800.00
01082              86.00   -11800.00
01083              86.00   -11600.00
01084              80.00   -11800.00
01085              74.00   -11800.00
01086              78.00   -11600.00
01087              78.00   -11600.00
01088              80.00   -11600.00
01089              80.00   -11600.00
01090              74.00   -11400.00
01091              66.00   -11600.00
01092              62.00   -11400.00
01093              58.00   -11200.00
01094              62.00   -11200.00
01095              58.00   -11200.00
01096              54.00   -11200.00
01097              54.00   -11200.00
01098              46.00   -11000.00
01099              40.00   -11000.00
01100              40.00   -10800.00
01101              40.00   -10800.00
01102              42.00   -10800.00
01103              42.00   -10400.00
01104              34.00   -10400.00
01105              30.00   -10200.00
01106              30.00   -10200.00
01107              28.00   -10200.00
01108              30.00   -10000.00
01109              32.00   -10000.00
01110              30.00    -9800.00
01111              22.00    -9800.00
01112              18.00    -9600.00
01113              18.00    -9400.00
01114              24.00    -9200.00
01115              24.00    -9200.00
01116              26.00    -9200.00
01117              22.00    -8800.00
01118              14.00    -8800.00
01119              14.00    -8800.00
01120              18.00    -8600.00
01121              20.00    -8400.00
01122              22.00    -8400.00
01123              16.00    -8200.00
01124              14.00    -8000.00
01125              12.00    -8000.00
01126              16.00    -7800.00
01127              16.00    -7400.00
01128              14.00    -7400.00
01129              16.00    -7200.00
01130              16.00    -7200.00
01131              16.00    -6800.00
01132               8.00    -6800.00
01133               8.00    -6600.00
01134              14.00    -6400.00
01135              14.00    -6200.00
01136              16.00    -6000.00
01137              12.00    -6000.00
01138               8.00    -5800.00
01139               6.00    -5600.00
01140               8.00    -5400.00
01141               8.00    -5200.00
01142              14.00    -5000.00
01143               8.00    -4800.00
01144               6.00    -4800.00
01145               6.00    -4400.00
01146               6.00    -4400.00
01147               8.00    -4000.00
01148              10.00    -3800.00
01149               6.00    -3800.00
01150              10.00    -3600.00
01151               6.00    -3400.00
01152               0.00    -3200.00
01153               2.00    -3000.00
01154               8.00    -2800.00
01155               4.00    -2600.00
01156               6.00    -2400.00
01157               0.00    -2200.00
01158               2.00    -2000.00
01159               6.00    -2000.00
01160               0.00    -1600.00
01161              -2.00    -1600.00
01162               6.00    -1200.00
01163               6.00    -1000.00
01164               2.00     -800.00
01165              -6.00     -600.00
01166              -6.00     -600.00
01167               6.00     -200.00
01168               6.00        0.00
01169              -2.00      200.00
01170               0.00      200.00
01171               6.00      400.00
01172              32.00      800.00
01173              22.00      800.00
01174              -8.00     1000.00
01175             -18.00     1200.00
01176               2.00     1600.00
01177              16.00     1600.00
01178              82.00     1600.00
01179             246.00     2200.00
01180             100.00     2400.00
01181            -254.00     2400.00
01182            -254.00     2600.00
01183             -34.00     2800.00
01184             246.00     2800.00
01185             246.00     3200.00
01186            -166.00     3200.00
01187            -254.00     3400.00
01188             246.00     3800.00
01189              94.00     4000.00
01190             -92.00     4000.00
01191              74.00     4400.00
01192            -166.00     4400.00
01193             168.00     4400.00
01194              22.00     4800.00
01195            -218.00     5200.00
01196              30.00     5400.00
01197              20.00     5600.00
01198              62.00     5600.00
01199             -26.00     5600.00
01200             -40.00     6200.00
01201             -54.00     6000.00
01202              10.00     6400.00
01203              88.00     6400.00
01204            -126.00     6400.00
01205               4.00     6800.00
01206              10.00     6800.00
01207             -24.00     7000.00
01208              10.00     7400.00
01209             -66.00     7400.00
01210             -14.00     7600.00
01211              24.00     7600.00
01212               4.00     8000.00
01213             -62.00     8000.00
01214             -14.00     8400.00
01215             -18.00     8400.00
01216             -14.00     8400.00
01217             -10.00     8800.00
01218             -40.00     8600.00
01219             -24.00     9000.00
01220              -6.00     9200.00
01221             -10.00     9200.00
01222             -34.00     9200.00
01223             -14.00     9600.00
01224             -42.00     9800.00
01225             -16.00     9800.00
01226             -14.00     9800.00
01227             -24.00    10000.00
01228             -14.00    10200.00
01229             -32.00    10400.00
01230             -46.00    10400.00
01231             -26.00    10400.00
01232              -6.00    10600.00
01233             -20.00    10600.00
01234             -24.00    10600.00
01235             -40.00    10800.00
01236             -46.00    10800.00
01237             -30.00    11200.00
01238             -26.00    11000.00
01239             -26.00    11200.00
01240             -24.00    11200.00
01241             -40.00    11400.00
01242             -40.00    11400.00
01243             -34.00    11800.00
01244             -40.00    11600.00
01245             -34.00    11800.00
01246             -26.00    11800.00
01247             -34.00    11800.00
01248             -42.00    12000.00
01249             -42.00    12000.00
01250             -42.00    12000.00
01251             -42.00    12000.00
01252             -38.00    12000.00
01253             -42.00    12000.00
01254             -42.00    12200.00
01255             -40.00    12000.00
01256             -52.00    12200.00
01257             -58.00    12200.00
01258             -54.00    12200.00
01259             -48.00    12200.00
01260             -40.00    12200.00
01261             -48.00    12400.00
01262             -62.00    12200.00
01263             -64.00    12200.00
01264             -62.00    12400.00
01265             -64.00    12200.00
01266             -56.00    12200.00
01267             -56.00    12200.00
01268             -68.00    12200.00
01269             -80.00    12400.00
01270             -86.00    12400.00
01271             -82.00    12200.00
01272             -76.00    12200.00
01273             -78.00    12200.00
01274             -84.00    12200.00
01275             -90.00    12200.00
01276             -94.00    12000.00
01277             -90.00    12000.00
01278             -82.00    12000.00
01279             -80.00    12000.00
01280             -78.00    12000.00
01281             -78.00    12000.00
01282             -82.00    11800.00
01283             -80.00    11800.00
01284             -70.00    11800.00
01285             -64.00    11600.00
01286             -58.00    11800.00
01287             -60.00    11600.00
01288             -58.00    11400.00
01289             -56.00    11400.00
01290             -56.00    11400.00
01291             -50.00    11200.00
01292             -44.00    11200.00
01293             -40.00    11000.00
01294             -42.00    10800.00
01295             -42.00    10800.00
01296             -42.00    10800.00
01297             -42.00    10600.00
01298             -38.00    10600.00
01299             -32.00    10400.00
01300             -30.00    10200.00
01301             -32.00    10000.00
01302             -34.00    10000.00
01303             -40.00    10000.00
01304             -38.00     9800.00
01305             -28.00     9800.00
01306             -24.00     9600.00
01307             -24.00     9600.00
01308             -30.00     9200.00
01309             -32.00     9400.00
01310             -32.00     9200.00
01311             -26.00     9000.00
01312             -24.00     9000.00
01313             -22.00     8600.00
01314             -24.00     8400.00
01315             -30.00     8400.00
01316             -28.00     8200.00
01317             -24.00     8200.00
01318             -18.00     8000.00
01319             -16.00     8000.00
01320             -22.00     7600.00
01321             -20.00     7400.00
01322             -18.00     7400.00
01323             -22.00     7200.00
01324             -24.00     7200.00
01325             -20.00     6800.00
01326             -16.00     6800.00
01327             -14.00     6600.00
01328             -16.00     6400.00
01329             -18.00     6000.00
01330             -18.00     6000.00
01331             -16.00     5800.00
01332             -16.00     5600.00
01333             -10.00     5600.00
01334             -14.00     5400.00
01335             -16.00     5000.00
01336             -22.00     5000.00
01337             -20.00     4800.00
01338             -12.00     4400.00
01339              -6.00     4400.00
01340              -8.00     4200.00
01341             -14.00     4000.00
01342             -16.00     3800.00
01343             -16.00     3600.00
01344             -10.00     3400.00
01345              -8.00     3200.00
01346              -8.00     3200.00
01347              -8.00     2800.00
01348              -8.00     2800.00
01349             -10.00     2600.00
01350             -10.00     2400.00
01351              -8.00     2000.00
01352              -6.00     1800.00
01353              -2.00     1800.00
01354              -6.00     1600.00
01355             -10.00     1200.00
01356             -10.00     1200.00
01357              -8.00     1000.00
01358              -6.00      800.00
01359               0.00      600.00
01360               0.00      400.00
01361               0.00      200.00
01362              -2.00        0.00
01363              16.00     -200.00
01364              32.00     -400.00
01365               8.00     -400.00
01366             -16.00     -800.00
01367              -6.00    -1000.00
01368              10.00    -1200.00
01369              16.00    -1200.00
01370              58.00    -1400.00
01371             230.00    -1600.00
01372             186.00    -2200.00
01373            -254.00    -2400.00
01374            -254.00    -2600.00
01375             -52.00    -2800.00
01376             122.00    -2600.00
01377             196.00    -2600.00
01378             246.00    -3200.00
01379            -254.00    -3200.00
01380            -166.00    -3200.00
01381             246.00    -3800.00
01382             -14.00    -3600.00
01383               6.00    -4000.00
01384             -42.00    -4400.00
01385              16.00    -4200.00
01386             118.00    -4800.00
01387             -90.00    -4600.00
01388             -46.00    -5200.00
01389             -30.00    -5000.00
01390              72.00    -5400.00
01391              92.00    -5600.00
01392             -78.00    -5400.00
01393              -6.00    -6000.00
01394               2.00    -6000.00
01395              56.00    -6200.00
01396              26.00    -6400.00
01397             -46.00    -6200.00
01398              18.00    -6800.00
01399              16.00    -6800.00
01400              46.00    -7000.00
01401             -24.00    -7200.00
01402             -18.00    -7400.00
01403              32.00    -7600.00
01404              24.00    -7400.00
01405              50.00    -8000.00
01406              -6.00    -7800.00
01407             -10.00    -8200.00
01408              22.00    -8400.00
01409               8.00    -8400.00
01410              14.00    -8800.00
01411              26.00    -8600.00
01412              22.00    -8800.00
01413              16.00    -8800.00
01414              16.00    -9200.00
01415              14.00    -9200.00
01416              14.00    -9400.00
01417              30.00    -9600.00
01418              18.00    -9600.00
01419              16.00    -9800.00
01420              26.00    -9800.00
01421              10.00   -10000.00
01422              22.00   -10000.00
01423              22.00   -10000.00
01424              22.00   -10400.00
01425              38.00   -10400.00
01426              32.00   -10400.00
01427              14.00   -10400.00
01428              14.00   -10800.00
01429              22.00   -10800.00
01430              26.00   -10800.00
01431              36.00   -11000.00
01432              30.00   -10800.00
01433              22.00   -11000.00
01434              32.00   -11200.00
01435              26.00   -11200.00
01436              24.00   -11200.00
01437              30.00   -11200.00
01438              30.00   -11600.00
01439              40.00   -11600.00
01440              42.00   -11400.00
01441              24.00   -11600.00
01442              26.00   -11800.00
01443              32.00   -11800.00
01444              32.00   -11600.00
01445              40.00   -11800.00
01446              40.00   -12000.00
01447              38.00   -11800.00
01448              38.00   -12000.00
01449              40.00   -12000.00
01450              40.00   -12000.00
01451              46.00   -12000.00
01452              48.00   -12000.00
01453              48.00   -12000.00
01454              48.00   -11800.00
01455              48.00   -12000.00
01456              48.00   -12000.00
01457              54.00   -12000.00
01458              60.00   -12000.00
01459              64.00   -11800.00
01460              68.00   -12000.00
01461              66.00   -12000.00
01462              66.00   -11800.00
01463              72.00   -11800.00
01464              80.00   -12000.00
01465              80.00   -11800.00
01466              86.00   -11800.00
01467              82.00   -12000.00
01468              78.00   -11800.00
01469              78.00   -11800.00
01470              78.00   -11600.00
01471              82.00   -11600.00
01472              86.00   -11600.00
01473              74.00   -11600.00
01474              64.00   -11600.00
01475              64.00   -11400.00
01476              62.00   -11400.00
01477              62.00   -11200.00
01478              62.00   -11200.00
01479              58.00   -11200.00
01480              52.00   -11000.00
01481              46.00   -11000.00
01482              38.00   -11000.00
01483              42.00   -10800.00
01484              46.00   -10800.00
01485              42.00   -10800.00
01486              40.00   -10600.00
01487              32.00   -10400.00
01488              32.00   -10400.00
01489              32.00   -10200.00
01490              24.00   -10200.00
01491              30.00   -10000.00
01492              32.00   -10000.00
01493              32.00   -10000.00
01494              24.00    -9600.00
01495              18.00    -9600.00
01496              22.00    -9600.00
01497              30.00    -9400.00
01498              26.00    -9200.00
01499              22.00    -9200.00
01500              20.00    -9000.00
01501              16.00    -8800.00
01502              16.00    -8800.00
01503              16.00    -8600.00
01504              16.00    -8400.00
01505              22.00    -8400.00
01506              22.00    -8200.00
01507              14.00    -8000.00
01508              12.00    -7800.00
01509              14.00    -7800.00
01510              14.00    -7400.00
01511              16.00    -7600.00
01512              14.00    -7200.00
01513              16.00    -7000.00
01514              14.00    -7000.00
01515               6.00    -6800.00
01516              10.00    -6800.00
01517              14.00    -6600.00
01518              16.00    -6400.00
01519              12.00    -6200.00
01520               6.00    -6000.00
01521               8.00    -5600.00
01522              10.00    -5600.00
01523               8.00    -5600.00
01524               8.00    -5200.00
01525               8.00    -5200.00
01526              14.00    -5000.00
01527               8.00    -4800.00
01528               6.00    -4600.00
01529               2.00    -4400.00
01530               6.00    -4200.00
01531              10.00    -4000.00
01532               8.00    -3800.00
01533               6.00    -3600.00
01534               0.00    -3200.00
01535               0.00    -3200.00
01536               0.00    -3000.00
01537               4.00    -2800.00
01538               8.00    -2600.00
01539               8.00    -2400.00
01540               2.00    -2200.00
01541              -2.00    -2200.00
01542              -2.00    -2000.00
01543               2.00    -1600.00
01544               6.00    -1600.00
01545               0.00    -1200.00
01546               0.00    -1000.00
01547               0.00    -1000.00
01548              -2.00     -800.00
01549               0.00     -600.00
01550               0.00     -200.00
01551               0.00        0.00
01552               0.00        0.00
01553               2.00      200.00
01554               2.00      400.00
01555              24.00      600.00
01556              32.00      800.00
01557               0.00     1200.00
01558             -16.00     1200.00
01559              -2.00     1200.00
01560              16.00     1600.00
01561              42.00     1800.00
01562             246.00     2000.00
01563             240.00     2400.00
01564            -254.00     2400.00
01565            -254.00     2600.00
01566            -128.00     2600.00
01567             136.00     2800.00
01568             246.00     3200.00
01569             170.00     3400.00
01570            -254.00     3200.00
01571              84.00     3600.00
01572             246.00     4000.00
01573            -160.00     4000.00
01574              82.00     4400.00
01575            -130.00     4400.00
01576              64.00     4400.00
01577             154.00     4800.00
01578            -238.00     5000.00
01579             -32.00     5400.00
01580              32.00     5400.00
01581              54.00     5600.00
01582              10.00     5600.00
01583             -64.00     6000.00
01584             -40.00     6000.00
01585             -38.00     6000.00
01586             112.00     6600.00
01587             -84.00     6400.00
01588             -60.00     6800.00
01589              40.00     6800.00
01590             -34.00     7000.00
01591              22.00     7200.00
01592             -56.00     7400.00
01593             -40.00     7600.00
01594              18.00     7600.00
01595              20.00     8000.00
01596             -50.00     8000.00
01597             -32.00     8200.00
01598              -8.00     8400.00
01599             -24.00     8200.00
01600               0.00     8800.00
01601             -38.00     8800.00
01602             -32.00     9000.00
01603             -10.00     9200.00
01604               0.00     9200.00
01605             -34.00     9600.00
01606             -14.00     9600.00
01607             -34.00     9600.00
01608             -32.00     9600.00
01609              -4.00     9800.00
01610             -30.00    10000.00
01611             -16.00    10000.00
01612             -24.00    10200.00
01613             -42.00    10400.00
01614             -38.00    10400.00
01615              -6.00    10400.00
01616             -16.00    10600.00
01617             -24.00    10800.00
01618             -32.00    10800.00
01619             -48.00    10800.00
01620             -34.00    10800.00
01621             -24.00    11200.00
01622             -24.00    11200.00
01623             -24.00    11400.00
01624             -32.00    11400.00
01625             -42.00    11600.00
01626             -34.00    11600.00
01627             -38.00    11600.00
01628             -36.00    11600.00
01629             -26.00    11800.00
01630             -34.00    11800.00
01631             -44.00    11800.00
01632             -42.00    12000.00
01633             -44.00    12000.00
01634             -46.00    12000.00
01635             -38.00    12000.00
01636             -40.00    12000.00
01637             -40.00    12200.00
01638             -42.00    12200.00
01639             -54.00    12200.00
01640             -54.00    12200.00
01641             -48.00    12200.00
01642             -46.00    12200.00
01643             -44.00    12400.00
01644             -48.00    12400.00
01645             -58.00    12200.00
01646             -62.00    12400.00
01647             -62.00    12400.00
01648             -62.00    12200.00
01649             -58.00    12200.00
01650             -58.00    12200.00
01651             -66.00    12200.00
01652             -78.00    12200.00
01653             -82.00    12200.00
01654             -86.00    12200.00
01655             -80.00    12200.00
01656             -78.00    12200.00
01657             -80.00    12200.00
01658             -88.00    12000.00
01659             -92.00    12200.00
01660             -94.00    12200.00
01661             -88.00    12000.00
01662             -80.00    12000.00
01663             -80.00    12000.00
01664             -80.00    12000.00
01665             -80.00    12000.00
01666             -78.00    11800.00
01667             -74.00    11800.00
01668             -66.00    11600.00
01669             -62.00    11800.00
01670             -58.00    11600.00
01671             -56.00    11600.00
01672             -56.00    11400.00
01673             -56.00    11400.00
01674             -52.00    11200.00
01675             -46.00    11200.00
01676             -42.00    11200.00
01677             -42.00    11000.00
01678             -42.00    10800.00
01679             -42.00    10800.00
01680             -42.00    10600.00
01681             -40.00    10600.00
01682             -34.00    10400.00
01683             -30.00    10400.00
01684             -30.00    10400.00
01685             -34.00    10000.00
01686             -34.00    10000.00
01687             -34.00    10000.00
01688             -30.00     9800.00
01689             -26.00     9600.00
01690             -24.00     9600.00
01691             -26.00     9600.00
01692             -30.00     9200.00
01693             -32.00     9200.00
01694             -30.00     9000.00
01695             -24.00     8800.00
01696             -24.00     8800.00
01697             -24.00     8400.00
01698             -26.00     8400.00
01699             -26.00     8400.00
01700             -26.00     8000.00
01701             -24.00     8000.00
01702             -18.00     7600.00
01703             -16.00     7600.00
01704             -18.00     7600.00
01705             -22.00     7400.00
01706             -26.00     7200.00
01707             -22.00     7000.00
01708             -18.00     6800.00
01709             -16.00     6600.00
01710             -16.00     6600.00
01711             -18.00     6400.00
01712             -22.00     6200.00
01713             -18.00     6000.00
01714             -16.00     5800.00
01715             -16.00     5600.00
01716             -14.00     5600.00
01717             -14.00     5200.00
01718             -16.00     5400.00
01719             -16.00     5000.00
01720             -16.00     4800.00
01721             -14.00     4600.00
01722             -10.00     4400.00
01723              -8.00     4200.00
01724             -14.00     4000.00
01725             -12.00     3800.00
01726             -16.00     3600.00
01727             -14.00     3600.00
01728              -8.00     3200.00
01729             -10.00     3000.00
01730              -8.00     2800.00
01731             -10.00     2800.00
01732             -10.00     2400.00
01733             -10.00     2400.00
01734              -8.00     2200.00
01735              -8.00     2000.00
01736              -6.00     1800.00
01737              -2.00     1600.00
01738              -8.00     1400.00
01739              -8.00     1200.00
01740              -8.00     1000.00
01741              -6.00      800.00
01742              -2.00      600.00
01743               0.00      400.00
01744               0.00      200.00
01745               0.00      200.00
01746              14.00        0.00
01747              30.00     -400.00
01748               0.00     -600.00
01749             -10.00     -600.00
01750             -30.00    -1000.00
01751              16.00    -1000.00
01752             -18.00    -1200.00
01753              44.00    -1400.00
01754             218.00    -1400.00
01755             246.00    -2200.00
01756            -144.00    -2400.00
01757            -254.00    -2400.00
01758            -182.00    -2600.00
01759              86.00    -2400.00
01760             106.00    -2600.00
01761             246.00    -2800.00
01762             -74.00    -3600.00
01763            -254.00    -3000.00
01764             206.00    -4200.00
01765              78.00    -3600.00
01766             -26.00    -3800.00
01767             -16.00    -4400.00
01768             -48.00    -4000.00
01769             138.00    -4800.00
01770             -44.00    -4600.00
01771             -94.00    -5000.00
01772             -34.00    -5200.00
01773              40.00    -5200.00
01774             160.00    -5600.00
01775             -42.00    -5400.00
01776             -56.00    -6000.00
01777               2.00    -6000.00
01778              38.00    -6000.00
01779              54.00    -6400.00
01780             -48.00    -6200.00
01781              -2.00    -6800.00
01782               4.00    -6800.00
01783              42.00    -6800.00
01784              14.00    -7200.00
01785             -10.00    -7200.00
01786              50.00    -7400.00
01787               4.00    -7600.00
01788              10.00    -8000.00
01789              -2.00    -8000.00
01790             -12.00    -8000.00
01791              32.00    -8400.00
01792              22.00    -8200.00
01793              -2.00    -8600.00
01794              16.00    -8600.00
01795              32.00    -8800.00
01796              22.00    -9000.00
01797              24.00    -9000.00
01798              10.00    -9200.00
01799              -2.00    -9400.00
01800              22.00    -9400.00
01801              22.00    -9600.00
01802              14.00    -9600.00
01803              38.00    -9800.00
01804              22.00    -9600.00
01805              14.00   -10000.00
01806              22.00   -10200.00
01807              14.00   -10200.00
01808              32.00   -10400.00
01809              38.00   -10400.00
01810              16.00   -10600.00
01811              14.00   -10800.00
01812              24.00   -10800.00
01813              26.00   -10800.00
01814              32.00   -11000.00
01815              38.00   -11000.00
01816              22.00   -11200.00
01817              26.00   -11200.00
01818              30.00   -11200.00
01819              22.00   -11200.00
01820              32.00   -11400.00
01821              34.00   -11600.00
01822              32.00   -11400.00
01823              38.00   -11600.00
01824              30.00   -11600.00
01825              26.00   -11600.00
01826              38.00   -11600.00
01827              40.00   -11800.00
01828              38.00   -11800.00
01829              42.00   -11800.00
01830              38.00   -11800.00
01831              32.00   -12000.00
01832              40.00   -12000.00
01833              40.00   -11800.00
01834              46.00   -11800.00
01835              54.00   -12000.00
01836              46.00   -12000.00
01837              46.00   -11800.00
01838              50.00   -12000.00
01839              46.00   -12000.00
01840              54.00   -12000.00
01841              58.00   -12000.00
01842              58.00   -12000.00
01843              64.00   -12000.00
01844              70.00   -12000.00
01845              64.00   -12000.00
01846              72.00   -12000.00
01847              76.00   -11800.00
01848              80.00   -11800.00
01849              86.00   -12000.00
01850              82.00   -11800.00
01851              78.00   -11800.00
01852              76.00   -11600.00
01853              78.00   -11800.00
01854              80.00   -11800.00
01855              86.00   -11600.00
01856              78.00   -11600.00
01857              68.00   -11600.00
01858              64.00   -11400.00
01859              62.00   -11600.00
01860              58.00   -11200.00
01861              64.00   -11200.00
01862              58.00   -11200.00
01863              54.00   -11200.00
01864              48.00   -11000.00
01865              42.00   -11200.00
01866              40.00   -11000.00
01867              42.00   -10800.00
01868              42.00   -10800.00
01869              42.00   -10800.00
01870              38.00   -10400.00
01871              32.00   -10400.00
01872              28.00   -10200.00
01873              32.00   -10200.00
01874              32.00   -10000.00
01875              32.00   -10000.00
01876              30.00    -9800.00
01877              26.00    -9600.00
01878              24.00    -9600.00
01879              22.00    -9400.00
01880              22.00    -9400.00
01881              24.00    -9200.00
01882              28.00    -9200.00
01883              28.00    -9000.00
01884              16.00    -8800.00
01885              14.00    -8800.00
01886              22.00    -8600.00
01887              24.00    -8600.00
01888              22.00    -8400.00
01889              18.00    -8200.00
01890              14.00    -8000.00
01891              14.00    -8000.00
01892              22.00    -7800.00
01893              16.00    -7800.00
01894               2.00    -7400.00
01895              10.00    -7400.00
01896              30.00    -7200.00
01897              22.00    -7000.00
01898              -2.00    -7000.00
01899              -8.00    -6800.00
01900              14.00    -6800.00
01901              30.00    -6400.00
01902              14.00    -6200.00
01903               8.00    -6000.00
01904               2.00    -6000.00
01905               0.00    -5600.00
01906               6.00    -5600.00
01907              14.00    -5400.00
01908              18.00    -5200.00
01909               8.00    -4800.00
01910              -2.00    -4800.00
01911               2.00    -4600.00
01912               6.00    -4400.00
01913               0.00    -4000.00
01914               6.00    -4200.00
01915              16.00    -3800.00
01916               6.00    -3800.00
01917              -6.00    -3600.00
01918              -2.00    -3200.00
01919               8.00    -3000.00
01920              12.00    -2800.00
01921               2.00    -2800.00
01922              -2.00    -2400.00
01923               2.00    -2400.00
01924               2.00    -2200.00
01925               0.00    -2000.00
01926               4.00    -1600.00
01927               2.00    -1400.00
01928              -2.00    -1400.00
01929               0.00    -1000.00
01930               6.00    -1000.00
01931               4.00     -800.00
01932               0.00     -600.00
01933              -2.00     -400.00
01934              -6.00     -200.00
01935               0.00        0.00
01936               6.00      200.00
01937               6.00      400.00
01938              16.00      400.00
01939              30.00      800.00
01940               6.00      800.00
01941             -10.00     1200.00
01942              -6.00     1000.00
01943               8.00     1400.00
01944              24.00     1600.00
01945             178.00     1800.00
01946             246.00     2400.00
01947            -166.00     2400.00
01948            -254.00     2600.00
01949            -254.00     2600.00
01950              66.00     2800.00
01951             246.00     3200.00
01952             246.00     3400.00
01953            -254.00     3200.00
01954            -202.00     3600.00
01955             246.00     3800.00
01956            -120.00     4000.00
01957              40.00     4200.00
01958             -44.00     4400.00
01959             -74.00     4600.00
01960             216.00     4400.00
01961            -170.00     5000.00
01962            -110.00     5000.00
01963              50.00     5400.00
01964              26.00     5600.00
01965              50.00     5600.00
01966             -64.00     6000.00
01967             -30.00     6000.00
01968             -68.00     6000.00
01969              86.00     6600.00
01970             -10.00     6400.00
01971            -106.00     6600.00
01972              50.00     6800.00
01973             -34.00     6800.00
01974               8.00     7200.00
01975             -32.00     7400.00
01976             -56.00     7600.00
01977              10.00     7600.00
01978              22.00     8000.00
01979             -32.00     8000.00
01980             -52.00     8000.00
01981               0.00     8400.00
01982             -26.00     8400.00
01983               0.00     8400.00
01984             -30.00     8800.00
01985             -38.00     8800.00
01986             -16.00     9000.00
01987               0.00     9200.00
01988             -26.00     9200.00
01989             -24.00     9600.00
01990             -24.00     9600.00
01991             -42.00     9600.00
01992              -6.00    10000.00
01993             -24.00    10000.00
01994             -20.00    10000.00
01995             -20.00    10400.00
01996             -36.00    10200.00
01997             -42.00    10400.00
01998             -16.00    10400.00
01999             -10.00    10600.00
02000             -24.00    10800.00
02001             -26.00    10800.00
02002             -46.00    10800.00
02003             -38.00    11000.00
02004             -24.00    11200.00
02005             -22.00    11000.00
02006             -26.00    11200.00
02007             -28.00    11400.00
02008             -40.00    11400.00
02009             -34.00    11800.00
02010             -32.00    11600.00
02011             -40.00    11800.00
02012             -26.00    11800.00
02013             -30.00    11600.00
02014             -40.00    12000.00
02015             -42.00    12000.00
02016             -42.00    12000.00
02017             -44.00    12000.00
02018             -38.00    12000.00
02019             -38.00    12200.00
02020             -40.00    12000.00
02021             -40.00    12200.00
02022             -50.00    12200.00
02023             -52.00    12200.00
02024             -48.00    12200.00
02025             -48.00    12200.00
02026             -48.00    12400.00
02027             -46.00    12000.00
02028             -50.00    12200.00
02029             -58.00    12200.00
02030             -62.00    12200.00
02031             -60.00    12200.00
02032             -58.00    12400.00
02033             -58.00    12200.00
02034             -64.00    12400.00
02035             -70.00    12400.00
02036             -80.00    12200.00
02037             -84.00    12200.00
02038             -80.00    12200.00
02039             -78.00    12200.00
02040             -82.00    12200.00
02041             -82.00    12000.00
02042             -88.00    12200.00
02043             -94.00    12200.00
02044             -90.00    12000.00
02045             -86.00    12000.00
02046             -80.00    12000.00
02047             -76.00    12000.00
02048             -80.00    11800.00
02049             -82.00    12000.00
02050             -78.00    11800.00
02051             -72.00    11600.00
02052             -64.00    11800.00
02053             -56.00    11800.00
02054             -58.00    11600.00
02055             -58.00    11400.00
02056             -58.00    11400.00
02057             -56.00    11400.00
02058             -50.00    11200.00
02059             -42.00    11200.00
02060             -42.00    11000.00
02061             -40.00    10800.00
02062             -42.00    10800.00
02063             -46.00    10800.00
02064             -40.00    10600.00
02065             -36.00    10600.00
02066             -30.00    10400.00
02067             -30.00    10200.00
02068             -34.00    10200.00
02069             -38.00    10000.00
02070             -34.00    10000.00
02071             -30.00     9800.00
02072             -26.00     9600.00
02073             -26.00     9600.00
02074             -26.00     9600.00
02075             -30.00     9400.00
02076             -28.00     9200.00
02077             -30.00     9000.00
02078             -26.00     9000.00
02079             -24.00     8800.00
02080             -22.00     8400.00
02081             -24.00     8400.00
02082             -24.00     8200.00
02083             -24.00     8400.00
02084             -26.00     8000.00
02085             -22.00     8000.00
02086             -22.00     7600.00
02087             -18.00     7600.00
02088             -16.00     7400.00
02089             -24.00     7200.00
02090             -24.00     7200.00
02091             -24.00     6800.00
02092             -16.00     6800.00
02093             -16.00     6600.00
02094             -14.00     6400.00
02095             -22.00     6400.00
02096             -22.00     6000.00
02097             -18.00     6000.00
02098             -16.00     5800.00
02099             -14.00     5600.00
02100             -14.00     5600.00
02101             -16.00     5200.00
02102             -18.00     5000.00
02103             -18.00     5000.00
02104             -16.00     4600.00
02105             -14.00     4400.00
02106             -10.00     4200.00
02107             -10.00     4200.00
02108             -14.00     4000.00
02109             -16.00     3600.00
02110             -16.00     3400.00
02111             -10.00     3400.00
02112              -8.00     3200.00
02113              -6.00     3200.00
02114             -10.00     2800.00
02115             -12.00     2600.00
02116             -12.00     2400.00
02117             -10.00     2200.00
02118              -6.00     2000.00
02119              -2.00     1600.00
02120              -8.00     1600.00
02121              -8.00     1400.00
02122              -8.00     1200.00
02123              -8.00     1000.00
02124              -6.00      800.00
02125              -6.00      800.00
02126              -2.00      400.00
02127              -2.00      200.00
02128               0.00      200.00
02129               6.00        0.00
02130              26.00     -400.00
02131              22.00     -400.00
02132              -6.00     -600.00
02133             -18.00     -800.00
02134               0.00    -1000.00
02135              16.00    -1000.00
02136              24.00    -1200.00
02137             118.00    -1400.00
02138             246.00    -2000.00
02139             -10.00    -2400.00
02140            -254.00    -2400.00
02141            -254.00    -2600.00
02142              82.00    -2600.00
02143             118.00    -2800.00
02144             246.00    -2800.00
02145              86.00    -3200.00
02146            -254.00    -3200.00
02147              86.00    -3800.00
02148             168.00    -3600.00
02149             -48.00    -3600.00
02150              16.00    -4400.00
02151             -58.00    -4200.00
02152             112.00    -4400.00
02153              32.00    -4800.00
02154            -106.00    -4800.00
02155             -22.00    -5200.00
02156             -10.00    -5200.00
02157             136.00    -5600.00
02158               8.00    -5400.00
02159             -70.00    -5600.00
02160               0.00    -6200.00
02161               8.00    -6000.00
02162              80.00    -6400.00
02163             -16.00    -6200.00
02164             -16.00    -6600.00
02165              16.00    -6800.00
02166              22.00    -6800.00
02167              24.00    -7200.00
02168             -34.00    -7200.00
02169              30.00    -7600.00
02170              30.00    -7600.00
02171              18.00    -7600.00
02172              14.00    -8000.00
02173             -18.00    -8000.00
02174              30.00    -8400.00
02175              30.00    -8400.00
02176              -2.00    -8600.00
02177               2.00    -8800.00
02178              22.00    -8800.00
02179              26.00    -9000.00
02180              22.00    -9200.00
02181              16.00    -9200.00
02182               6.00    -9400.00
02183              20.00    -9400.00
02184              30.00    -9600.00
02185              12.00    -9600.00
02186              22.00    -9800.00
02187              22.00    -9600.00
02188              12.00   -10000.00
02189              24.00   -10000.00
02190              16.00   -10200.00
02191              26.00   -10200.00
02192              40.00   -10400.00
02193              30.00   -10600.00
02194              14.00   -10400.00
02195              16.00   -10800.00
02196              22.00   -10800.00
02197              30.00   -10800.00
02198              38.00   -10800.00
02199              30.00   -11000.00
02200              26.00   -11200.00
02201              30.00   -11200.00
02202              24.00   -11200.00
02203              32.00   -11200.00
02204              38.00   -11400.00
02205              34.00   -11600.00
02206              38.00   -11600.00
02207              32.00   -11600.00
02208              26.00   -11600.00
02209              38.00   -11600.00
02210              40.00   -11800.00
02211              40.00   -11600.00
02212              46.00   -11600.00
02213              42.00   -11800.00
02214              34.00   -11800.00
02215              40.00   -11800.00
02216              38.00   -12000.00
02217              40.00   -12000.00
02218              50.00   -12000.00
02219              50.00   -11800.00
02220              46.00   -12000.00
02221              48.00   -12000.00
02222              46.00   -11800.00
02223              50.00   -12000.00
02224              58.00   -12000.00
02225              64.00   -12000.00
02226              64.00   -11800.00
02227              66.00   -12000.00
02228              64.00   -12000.00
02229              70.00   -12000.00
02230              80.00   -11800.00
02231              80.00   -12000.00
02232              82.00   -11800.00
02233              82.00   -11800.00
02234              78.00   -11800.00
02235              74.00   -11600.00
02236              78.00   -11600.00
02237              80.00   -11600.00
02238              82.00   -11600.00
02239              78.00   -11600.00
02240              70.00   -11600.00
02241              64.00   -11400.00
02242              62.00   -11600.00
02243              62.00   -11400.00
02244              62.00   -11200.00
02245              62.00   -11200.00
02246              54.00   -11200.00
02247              50.00   -11000.00
02248              46.00   -11000.00
02249              40.00   -11000.00
02250              40.00   -10800.00
02251              44.00   -10800.00
02252              40.00   -10400.00
02253              34.00   -10400.00
02254              38.00   -10400.00
02255              28.00   -10400.00
02256              30.00   -10200.00
02257              30.00   -10000.00
02258              30.00   -10000.00
02259              32.00   -10000.00
02260              30.00    -9800.00
02261              24.00    -9800.00
02262              22.00    -9600.00
02263              22.00    -9400.00
02264              24.00    -9200.00
02265              24.00    -9200.00
02266              26.00    -9200.00
02267              18.00    -8800.00
02268              16.00    -8800.00
02269              16.00    -8600.00
02270              22.00    -8400.00
02271              22.00    -8400.00
02272              16.00    -8400.00
02273              16.00    -8000.00
02274              22.00    -8000.00
02275              16.00    -7800.00
02276              14.00    -7800.00
02277              14.00    -7400.00
02278              16.00    -7400.00
02279              20.00    -7200.00
02280              16.00    -7000.00
02281               8.00    -6800.00
02282              10.00    -6800.00
02283               8.00    -6600.00
02284              10.00    -6400.00
02285              16.00    -6200.00
02286              16.00    -6000.00
02287               8.00    -6000.00
02288               6.00    -5800.00
02289               2.00    -5400.00
02290               6.00    -5600.00
02291              12.00    -5200.00
02292              14.00    -5000.00
02293               8.00    -4800.00
02294               0.00    -4600.00
02295               0.00    -4600.00
02296               6.00    -4400.00
02297               6.00    -4000.00
02298               8.00    -3800.00
02299               6.00    -3800.00
02300               0.00    -3600.00
02301               0.00    -3200.00
02302               0.00    -3200.00
02303               6.00    -3000.00
02304               8.00    -2800.00
02305               2.00    -2600.00
02306              -6.00    -2400.00
02307              -2.00    -2200.00
02308               0.00    -2000.00
02309               2.00    -1800.00
02310               2.00    -1600.00
02311              -2.00    -1400.00
02312              -2.00    -1000.00
02313               0.00    -1000.00
02314               2.00     -800.00
02315               2.00     -600.00
02316               0.00     -400.00
02317              -2.00     -200.00
02318              -2.00        0.00
02319               0.00      200.00
02320               2.00      400.00
02321              14.00      400.00
02322              32.00      800.00
02323              18.00      800.00
02324             -10.00     1000.00
02325             -16.00     1200.00
02326               2.00     1400.00
02327              18.00     1600.00
02328             110.00     1800.00
02329             246.00     2400.00
02330              24.00     2400.00
02331            -254.00     2600.00
02332            -254.00     2800.00
02333               0.00     2800.00
02334             246.00     3000.00
02335             246.00     3400.00
02336            -254.00     3200.00
02337            -254.00     3400.00
02338             246.00     4000.00
02339              14.00     4000.00
02340             -50.00     4200.00
02341              48.00     4400.00
02342            -152.00     4400.00
02343             206.00     4600.00
02344             -46.00     5000.00
02345            -192.00     5200.00
02346              46.00     5200.00
02347              16.00     5600.00
02348              64.00     5600.00
02349             -42.00     5600.00
02350             -34.00     6000.00
02351             -66.00     5800.00
02352              36.00     6600.00
02353              60.00     6600.00
02354            -128.00     6600.00
02355              30.00     6800.00
02356              -6.00     6800.00
02357             -14.00     7200.00
02358              -2.00     7400.00
02359             -66.00     7400.00
02360              -6.00     7600.00
02361              22.00     7800.00
02362              -8.00     8000.00
02363             -60.00     8000.00
02364              -6.00     8200.00
02365             -18.00     8400.00
02366             -10.00     8600.00
02367             -16.00     8800.00
02368             -42.00     8800.00
02369             -24.00     9000.00
02370              -2.00     9200.00
02371             -14.00     9200.00
02372             -32.00     9400.00
02373             -18.00     9600.00
02374             -48.00     9600.00
02375             -14.00     9800.00
02376             -16.00    10000.00
02377             -24.00    10000.00
02378             -14.00    10200.00
02379             -34.00    10200.00
02380             -48.00    10400.00
02381             -26.00    10400.00
02382              -8.00    10600.00
02383             -18.00    10800.00
02384             -24.00    10800.00
02385             -42.00    11000.00
02386             -42.00    10800.00
02387             -26.00    11000.00
02388             -24.00    11200.00
02389             -26.00    11200.00
02390             -26.00    11400.00
02391             -38.00    11400.00
02392             -40.00    11600.00
02393             -34.00    11800.00
02394             -40.00    11600.00
02395             -32.00    11600.00
02396             -26.00    11800.00
02397             -34.00    12000.00
02398             -42.00    12000.00
02399             -42.00    12000.00
02400             -46.00    12000.00
02401             -40.00    12000.00
02402             -36.00    12200.00
02403             -40.00    12000.00
02404             -40.00    12200.00
02405             -46.00    12200.00
02406             -52.00    12200.00
02407             -50.00    12200.00
02408             -48.00    12200.00
02409             -42.00    12200.00
02410             -46.00    12200.00
02411             -50.00    12200.00
02412             -58.00    12400.00
02413             -64.00    12200.00
02414             -62.00    12200.00
02415             -60.00    12200.00
02416             -58.00    12200.00
02417             -64.00    12200.00
02418             -72.00    12400.00
02419             -80.00    12200.00
02420             -86.00    12400.00
02421             -80.00    12200.00
02422             -78.00    12200.00
02423             -80.00    12200.00
02424             -86.00    12200.00
02425             -90.00    12000.00
02426             -94.00    12000.00
02427             -94.00    12000.00
02428             -86.00    12000.00
02429             -80.00    12000.00
02430             -78.00    12000.00
02431             -80.00    12000.00
02432             -80.00    11800.00
02433             -80.00    11800.00
02434             -74.00    11800.00
02435             -66.00    11600.00
02436             -62.00    11800.00
02437             -58.00    11600.00
02438             -58.00    11600.00
02439             -60.00    11400.00
02440             -58.00    11400.00
02441             -52.00    11200.00
02442             -42.00    11000.00
02443             -40.00    11000.00
02444             -44.00    11200.00
02445             -46.00    10800.00
02446             -44.00    10800.00
02447             -42.00    10600.00
02448             -38.00    10400.00
02449             -32.00    10400.00
02450             -32.00    10400.00
02451             -32.00    10400.00
02452             -34.00    10200.00
02453             -34.00    10000.00
02454             -32.00     9800.00
02455             -26.00     9600.00
02456             -26.00     9600.00
02457             -24.00     9600.00
02458             -26.00     9200.00
02459             -32.00     9200.00
02460             -32.00     9000.00
02461             -24.00     9000.00
02462             -24.00     8800.00
02463             -18.00     8600.00
02464             -24.00     8400.00
02465             -26.00     8400.00
02466             -26.00     8200.00
02467             -26.00     8200.00
02468             -22.00     8000.00
02469             -16.00     8000.00
02470             -18.00     7600.00
02471             -18.00     7400.00
02472             -24.00     7400.00
02473             -20.00     7200.00
02474             -20.00     7000.00
02475             -18.00     6800.00
02476             -18.00     6600.00
02477             -16.00     6400.00
02478             -18.00     6200.00
02479             -18.00     6000.00
02480             -22.00     6000.00
02481             -18.00     5800.00
02482             -16.00     5600.00
02483             -12.00     5600.00
02484             -14.00     5400.00
02485             -16.00     5200.00
02486             -18.00     4800.00
02487             -16.00     4800.00
02488             -12.00     4400.00
02489              -8.00     4400.00
02490             -10.00     4000.00
02491             -16.00     4000.00
02492             -16.00     3800.00
02493             -16.00     3600.00
02494             -10.00     3400.00
02495             -14.00     3200.00
02496             -10.00     3000.00
02497              -2.00     2800.00
02498             -10.00     2600.00
02499             -20.00     2400.00
02500             -10.00     2200.00
02501              -6.00     2000.00
02502             -10.00     1800.00
02503               0.00     1600.00
02504              -2.00     1600.00
02505              -8.00     1200.00
02506             -10.00     1200.00
02507             -16.00     1000.00
02508             -10.00      800.00
02509               0.00      600.00
02510               6.00      400.00
02511               6.00        0.00
02512              -8.00        0.00
02513               2.00     -200.00
02514              30.00     -400.00
02515              18.00     -400.00
02516             -10.00     -800.00
02517             -12.00     -800.00
02518               6.00    -1200.00
02519              18.00    -1200.00
02520              76.00    -1400.00
02521             246.00    -1600.00
02522             134.00    -2200.00
02523            -254.00    -2400.00
02524            -254.00    -2600.00
02525               0.00    -2800.00
02526             120.00    -2600.00
02527             224.00    -2800.00
02528             246.00    -3200.00
02529            -254.00    -3200.00
02530             -82.00    -3600.00
02531             240.00    -4000.00
02532             -38.00    -3600.00
02533              16.00    -4200.00
02534             -52.00    -4400.00
02535              54.00    -4400.00
02536              98.00    -4800.00
02537            -102.00    -4800.00
02538             -34.00    -5200.00
02539             -30.00    -4800.00
02540             104.00    -5200.00
02541              76.00    -5400.00
02542             -82.00    -5600.00
02543              -2.00    -6200.00
02544              -8.00    -5800.00
02545              64.00    -6400.00
02546              18.00    -6400.00
02547             -26.00    -6400.00
02548              22.00    -7000.00
02549               8.00    -6800.00
02550              30.00    -7200.00
02551             -32.00    -7200.00
02552              14.00    -7400.00
02553              40.00    -7600.00
02554              16.00    -7600.00
02555              22.00    -8000.00
02556             -24.00    -8000.00
02557              12.00    -8400.00
02558              38.00    -8400.00
02559               8.00    -8400.00
02560               0.00    -8800.00
02561              14.00    -8600.00
02562              24.00    -8800.00
02563              18.00    -9200.00
02564              16.00    -9200.00
02565               6.00    -9200.00
02566              16.00    -9400.00
02567              34.00    -9600.00
02568              16.00    -9600.00
02569              14.00    -9800.00
02570              22.00    -9600.00
02571              12.00   -10000.00
02572              22.00   -10000.00
02573              22.00   -10000.00
02574              22.00   -10200.00
02575              34.00   -10400.00
02576              26.00   -10600.00
02577              14.00   -10600.00
02578              22.00   -10800.00
02579              30.00   -10800.00
02580              22.00   -10800.00
02581              30.00   -11000.00
02582              28.00   -11000.00
02583              28.00   -11200.00
02584              38.00   -11200.00
02585              24.00   -11200.00
02586              24.00   -11200.00
02587              32.00   -11200.00
02588              32.00   -11400.00
02589              34.00   -11600.00
02590              36.00   -11200.00
02591              32.00   -11600.00
02592              34.00   -11600.00
02593              34.00   -11600.00
02594              32.00   -11600.00
02595              40.00   -11800.00
02596              48.00   -11600.00
02597              40.00   -11800.00
02598              38.00   -11800.00
02599              34.00   -11800.00
02600              34.00   -11800.00
02601              48.00   -12000.00
02602              56.00   -12000.00
02603              54.00   -12000.00
02604              50.00   -12000.00
02605              40.00   -12000.00
02606              42.00   -12000.00
02607              58.00   -12000.00
02608              64.00   -11800.00
02609              64.00   -12000.00
02610              64.00   -11800.00
02611              64.00   -12000.00
02612              62.00   -11800.00
02613              74.00   -11800.00
02614              80.00   -11800.00
02615              86.00   -11800.00
02616              86.00   -11800.00
02617              78.00   -11800.00
02618              72.00   -11800.00
02619              72.00   -11800.00
02620              78.00   -11800.00
02621              86.00   -11600.00
02622              82.00   -11600.00
02623              66.00   -11600.00
02624              62.00   -11600.00
02625              62.00   -11600.00
02626              64.00   -11200.00
02627              64.00   -11200.00
02628              62.00   -11200.00
02629              50.00   -11000.00
02630              48.00   -11200.00
02631              44.00   -11000.00
02632              42.00   -11000.00
02633              46.00   -11000.00
02634              42.00   -10800.00
02635              38.00   -10800.00
02636              36.00   -10600.00
02637              32.00   -10400.00
02638              32.00   -10400.00
02639              30.00   -10200.00
02640              30.00   -10200.00
02641              30.00   -10000.00
02642              32.00   -10000.00
02643              30.00   -10000.00
02644              24.00    -9600.00
02645              18.00    -9600.00
02646              22.00    -9400.00
02647              26.00    -9200.00
02648              26.00    -9400.00
02649              24.00    -9200.00
02650              22.00    -9000.00
02651              16.00    -8800.00
02652              14.00    -8600.00
02653              18.00    -8600.00
02654              22.00    -8600.00
02655              22.00    -8400.00
02656              18.00    -8000.00
02657              18.00    -8000.00
02658              14.00    -7800.00
02659              14.00    -7400.00
02660              14.00    -7400.00
02661              14.00    -7400.00
02662              18.00    -7200.00
02663              18.00    -7000.00
02664              10.00    -7000.00
02665               8.00    -6800.00
02666               8.00    -6800.00
02667              10.00    -6400.00
02668              16.00    -6200.00
02669              14.00    -6200.00
02670              10.00    -6000.00
02671               8.00    -5800.00
02672               6.00    -5600.00
02673               8.00    -5400.00
02674              10.00    -5200.00
02675              14.00    -5200.00
02676               6.00    -4800.00
02677               6.00    -4800.00
02678               2.00    -4600.00
02679               2.00    -4400.00
02680               6.00    -4000.00
02681               8.00    -4000.00
02682               6.00    -3800.00
02683               6.00    -3600.00
02684               6.00    -3400.00
02685               0.00    -3200.00
02686               2.00    -3000.00
02687               0.00    -2800.00
02688               0.00    -2800.00
02689               6.00    -2600.00
02690               2.00    -2400.00
02691               0.00    -2200.00
02692              -2.00    -2000.00
02693               0.00    -1600.00
02694               0.00    -1400.00
02695               2.00    -1400.00
02696               0.00    -1000.00
02697               0.00     -800.00
02698               0.00     -800.00
02699              -6.00     -600.00
02700               0.00     -400.00
02701               0.00        0.00
02702               2.00        0.00
02703               4.00      200.00
02704               6.00      400.00
02705              24.00      800.00
02706              26.00      800.00
02707              -2.00     1000.00
02708             -16.00     1200.00
02709              -2.00     1200.00
02710              16.00     1600.00
02711              62.00     1800.00
02712             246.00     2000.00
02713             184.00     2400.00
02714            -254.00     2200.00
02715            -254.00     2600.00
02716             -80.00     2800.00
02717             190.00     3000.00
02718             246.00     3400.00
02719              16.00     3400.00
02720            -254.00     3200.00
02721             190.00     3800.00
02722             184.00     3800.00
02723            -134.00     4200.00
02724              94.00     4400.00
02725            -154.00     4400.00
02726             118.00     4400.00
02727              90.00     4800.00
02728            -234.00     5200.00
02729               8.00     5000.00
02730              26.00     5600.00
02731              62.00     5600.00
02732               0.00     5600.00
02733             -50.00     6000.00
02734             -48.00     6000.00
02735             -22.00     6200.00
02736             104.00     6800.00
02737            -104.00     6400.00
02738             -18.00     6800.00
02739              26.00     6800.00
02740             -34.00     7000.00
02741              14.00     7200.00
02742             -62.00     7400.00
02743             -22.00     7600.00
02744              22.00     7600.00
02745               8.00     8000.00
02746             -58.00     8000.00
02747             -24.00     8400.00
02748             -10.00     8400.00
02749             -18.00     8400.00
02750              -6.00     8800.00
02751             -42.00     8800.00
02752             -32.00     9000.00
02753              -8.00     9200.00
02754              -4.00     9200.00
02755             -34.00     9200.00
02756             -16.00     9600.00
02757             -44.00     9600.00
02758             -26.00     9800.00
02759              -8.00     9800.00
02760             -28.00    10000.00
02761             -16.00    10000.00
02762             -30.00    10000.00
02763             -46.00    10200.00
02764             -34.00    10400.00
02765              -8.00    10400.00
02766             -20.00    10600.00
02767             -24.00    10600.00
02768             -34.00    10800.00
02769             -48.00    10800.00
02770             -32.00    10800.00
02771             -24.00    11000.00
02772             -28.00    11000.00
02773             -26.00    11400.00
02774             -34.00    11400.00
02775             -42.00    11600.00
02776             -32.00    11600.00
02777             -38.00    11800.00
02778             -38.00    11800.00
02779             -26.00    11800.00
02780             -32.00    11800.00
02781             -42.00    12000.00
02782             -40.00    12000.00
02783             -42.00    11800.00
02784             -42.00    12000.00
02785             -38.00    12000.00
02786             -40.00    12000.00
02787             -40.00    12000.00
02788             -42.00    12200.00
02789             -50.00    12200.00
02790             -52.00    12200.00
02791             -50.00    12200.00
02792             -50.00    12400.00
02793             -42.00    12200.00
02794             -40.00    12400.00
02795             -54.00    12400.00
02796             -66.00    12400.00
02797             -66.00    12400.00
02798             -62.00    12200.00
02799             -50.00    12400.00
02800             -54.00    12400.00
02801             -70.00    12400.00
02802             -80.00    12400.00
02803             -86.00    12200.00
02804             -78.00    12200.00
02805             -74.00    12200.00
02806             -80.00    12200.00
02807             -88.00    12200.00
02808             -90.00    12000.00
02809             -90.00    12000.00
02810             -88.00    12000.00
02811             -88.00    12000.00
02812             -86.00    12000.00
02813             -80.00    12000.00
02814             -80.00    12000.00
02815             -80.00    11800.00
02816             -78.00    12000.00
02817             -78.00    11600.00
02818             -70.00    11800.00
02819             -64.00    11600.00
02820             -58.00    11800.00
02821             -56.00    11600.00
02822             -58.00    11400.00
02823             -60.00    11400.00
02824             -56.00    11200.00
02825             -48.00    11200.00
02826             -40.00    11000.00
02827             -40.00    11000.00
02828             -46.00    10800.00
02829             -48.00    10800.00
02830             -46.00    10600.00
02831             -40.00    10600.00
02832             -32.00    10400.00
02833             -28.00    10400.00
02834             -32.00    10000.00
02835             -38.00    10200.00
02836             -40.00    10000.00
02837             -34.00     9800.00
02838             -26.00     9800.00
02839             -24.00     9600.00
02840             -24.00     9600.00
02841             -32.00     9400.00
02842             -34.00     9200.00
02843             -30.00     9200.00
02844             -24.00     9000.00
02845             -18.00     8800.00
02846             -22.00     8800.00
02847             -26.00     8600.00
02848             -26.00     8400.00
02849             -26.00     8400.00
02850             -24.00     8200.00
02851             -20.00     8000.00
02852             -22.00     8000.00
02853             -22.00     7600.00
02854             -18.00     7600.00
02855             -18.00     7400.00
02856             -20.00     7200.00
02857             -22.00     7200.00
02858             -20.00     6800.00
02859             -16.00     6800.00
02860             -14.00     6600.00
02861             -18.00     6400.00
02862             -16.00     6400.00
02863             -18.00     5800.00
02864             -16.00     5800.00
02865             -14.00     5800.00
02866             -10.00     5400.00
02867             -16.00     5400.00
02868             -16.00     5200.00
02869             -16.00     5000.00
02870             -16.00     4600.00
02871             -14.00     4800.00
02872             -10.00     4400.00
02873             -10.00     4200.00
02874             -10.00     4000.00
02875             -10.00     3800.00
02876             -16.00     3600.00
02877             -16.00     3400.00
02878             -12.00     3200.00
02879             -10.00     3200.00
02880              -8.00     2800.00
02881             -10.00     2800.00
02882             -14.00     2600.00
02883             -16.00     2400.00
02884             -12.00     2200.00
02885              -8.00     1800.00
02886              -2.00     1600.00
02887              -6.00     1600.00
02888              -8.00     1200.00
02889             -10.00     1200.00
02890             -10.00      800.00
02891              -6.00      800.00
02892               0.00      600.00
02893              -2.00      400.00
02894               0.00      200.00
02895              -2.00        0.00
02896               8.00     -200.00
02897              30.00     -400.00
02898              14.00     -600.00
02899             -14.00     -600.00
02900             -10.00    -1000.00
02901               8.00    -1000.00
02902              16.00    -1000.00
02903              48.00    -1400.00
02904             206.00    -1600.00
02905             230.00    -2000.00
02906            -238.00    -2400.00
02907            -254.00    -2400.00
02908            -106.00    -2600.00
02909             128.00    -2600.00
02910             158.00    -2800.00
02911             246.00    -3000.00
02912            -200.00    -3400.00
02913            -246.00    -3200.00
02914             240.00    -4000.00
02915              28.00    -3600.00
02916             -10.00    -3800.00
02917             -26.00    -4400.00
02918              -6.00    -4200.00
02919             136.00    -4800.00
02920             -70.00    -4600.00
02921             -66.00    -5000.00
02922             -26.00    -5200.00
02923              56.00    -5200.00
02924             122.00    -5600.00
02925             -66.00    -5400.00
02926             -26.00    -6000.00
02927              -2.00    -6000.00
02928              50.00    -6000.00
02929              56.00    -6400.00
02930             -42.00    -6400.00
02931              14.00    -6800.00
02932              10.00    -6600.00
02933              38.00    -7000.00
02934             -10.00    -7200.00
02935             -14.00    -7200.00
02936              40.00    -7400.00
02937              16.00    -7400.00
02938              26.00    -7800.00
02939              -8.00    -7800.00
02940              -2.00    -8200.00
02941              38.00    -8400.00
02942              14.00    -8400.00
02943              -6.00    -8600.00
02944              10.00    -8600.00
02945              24.00    -8800.00
02946              24.00    -9000.00
02947              16.00    -9200.00
02948               8.00    -9200.00
02949               6.00    -9400.00
02950              26.00    -9400.00
02951              22.00    -9400.00
02952              12.00    -9600.00
02953              26.00    -9800.00
02954              12.00   -10000.00
02955              16.00   -10200.00
02956              20.00   -10200.00
02957              16.00   -10200.00
02958              32.00   -10400.00
02959              32.00   -10400.00
02960              14.00   -10400.00
02961              12.00   -10800.00
02962              20.00   -10800.00
02963              24.00   -10800.00
02964              34.00   -11000.00
02965              34.00   -11000.00
02966              24.00   -11000.00
02967              30.00   -11200.00
02968              26.00   -11200.00
02969              22.00   -11200.00
02970              32.00   -11200.00
02971              34.00   -11400.00
02972              32.00   -11600.00
02973              34.00   -11600.00
02974              26.00   -11600.00
02975              30.00   -11600.00
02976              38.00   -11800.00
02977              38.00   -11800.00
02978              40.00   -11600.00
02979              46.00   -12000.00
02980              38.00   -11800.00
02981              38.00   -11800.00
02982              40.00   -11800.00
02983              38.00   -12000.00
02984              46.00   -11800.00
02985              54.00   -12000.00
02986              48.00   -12000.00
02987              48.00   -12000.00
02988              48.00   -12000.00
02989              46.00   -12000.00
02990              58.00   -12000.00
02991              64.00   -12000.00
02992              64.00   -12000.00
02993              66.00   -12000.00
02994              64.00   -11800.00
02995              64.00   -11800.00
02996              72.00   -12000.00
02997              80.00   -11800.00
02998              80.00   -11800.00
02999              86.00   -11800.00
03000              80.00   -11800.00
03001              74.00   -11800.00
03002              78.00   -11600.00
03003              80.00   -11600.00
03004              78.00   -11600.00
03005              78.00   -11600.00
03006              74.00   -11600.00
03007              68.00   -11600.00
03008              72.00   -11600.00
03009              56.00   -11400.00
03010              54.00   -11200.00
03011              62.00   -11200.00
03012              64.00   -11200.00
03013              54.00   -11200.00
03014              42.00   -11000.00
03015              34.00   -11000.00
03016              46.00   -11000.00
03017              46.00   -10800.00
03018              38.00   -10800.00
03019              38.00   -10600.00
03020              38.00   -10600.00
03021              32.00   -10400.00
03022              26.00   -10400.00
03023              26.00   -10200.00
03024              30.00   -10000.00
03025              32.00   -10000.00
03026              30.00   -10000.00
03027              22.00    -9800.00
03028              24.00    -9600.00
03029              18.00    -9600.00
03030              24.00    -9400.00
03031              26.00    -9400.00
03032              26.00    -9200.00
03033              18.00    -9200.00
03034              16.00    -9000.00
03035              16.00    -8600.00
03036              18.00    -8800.00
03037              22.00    -8400.00
03038              22.00    -8400.00
03039              22.00    -8200.00
03040              16.00    -8000.00
03041              10.00    -8000.00
03042              14.00    -7800.00
03043              16.00    -7400.00
03044              16.00    -7600.00
03045              18.00    -7200.00
03046              16.00    -7000.00
03047              10.00    -7000.00
03048              10.00    -6800.00
03049              10.00    -6800.00
03050              14.00    -6400.00
03051              16.00    -6200.00
03052              14.00    -6200.00
03053               8.00    -6000.00
03054               8.00    -5800.00
03055               8.00    -5600.00
03056              10.00    -5400.00
03057              12.00    -5400.00
03058               8.00    -5200.00
03059              10.00    -4800.00
03060              10.00    -4800.00
03061               8.00    -4600.00
03062               6.00    -4400.00
03063               6.00    -4200.00
03064               6.00    -4000.00
03065               6.00    -3800.00
03066               6.00    -3600.00
03067               6.00    -3400.00
03068               2.00    -3200.00
03069               2.00    -3200.00
03070               2.00    -2800.00
03071               2.00    -2800.00
03072               4.00    -2600.00
03073               2.00    -2400.00
03074               0.00    -2200.00
03075              -2.00    -2000.00
03076               0.00    -1800.00
03077               0.00    -1600.00
03078               2.00    -1200.00
03079               0.00    -1200.00
03080               0.00    -1000.00
03081              -2.00     -800.00
03082              -6.00     -600.00
03083              -2.00     -400.00
03084               0.00        0.00
03085               0.00        0.00
03086               2.00      200.00
03087               2.00      400.00
03088              16.00      600.00
03089              32.00      800.00
03090               6.00     1000.00
03091             -16.00     1200.00
03092              -8.00     1400.00
03093              14.00     1600.00
03094              32.00     1600.00
03095             218.00     2000.00
03096             246.00     2400.00
03097            -254.00     2400.00
03098            -254.00     2600.00
03099            -198.00     2800.00
03100              98.00     2800.00
03101             246.00     3200.00
03102             246.00     3400.00
03103            -254.00     3200.00
03104             -58.00     3800.00
03105             246.00     4000.00
03106            -150.00     4000.00
03107              74.00     4400.00
03108             -90.00     4400.00
03109             -10.00     4400.00
03110             196.00     4800.00
03111            -210.00     5200.00
03112             -70.00     5400.00
03113              42.00     5400.00
03114              42.00     5600.00
03115              34.00     5600.00
03116             -62.00     6000.00
03117             -34.00     6200.00
03118             -60.00     6000.00
03119             102.00     6600.00
03120             -42.00     6400.00
03121             -80.00     6800.00
03122              48.00     6800.00
03123             -40.00     7000.00
03124              16.00     7400.00
03125             -42.00     7600.00
03126             -46.00     7600.00
03127              16.00     7600.00
03128              18.00     8000.00
03129             -42.00     8000.00
03130             -46.00     8000.00
03131              -2.00     8400.00
03132             -26.00     8400.00
03133              -2.00     8800.00
03134             -34.00     8800.00
03135             -34.00     9000.00
03136             -16.00     9000.00
03137               0.00     9200.00
03138             -30.00     9200.00
03139             -22.00     9400.00
03140             -32.00     9600.00
03141             -42.00     9600.00
03142              -2.00     9800.00
03143             -26.00    10000.00
03144             -22.00    10000.00
03145             -24.00    10200.00
03146             -42.00    10400.00
03147             -42.00    10400.00
03148             -14.00    10600.00
03149             -14.00    10600.00
03150             -24.00    10600.00
03151             -28.00    10800.00
03152             -50.00    10800.00
03153             -38.00    11200.00
03154             -24.00    11000.00
03155             -24.00    11200.00
03156             -26.00    11400.00
03157             -30.00    11400.00
03158             -42.00    11400.00
03159             -36.00    11800.00
03160             -38.00    11800.00
03161             -40.00    11600.00
03162             -26.00    11800.00
03163             -32.00    11800.00
03164             -44.00    11800.00
03165             -46.00    12000.00
03166             -42.00    12000.00
03167             -42.00    12000.00
03168             -38.00    12000.00
03169             -40.00    12000.00
03170             -42.00    12200.00
03171             -40.00    12200.00
03172             -48.00    12200.00
03173             -50.00    12200.00
03174             -46.00    12400.00
03175             -48.00    12200.00
03176             -46.00    12400.00
03177             -48.00    12200.00
03178             -52.00    12400.00
03179             -56.00    12200.00
03180             -58.00    12200.00
03181             -60.00    12400.00
03182             -58.00    12200.00
03183             -58.00    12200.00
03184             -64.00    12400.00
03185             -74.00    12400.00
03186             -80.00    12200.00
03187             -82.00    12400.00
03188             -80.00    12200.00
03189             -80.00    12200.00
03190             -82.00    12400.00
03191             -86.00    12200.00
03192             -90.00    12200.00
03193             -94.00    12200.00
03194             -90.00    12000.00
03195             -82.00    12000.00
03196             -78.00    12000.00
03197             -78.00    11800.00
03198             -82.00    12000.00
03199             -82.00    11800.00
03200             -78.00    11800.00
03201             -70.00    11600.00
03202             -64.00    11400.00
03203             -58.00    11800.00
03204             -58.00    11400.00
03205             -62.00    11400.00
03206             -62.00    11400.00
03207             -58.00    11400.00
03208             -46.00    11000.00
03209             -40.00    11000.00
03210             -42.00    10800.00
03211             -46.00    10800.00
03212             -48.00    10600.00
03213             -42.00    10800.00
03214             -40.00    10400.00
03215             -34.00    10400.00
03216             -32.00    10400.00
03217             -32.00    10400.00
03218             -34.00    10200.00
03219             -38.00    10000.00
03220             -34.00    10000.00
03221             -32.00     9800.00
03222             -30.00     9600.00
03223             -26.00     9600.00
03224             -26.00     9400.00
03225             -30.00     9400.00
03226             -30.00     9200.00
03227             -32.00     8800.00
03228             -24.00     9000.00
03229             -18.00     8800.00
03230             -22.00     8600.00
03231             -26.00     8400.00
03232             -26.00     8400.00
03233             -26.00     8200.00
03234             -22.00     8000.00
03235             -16.00     8000.00
03236             -16.00     7800.00
03237             -20.00     7600.00
03238             -18.00     7400.00
03239             -24.00     7200.00
03240             -22.00     7200.00
03241             -18.00     7200.00
03242             -16.00     6800.00
03243             -16.00     6600.00
03244             -18.00     6400.00
03245             -20.00     6200.00
03246             -16.00     6000.00
03247             -16.00     5800.00
03248             -14.00     5800.00
03249             -14.00     5600.00
03250             -14.00     5400.00
03251             -16.00     5200.00
03252             -16.00     5000.00
03253             -16.00     4800.00
03254             -16.00     4600.00
03255             -10.00     4400.00
03256             -10.00     4200.00
03257             -10.00     4000.00
03258             -12.00     4000.00
03259             -16.00     3600.00
03260             -14.00     3400.00
03261             -10.00     3200.00
03262             -10.00     3200.00
03263              -8.00     3000.00
03264             -10.00     2800.00
03265             -10.00     2600.00
03266              -8.00     2400.00
03267              -8.00     2000.00
03268             -10.00     2000.00
03269             -10.00     1800.00
03270             -10.00     1600.00
03271              -8.00     1400.00
03272              -8.00     1200.00
03273             -10.00     1000.00
03274             -10.00      800.00
03275              -2.00      800.00
03276              -2.00      400.00
03277              -2.00      400.00
03278               0.00        0.00
03279               2.00     -400.00
03280              30.00     -400.00
03281              16.00     -600.00
03282             -16.00     -800.00
03283             -18.00     -800.00
03284               6.00    -1200.00
03285              16.00    -1400.00
03286              28.00    -1200.00
03287             142.00    -1400.00
03288             246.00    -2000.00
03289             -82.00    -2400.00
03290            -254.00    -2400.00
03291            -236.00    -2800.00
03292             106.00    -2600.00
03293             118.00    -2800.00
03294             246.00    -3000.00
03295              -8.00    -3400.00
03296            -254.00    -3200.00
03297             158.00    -3800.00
03298             120.00    -3800.00
03299             -50.00    -3600.00
03300               0.00    -4400.00
03301             -48.00    -4000.00
03302             136.00    -4600.00
03303               0.00    -4800.00
03304             -98.00    -4800.00
03305             -26.00    -5200.00
03306               2.00    -5000.00
03307             142.00    -5600.00
03308             -18.00    -5400.00
03309             -54.00    -6000.00
03310               0.00    -6000.00
03311              18.00    -6000.00
03312              74.00    -6400.00
03313             -30.00    -6200.00
03314               0.00    -6800.00
03315              16.00    -6800.00
03316              26.00    -6800.00
03317               8.00    -7200.00
03318             -32.00    -7200.00
03319              38.00    -7600.00
03320              26.00    -7600.00
03321              24.00    -7800.00
03322               6.00    -7800.00
03323             -16.00    -8000.00
03324              34.00    -8400.00
03325              24.00    -8400.00
03326              -2.00    -8800.00
03327               4.00    -8600.00
03328              22.00    -8800.00
03329              22.00    -9000.00
03330              22.00    -9000.00
03331              14.00    -9200.00
03332               6.00    -9200.00
03333              22.00    -9400.00
03334              26.00    -9600.00
03335              14.00    -9600.00
03336              24.00    -9600.00
03337              18.00    -9800.00
03338              12.00   -10000.00
03339              22.00   -10200.00
03340              14.00   -10200.00
03341              30.00   -10200.00
03342              38.00   -10400.00
03343              22.00   -10400.00
03344              14.00   -10600.00
03345              18.00   -10800.00
03346              22.00   -10800.00
03347              30.00   -10800.00
03348              34.00   -11000.00
03349              26.00   -11200.00
03350              28.00   -11200.00
03351              26.00   -11200.00
03352              22.00   -11200.00
03353              30.00   -11200.00
03354              34.00   -11600.00
03355              34.00   -11400.00
03356              38.00   -11600.00
03357              30.00   -11600.00
03358              24.00   -11600.00
03359              32.00   -11800.00
03360              38.00   -11600.00
03361              40.00   -11800.00
03362              46.00   -11800.00
03363              40.00   -11800.00
03364              34.00   -11800.00
03365              38.00   -11800.00
03366              38.00   -11800.00
03367              44.00   -12000.00
03368              54.00   -12000.00
03369              48.00   -11800.00
03370              48.00   -12000.00
03371              48.00   -12000.00
03372              46.00   -12000.00
03373              54.00   -12000.00
03374              62.00   -12000.00
03375              62.00   -12000.00
03376              64.00   -12000.00
03377              64.00   -11800.00
03378              62.00   -12000.00
03379              70.00   -11800.00
03380              80.00   -12000.00
03381              84.00   -11800.00
03382              86.00   -11800.00
03383              80.00   -11800.00
03384              78.00   -11800.00
03385              78.00   -11800.00
03386              76.00   -11600.00
03387              78.00   -11600.00
03388              82.00   -11600.00
03389              78.00   -11600.00
03390              70.00   -11600.00
03391              60.00   -11600.00
03392              58.00   -11200.00
03393              60.00   -11200.00
03394              62.00   -11200.00
03395              58.00   -11200.00
03396              56.00   -11200.00
03397              48.00   -11200.00
03398              42.00   -11000.00
03399              38.00   -11000.00
03400              40.00   -10800.00
03401              44.00   -10800.00
03402              42.00   -10600.00
03403              34.00   -10400.00
03404              32.00   -10600.00
03405              28.00   -10400.00
03406              30.00   -10200.00
03407              30.00   -10000.00
03408              32.00   -10000.00
03409              30.00   -10000.00
03410              26.00    -9800.00
03411              18.00    -9600.00
03412              16.00    -9600.00
03413              24.00    -9400.00
03414              24.00    -9200.00
03415              24.00    -9200.00
03416              22.00    -9000.00
03417              16.00    -8800.00
03418              18.00    -9000.00
03419              16.00    -8600.00
03420              16.00    -8600.00
03421              22.00    -8400.00
03422              22.00    -8400.00
03423              18.00    -8200.00
03424              14.00    -7800.00
03425              10.00    -8000.00
03426              16.00    -7600.00
03427              18.00    -7400.00
03428              16.00    -7200.00
03429              16.00    -7200.00
03430              14.00    -7000.00
03431              12.00    -6800.00
03432              10.00    -6800.00
03433               8.00    -6600.00
03434              14.00    -6400.00
03435              18.00    -6200.00
03436              14.00    -6000.00
03437              10.00    -5800.00
03438              10.00    -5600.00
03439              10.00    -5400.00
03440              10.00    -5400.00
03441              14.00    -5200.00
03442               8.00    -4800.00
03443               8.00    -4800.00
03444               6.00    -4600.00
03445               2.00    -4600.00
03446               6.00    -4200.00
03447               8.00    -4000.00
03448               6.00    -3800.00
03449               6.00    -3800.00
03450               6.00    -3600.00
03451               6.00    -3200.00
03452               6.00    -3000.00
03453               2.00    -2800.00
03454               6.00    -2800.00
03455               6.00    -2600.00
03456               4.00    -2400.00
03457               2.00    -2200.00
03458              -2.00    -2000.00
03459              -2.00    -1600.00
03460               2.00    -1600.00
03461               0.00    -1400.00
03462               0.00    -1400.00
03463               2.00    -1000.00
03464               0.00     -800.00
03465              -2.00     -600.00
03466              -6.00     -400.00
03467              -2.00     -200.00
03468               0.00        0.00
03469               2.00      200.00
03470               0.00      400.00
03471               8.00      600.00
03472              32.00      800.00
03473              16.00     1000.00
03474             -14.00     1000.00
03475             -16.00     1200.00
03476               4.00     1600.00
03477              22.00     1600.00
03478             142.00     2000.00
03479             246.00     2200.00
03480             -74.00     2400.00
03481            -254.00     2400.00
03482            -254.00     2600.00
03483              32.00     2800.00
03484             246.00     3200.00
03485             246.00     3400.00
03486            -254.00     3200.00
03487            -254.00     3400.00
03488             246.00     4000.00
03489             -62.00     3800.00
03490              -2.00     4200.00
03491               0.00     4400.00
03492            -122.00     4400.00
03493             222.00     4600.00
03494            -112.00     5000.00
03495            -154.00     5200.00
03496              54.00     5400.00
03497              20.00     5600.00
03498              56.00     5800.00
03499             -56.00     5800.00
03500             -30.00     6200.00
03501             -64.00     6000.00
03502              66.00     6600.00
03503              24.00     6600.00
03504            -126.00     6600.00
03505              42.00     7200.00
03506             -18.00     6800.00
03507               2.00     7200.00
03508             -20.00     7400.00
03509             -66.00     7600.00
03510               6.00     7600.00
03511              32.00     8000.00
03512             -14.00     8000.00
03513             -62.00     8000.00
03514             -16.00     8400.00
03515             -30.00     8400.00
03516               8.00     8800.00
03517             -10.00     8800.00
03518             -42.00     8800.00
03519             -30.00     9000.00
03520              -6.00     9000.00
03521             -16.00     9200.00
03522             -24.00     9400.00
03523             -22.00     9600.00
03524             -48.00     9600.00
03525              -8.00     9800.00
03526             -22.00     9800.00
03527             -30.00    10000.00
03528             -26.00    10000.00
03529             -34.00    10200.00
03530             -36.00    10400.00
03531             -16.00    10400.00
03532             -14.00    10600.00
03533             -34.00    10800.00
03534             -32.00    10800.00
03535             -40.00    11000.00
03536             -34.00    10800.00
03537             -26.00    11200.00
03538             -32.00    11000.00
03539             -34.00    11200.00
03540             -26.00    11400.00
03541             -32.00    11400.00
03542             -38.00    11400.00
03543             -34.00    11800.00
03544             -44.00    11800.00
03545             -34.00    11800.00
03546             -32.00    11600.00
03547             -38.00    12000.00
03548             -36.00    12000.00
03549             -38.00    12000.00
03550             -48.00    12000.00
03551             -42.00    12000.00
03552             -38.00    12200.00
03553             -38.00    12000.00
03554             -40.00    12200.00
03555             -52.00    12200.00
03556             -56.00    12200.00
03557             -48.00    12200.00
03558             -48.00    12200.00
03559             -46.00    12400.00
03560             -42.00    12200.00
03561             -50.00    12600.00
03562             -62.00    12400.00
03563             -58.00    12400.00
03564             -60.00    12200.00
03565             -58.00    12200.00
03566             -56.00    12200.00
03567             -64.00    12400.00
03568             -72.00    12400.00
03569             -76.00    12200.00
03570             -82.00    12200.00
03571             -78.00    12200.00
03572             -80.00    12200.00
03573             -82.00    12200.00
03574             -82.00    12200.00
03575             -88.00    12200.00
03576             -94.00    12200.00
03577             -90.00    12000.00
03578             -84.00    12000.00
03579             -78.00    12000.00
03580             -78.00    12000.00
03581             -80.00    12000.00
03582             -80.00    11800.00
03583             -78.00    11800.00
03584             -72.00    11800.00
03585             -62.00    11600.00
03586             -58.00    11800.00
03587             -62.00    11400.00
03588             -62.00    11400.00
03589             -62.00    11400.00
03590             -56.00    11400.00
03591             -50.00    11200.00
03592             -46.00    11200.00
03593             -42.00    11000.00
03594             -42.00    10800.00
03595             -44.00    10800.00
03596             -46.00    10800.00
03597             -42.00    10600.00
03598             -38.00    10600.00
03599             -32.00    10400.00
03600             -32.00    10400.00
03601             -34.00    10200.00
03602             -40.00    10000.00
03603             -36.00    10000.00
03604             -34.00     9800.00
03605             -26.00     9800.00
03606             -26.00     9600.00
03607             -30.00     9600.00
03608             -30.00     9200.00
03609             -32.00     9200.00
03610             -30.00     9200.00
03611             -26.00     9000.00
03612             -24.00     8800.00
03613             -24.00     8600.00
03614             -24.00     8400.00
03615             -26.00     8400.00
03616             -26.00     8400.00
03617             -26.00     8000.00
03618             -18.00     8000.00
03619             -18.00     8000.00
03620             -18.00     7600.00
03621             -16.00     7400.00
03622             -24.00     7400.00
03623             -24.00     7200.00
03624             -22.00     7000.00
03625             -18.00     6800.00
03626             -14.00     6800.00
03627             -12.00     6400.00
03628             -20.00     6400.00
03629             -16.00     6200.00
03630             -16.00     6000.00
03631             -18.00     5800.00
03632             -14.00     5800.00
03633             -10.00     5600.00
03634             -16.00     5200.00
03635             -14.00     5200.00
03636             -18.00     5000.00
03637             -20.00     4600.00
03638              -8.00     4400.00
03639              -8.00     4400.00
03640             -14.00     4000.00
03641             -14.00     4000.00
03642             -10.00     3800.00
03643              -8.00     3600.00
03644             -10.00     3400.00
03645             -18.00     3200.00
03646             -10.00     3200.00
03647               0.00     2800.00
03648             -10.00     2600.00
03649             -16.00     2400.00
03650             -10.00     2200.00
03651             -10.00     2000.00
03652              -6.00     1800.00
03653              -8.00     1600.00
03654             -12.00     1600.00
03655             -10.00     1200.00
03656              -8.00     1200.00
03657              -6.00     1000.00
03658              -2.00      600.00
03659              -8.00      600.00
03660             -14.00      200.00
03661               0.00      200.00
03662              10.00        0.00
03663              22.00     -200.00
03664              24.00     -400.00
03665              -6.00     -600.00
03666             -18.00     -800.00
03667              -2.00    -1000.00
03668              10.00    -1200.00
03669              16.00    -1200.00
03670              96.00    -1400.00
03671             246.00    -2000.00
03672              62.00    -2200.00
03673            -254.00    -2400.00
03674            -254.00    -2600.00
03675              48.00    -2600.00
03676             118.00    -2600.00
03677             246.00    -2800.00
03678             170.00    -3400.00
03679            -254.00    -3000.00
03680              10.00    -3600.00
03681             214.00    -4000.00
03682             -54.00    -3600.00
03683              16.00    -4400.00
03684             -58.00    -4000.00
03685              82.00    -4400.00
03686              64.00    -4800.00
03687            -106.00    -4800.00
03688             -26.00    -5200.00
03689             -28.00    -5000.00
03690             126.00    -5400.00
03691              46.00    -5400.00
03692             -82.00    -5600.00
03693               2.00    -6200.00
03694               6.00    -6000.00
03695              78.00    -6400.00
03696              -6.00    -6400.00
03697             -32.00    -6400.00
03698              16.00    -6800.00
03699              24.00    -6800.00
03700              38.00    -7200.00
03701             -32.00    -7200.00
03702              16.00    -7400.00
03703              28.00    -7600.00
03704              14.00    -7600.00
03705              24.00    -7800.00
03706              -8.00    -7800.00
03707              24.00    -8400.00
03708              24.00    -8400.00
03709             -14.00    -8400.00
03710               2.00    -8600.00
03711              40.00    -8800.00
03712              42.00    -8800.00
03713              16.00    -8800.00
03714              -2.00    -9000.00
03715              -8.00    -9400.00
03716              22.00    -9400.00
03717              42.00    -9400.00
03718              18.00    -9600.00
03719              14.00    -9800.00
03720              16.00    -9800.00
03721              10.00   -10000.00
03722              24.00   -10000.00
03723              18.00   -10000.00
03724              22.00   -10200.00
03725              36.00   -10400.00
03726              24.00   -10400.00
03727              10.00   -10400.00
03728              18.00   -10800.00
03729              24.00   -10800.00
03730              26.00   -10800.00
03731              34.00   -11000.00
03732              26.00   -11200.00
03733              24.00   -11000.00
03734              26.00   -11000.00
03735              22.00   -11200.00
03736              30.00   -11200.00
03737              38.00   -11200.00
03738              30.00   -11600.00
03739              32.00   -11600.00
03740              30.00   -11600.00
03741              30.00   -11600.00
03742              34.00   -11800.00
03743              34.00   -11600.00
03744              32.00   -11600.00
03745              42.00   -11600.00
03746              48.00   -11800.00
03747              40.00   -11800.00
03748              38.00   -11800.00
03749              34.00   -11800.00
03750              38.00   -11800.00
03751              50.00   -12000.00
03752              54.00   -12000.00
03753              48.00   -11800.00
03754              48.00   -12000.00
03755              48.00   -12000.00
03756              54.00   -12000.00
03757              58.00   -11800.00
03758              62.00   -12000.00
03759              64.00   -12000.00
03760              66.00   -12000.00
03761              64.00   -11800.00
03762              68.00   -12000.00
03763              74.00   -12000.00
03764              80.00   -11800.00
03765              88.00   -11800.00
03766              86.00   -11800.00
03767              80.00   -11800.00
03768              78.00   -11600.00
03769              78.00   -11600.00
03770              78.00   -11600.00
03771              80.00   -11600.00
03772              78.00   -11600.00
03773              72.00   -11600.00
03774              70.00   -11400.00
03775              62.00   -11600.00
03776              60.00   -11200.00
03777              62.00   -11200.00
03778              64.00   -11000.00
03779              54.00   -11200.00
03780              48.00   -11000.00
03781              42.00   -11200.00
03782              40.00   -11000.00
03783              42.00   -10800.00
03784              40.00   -10600.00
03785              40.00   -10800.00
03786              38.00   -10600.00
03787              30.00   -10400.00
03788              28.00   -10400.00
03789              30.00   -10200.00
03790              28.00   -10000.00
03791              30.00   -10000.00
03792              32.00   -10000.00
03793              26.00    -9800.00
03794              22.00    -9600.00
03795              18.00    -9600.00
03796              18.00    -9400.00
03797              22.00    -9200.00
03798              24.00    -9200.00
03799              22.00    -9200.00
03800              22.00    -8800.00
03801              16.00    -8800.00
03802              12.00    -8800.00
03803              18.00    -8600.00
03804              22.00    -8600.00
03805              22.00    -8400.00
03806              16.00    -8000.00
03807              14.00    -8000.00
03808              14.00    -7800.00
03809              14.00    -7400.00
03810              16.00    -7400.00
03811              16.00    -7200.00
03812              16.00    -7200.00
03813              16.00    -7000.00
03814              10.00    -6800.00
03815               8.00    -6800.00
03816              10.00    -6800.00
03817              12.00    -6400.00
03818              14.00    -6200.00
03819              14.00    -6000.00
03820              10.00    -5800.00
03821               6.00    -5600.00
03822               6.00    -5400.00
03823              10.00    -5400.00
03824              10.00    -5200.00
03825              10.00    -4800.00
03826               8.00    -4800.00
03827               6.00    -4600.00
03828               6.00    -4400.00
03829               2.00    -4400.00
03830               6.00    -4000.00
03831               8.00    -3800.00
03832               8.00    -3600.00
03833               6.00    -3600.00
03834               2.00    -3200.00
03835               0.00    -3200.00
03836               0.00    -3000.00
03837               6.00    -3000.00
03838              10.00    -2600.00
03839               6.00    -2400.00
03840              -2.00    -2200.00
03841               0.00    -2000.00
03842               6.00    -1800.00
03843               6.00    -1600.00
03844               2.00    -1400.00
03845              -2.00    -1200.00
03846              -6.00     -800.00
03847               6.00    -1000.00
03848               8.00     -600.00
03849             -10.00     -400.00
03850             -18.00     -400.00
03851               2.00        0.00
03852              20.00        0.00
03853               6.00      200.00
03854             -12.00      400.00
03855              18.00      800.00
03856              34.00      800.00
03857               2.00     1000.00
03858             -18.00     1200.00
03859              -6.00     1400.00
03860               8.00     1600.00
03861              78.00     1800.00
03862             246.00     2000.00
03863             114.00     2400.00
03864            -254.00     2400.00
03865            -254.00     2600.00
03866             -46.00     2800.00
03867             246.00     2800.00
03868             246.00     3400.00
03869            -162.00     3200.00
03870            -254.00     3200.00
03871             246.00     3800.00
03872              90.00     4000.00
03873            -106.00     4200.00
03874              78.00     4400.00
03875            -154.00     4400.00
03876             176.00     4600.00
03877              16.00     4800.00
03878            -230.00     5200.00
03879              30.00     5400.00
03880              22.00     5600.00
03881              70.00     5600.00
03882             -22.00     5600.00
03883             -46.00     6000.00
03884             -66.00     6000.00
03885               6.00     6400.00
03886              94.00     6600.00
03887            -114.00     6400.00
03888               8.00     7000.00
03889               6.00     7000.00
03890             -30.00     7200.00
03891              10.00     7400.00
03892             -64.00     7600.00
03893              -6.00     7600.00
03894              24.00     7800.00
03895              -6.00     8000.00
03896             -64.00     8000.00
03897             -10.00     8200.00
03898             -12.00     8400.00
03899             -14.00     8400.00
03900             -10.00     8800.00
03901             -40.00     8800.00
03902             -24.00     9000.00
03903              -8.00     9200.00
03904             -10.00     9400.00
03905             -32.00     9400.00
03906             -14.00     9600.00
03907             -46.00     9600.00
03908             -18.00     9800.00
03909             -10.00     9800.00
03910             -26.00    10000.00
03911             -16.00    10000.00
03912             -30.00    10000.00
03913             -46.00    10400.00
03914             -32.00    10400.00
03915             -10.00    10400.00
03916             -22.00    10600.00
03917             -22.00    10800.00
03918             -38.00    10800.00
03919             -48.00    10800.00
03920             -32.00    11000.00
03921             -26.00    11200.00
03922             -28.00    11200.00
03923             -24.00    11400.00
03924             -38.00    11400.00
03925             -42.00    11600.00
03926             -34.00    11400.00
03927             -42.00    11800.00
03928             -34.00    11800.00
03929             -28.00    11600.00
03930             -36.00    11800.00
03931             -44.00    11800.00
03932             -42.00    12000.00
03933             -46.00    12000.00
03934             -46.00    12000.00
03935             -40.00    12000.00
03936             -40.00    12200.00
03937             -42.00    12200.00
03938             -46.00    12200.00
03939             -54.00    12400.00
03940             -50.00    12200.00
03941             -48.00    12200.00
03942             -48.00    12200.00
03943             -46.00    12200.00
03944             -46.00    12400.00
03945             -62.00    12400.00
03946             -62.00    12200.00
03947             -60.00    12400.00
03948             -58.00    12400.00
03949             -58.00    12400.00
03950             -58.00    12200.00
03951             -66.00    12200.00
03952             -74.00    12200.00
03953             -82.00    12200.00
03954             -82.00    12200.00
03955             -80.00    12200.00
03956             -78.00    12200.00
03957             -82.00    12200.00
03958             -88.00    12200.00
03959             -94.00    12200.00
03960             -90.00    12000.00
03961             -86.00    12000.00
03962             -80.00    12000.00
03963             -74.00    12000.00
03964             -78.00    12000.00
03965             -80.00    11800.00
03966             -78.00    11800.00
03967             -74.00    11800.00
03968             -64.00    11800.00
03969             -58.00    11600.00
03970             -56.00    11800.00
03971             -58.00    11400.00
03972             -60.00    11400.00
03973             -56.00    11400.00
03974             -54.00    11400.00
03975             -46.00    11200.00
03976             -40.00    11000.00
03977             -42.00    11000.00
03978             -44.00    10800.00
03979             -46.00    10600.00
03980             -42.00    10600.00
03981             -38.00    10400.00
03982             -34.00    10400.00
03983             -34.00    10200.00
03984             -34.00    10200.00
03985             -34.00    10000.00
03986             -36.00    10000.00
03987             -32.00     9800.00
03988             -30.00     9600.00
03989             -30.00     9600.00
03990             -26.00     9600.00
03991             -28.00     9400.00
03992             -32.00     9400.00
03993             -32.00     9000.00
03994             -26.00     9000.00
03995             -20.00     8800.00
03996             -20.00     8800.00
03997             -24.00     8600.00
03998             -26.00     8400.00
03999             -26.00     8400.00
04000             -26.00     8000.00
04001             -22.00     8000.00
04002             -20.00     7800.00
04003             -22.00     7600.00
04004             -22.00     7400.00
04005             -24.00     7400.00
04006             -26.00     7200.00
04007             -22.00     7000.00
04008             -18.00     6800.00
04009             -16.00     6800.00
04010             -16.00     6600.00
04011             -16.00     6400.00
04012             -22.00     6000.00
04013             -22.00     6000.00
04014             -18.00     5800.00
04015             -14.00     5600.00
04016             -12.00     5400.00
04017             -16.00     5400.00
04018             -16.00     5200.00
04019             -18.00     5000.00
04020             -16.00     4800.00
04021             -14.00     4400.00
04022              -8.00     4400.00
04023              -8.00     4000.00
04024             -10.00     4000.00
04025             -14.00     3800.00
04026             -16.00     3600.00
04027             -14.00     3400.00
04028             -10.00     3200.00
04029              -6.00     3200.00
04030              -8.00     3200.00
04031             -10.00     2800.00
04032             -14.00     2600.00
04033             -10.00     2400.00
04034              -8.00     2000.00
04035              -6.00     2000.00
04036              -2.00     1800.00
04037              -6.00     1600.00
04038              -8.00     1200.00
04039             -10.00     1000.00
04040             -10.00      800.00
04041              -6.00      800.00
04042              -2.00      400.00
04043              -2.00      400.00
04044              -2.00      200.00
04045              -2.00        0.00
04046              14.00     -200.00
04047              30.00     -400.00
04048               6.00     -600.00
04049             -16.00     -800.00
04050             -10.00    -1000.00
04051              10.00    -1000.00
04052              16.00    -1200.00
04053              62.00    -1400.00
04054             232.00    -1600.00
04055             184.00    -2200.00
04056            -254.00    -2400.00
04057            -254.00    -2400.00
04058             -50.00    -2600.00
04059             128.00    -2600.00
04060             192.00    -2600.00
04061             246.00    -3200.00
04062            -254.00    -3200.00
04063            -170.00    -3400.00
04064             246.00    -4000.00
04065             -10.00    -3600.00
04066               2.00    -4000.00
04067             -48.00    -4400.00
04068              18.00    -4000.00
04069             122.00    -4800.00
04070             -90.00    -4600.00
04071             -50.00    -4800.00
04072             -26.00    -5000.00
04073              80.00    -5200.00
04074              98.00    -5600.00
04075             -80.00    -5400.00
04076             -14.00    -6200.00
04077              -6.00    -5800.00
04078              58.00    -6200.00
04079              38.00    -6400.00
04080             -40.00    -6400.00
04081              18.00    -6800.00
04082              14.00    -6800.00
04083              40.00    -7000.00
04084             -20.00    -7200.00
04085              -2.00    -7200.00
04086              40.00    -7600.00
04087              16.00    -7400.00
04088              26.00    -7800.00
04089             -14.00    -7800.00
04090               8.00    -8200.00
04091              40.00    -8400.00
04092               8.00    -8400.00
04093              -2.00    -8400.00
04094              16.00    -8800.00
04095              26.00    -8800.00
04096              22.00    -9000.00
04097              18.00    -9000.00
04098              10.00    -9200.00
04099              10.00    -9200.00
04100              30.00    -9400.00
04101              20.00    -9600.00
04102              22.00    -9600.00
04103              26.00    -9600.00
04104              14.00   -10000.00
04105              18.00   -10000.00
04106              16.00   -10000.00
04107              20.00   -10200.00
04108              38.00   -10400.00
04109              32.00   -10400.00
04110              14.00   -10400.00
04111              10.00   -10800.00
04112              16.00   -10800.00
04113              28.00   -10800.00
04114              34.00   -10800.00
04115              28.00   -11000.00
04116              24.00   -11000.00
04117              30.00   -11200.00
04118              22.00   -11200.00
04119              26.00   -11200.00
04120              32.00   -11200.00
04121              34.00   -11400.00
04122              38.00   -11600.00
04123              34.00   -11600.00
04124              22.00   -11400.00
04125              32.00   -11600.00
04126              38.00   -11600.00
04127              34.00   -11800.00
04128              40.00   -11800.00
04129              42.00   -11800.00
04130              38.00   -11800.00
04131              38.00   -11800.00
04132              38.00   -11800.00
04133              36.00   -12000.00
04134              48.00   -12000.00
04135              50.00   -12000.00
04136              48.00   -12000.00
04137              48.00   -11800.00
04138              44.00   -12000.00
04139              54.00   -12000.00
04140              62.00   -12000.00
04141              58.00   -12000.00
04142              60.00   -12000.00
04143              64.00   -12000.00
04144              70.00   -11800.00
04145              70.00   -11800.00
04146              74.00   -12000.00
04147              78.00   -12000.00
04148              84.00   -11800.00
04149              86.00   -11800.00
04150              82.00   -11800.00
04151              80.00   -11800.00
04152              80.00   -11800.00
04153              78.00   -11600.00
04154              80.00   -11600.00
04155              80.00   -11800.00
04156              72.00   -11600.00
04157              72.00   -11600.00
04158              62.00   -11400.00
04159              58.00   -11200.00
04160              58.00   -11200.00
04161              60.00   -11200.00
04162              58.00   -11000.00
04163              54.00   -11200.00
04164              48.00   -11000.00
04165              42.00   -10800.00
04166              38.00   -10800.00
04167              40.00   -10800.00
04168              42.00   -10600.00
04169              42.00   -10400.00
04170              34.00   -10600.00
04171              28.00   -10400.00
04172              24.00   -10200.00
04173              30.00   -10200.00
04174              30.00   -10000.00
04175              32.00   -10000.00
04176              30.00    -9800.00
04177              22.00    -9800.00
04178              18.00    -9600.00
04179              22.00    -9600.00
04180              24.00    -9400.00
04181              28.00    -9200.00
04182              24.00    -9200.00
04183              18.00    -9000.00
04184              16.00    -8800.00
04185              14.00    -8800.00
04186              16.00    -8600.00
04187              22.00    -8400.00
04188              22.00    -8400.00
04189              16.00    -8400.00
04190              14.00    -8000.00
04191              10.00    -7800.00
04192              14.00    -7800.00
04193              16.00    -7600.00
04194              18.00    -7400.00
04195              18.00    -7200.00
04196              10.00    -7000.00
04197               8.00    -7000.00
04198              10.00    -6800.00
04199              14.00    -6600.00
04200              14.00    -6400.00
04201              16.00    -6200.00
04202              10.00    -6200.00
04203               8.00    -6200.00
04204               8.00    -6000.00
04205               6.00    -5600.00
04206               8.00    -5400.00
04207              14.00    -5200.00
04208              10.00    -5000.00
04209               6.00    -5000.00
04210               2.00    -4800.00
04211               2.00    -4400.00
04212               6.00    -4400.00
04213              12.00    -4000.00
04214              12.00    -4000.00
04215               8.00    -3800.00
04216               0.00    -3600.00
04217               0.00    -3400.00
04218               2.00    -3200.00
04219               6.00    -3200.00
04220               8.00    -2800.00
04221               6.00    -2600.00
04222               0.00    -2400.00
04223               0.00    -2400.00
04224               2.00    -2200.00
04225               2.00    -2000.00
04226               2.00    -1600.00
04227               0.00    -1600.00
04228               2.00    -1200.00
04229               4.00    -1000.00
04230               0.00     -800.00
04231              -2.00     -600.00
04232              -2.00     -600.00
04233              -2.00     -400.00
04234               0.00     -200.00
04235               2.00        0.00
04236               6.00      400.00
04237               2.00      400.00
04238              22.00      800.00
04239              26.00      800.00
04240               2.00     1000.00
04241             -16.00     1200.00
04242               0.00     1400.00
04243              14.00     1600.00
04244              46.00     1800.00
04245             246.00     2000.00
04246             242.00     2400.00
04247            -254.00     2400.00
04248            -254.00     2600.00
04249            -132.00     2800.00
04250             140.00     2800.00
04251             246.00     3200.00
04252             176.00     3400.00
04253            -254.00     3200.00
04254              78.00     3800.00
04255             246.00     4000.00
04256            -154.00     4000.00
04257              90.00     4400.00
04258            -130.00     4400.00
04259              54.00     4400.00
04260             152.00     4800.00
04261            -232.00     5000.00
04262             -30.00     5200.00
04263              34.00     5400.00
04264              48.00     5600.00
04265              16.00     5600.00
04266             -56.00     6000.00
04267             -38.00     6000.00
04268             -42.00     6000.00
04269             106.00     6600.00
04270             -78.00     6600.00
04271             -50.00     6800.00
04272              40.00     7000.00
04273             -40.00     7000.00
04274              18.00     7200.00
04275             -54.00     7400.00
04276             -34.00     7600.00
04277              18.00     7600.00
04278              16.00     8000.00
04279             -50.00     8000.00
04280             -32.00     8200.00
04281              -4.00     8400.00
04282             -24.00     8400.00
04283              -2.00     8800.00
04284             -38.00     8800.00
04285             -32.00     9000.00
04286             -10.00     9200.00
04287               0.00     9400.00
04288             -32.00     9400.00
04289             -16.00     9600.00
04290             -38.00     9600.00
04291             -32.00     9600.00
04292              -6.00    10000.00
04293             -26.00    10000.00
04294             -14.00    10000.00
04295             -24.00    10400.00
04296             -42.00    10200.00
04297             -40.00    10400.00
04298              -8.00    10600.00
04299             -16.00    10600.00
04300             -22.00    10800.00
04301             -32.00    10800.00
04302             -48.00    10800.00
04303             -34.00    11000.00
04304             -26.00    11200.00
04305             -26.00    11000.00
04306             -26.00    11400.00
04307             -32.00    11400.00
04308             -42.00    11400.00
04309             -34.00    11600.00
04310             -40.00    11800.00
04311             -40.00    11600.00
04312             -30.00    11600.00
04313             -32.00    11800.00
04314             -42.00    11800.00
04315             -42.00    12000.00
04316             -46.00    12000.00
04317             -44.00    12000.00
04318             -38.00    12000.00
04319             -38.00    12000.00
04320             -42.00    12000.00
04321             -42.00    12200.00
04322             -50.00    12000.00
04323             -54.00    12200.00
04324             -50.00    12200.00
04325             -48.00    12200.00
04326             -44.00    12200.00
04327             -46.00    12400.00
04328             -58.00    12200.00
04329             -62.00    12200.00
04330             -62.00    12200.00
04331             -56.00    12200.00
04332             -56.00    12200.00
04333             -58.00    12400.00
04334             -66.00    12200.00
04335             -74.00    12400.00
04336             -80.00    12200.00
04337             -86.00    12000.00
04338             -78.00    12200.00
04339             -80.00    12200.00
04340             -82.00    12200.00
04341             -86.00    12000.00
04342             -90.00    12200.00
04343             -94.00    12000.00
04344             -88.00    12000.00
04345             -82.00    12000.00
04346             -76.00    12000.00
04347             -76.00    12000.00
04348             -80.00    12000.00
04349             -80.00    11800.00
04350             -74.00    11800.00
04351             -66.00    11600.00
04352             -58.00    11800.00
04353             -56.00    11600.00
04354             -58.00    11400.00
04355             -58.00    11400.00
04356             -58.00    11400.00
04357             -54.00    11400.00
04358             -48.00    11200.00
04359             -40.00    11200.00
04360             -42.00    11200.00
04361             -42.00    10800.00
04362             -42.00    10800.00
04363             -46.00    10800.00
04364             -40.00    10600.00
04365             -34.00    10400.00
04366             -32.00    10400.00
04367             -30.00    10400.00
04368             -32.00    10200.00
04369             -38.00    10000.00
04370             -38.00     9800.00
04371             -32.00     9800.00
04372             -26.00     9600.00
04373             -22.00     9600.00
04374             -30.00     9600.00
04375             -36.00     9200.00
04376             -34.00     9200.00
04377             -30.00     9000.00
04378             -22.00     8800.00
04379             -22.00     8800.00
04380             -24.00     8400.00
04381             -26.00     8400.00
04382             -26.00     8200.00
04383             -26.00     8200.00
04384             -24.00     8000.00
04385             -22.00     7800.00
04386             -22.00     7600.00
04387             -22.00     7600.00
04388             -22.00     7400.00
04389             -24.00     7400.00
04390             -26.00     7000.00
04391             -26.00     7000.00
04392             -14.00     6800.00
04393             -14.00     6600.00
04394             -24.00     6400.00
04395             -24.00     6200.00
04396             -16.00     6000.00
04397             -22.00     5800.00
04398             -14.00     5800.00
04399              -8.00     5600.00
04400             -14.00     5400.00
04401             -14.00     5200.00
04402             -24.00     5000.00
04403             -24.00     4800.00
04404             -14.00     4600.00
04405              -2.00     4400.00
04406              -6.00     4200.00
04407             -12.00     4000.00
04408             -26.00     4000.00
04409             -18.00     3600.00
04410               0.00     3600.00
04411               0.00     3400.00
04412             -16.00     3200.00
04413             -16.00     2800.00
04414             -10.00     2800.00
04415              -8.00     2600.00
04416              -6.00     2400.00
04417             -10.00     2200.00
04418              -8.00     2000.00
04419              -8.00     1800.00
04420              -8.00     1600.00
04421              -6.00     1600.00
04422              -2.00     1200.00
04423              -8.00     1200.00
04424              -8.00      800.00
04425              -6.00      400.00
04426              -8.00      200.00
04427               4.00      200.00
04428               6.00        0.00
04429               6.00        0.00
04430              24.00     -200.00
04431              10.00     -600.00
04432             -10.00     -600.00
04433             -10.00     -800.00
04434               6.00    -1000.00
04435              10.00    -1200.00
04436              40.00    -1400.00
04437             178.00    -1600.00
04438             246.00    -2200.00
04439            -168.00    -2400.00
04440            -254.00    -2400.00
04441            -176.00    -2800.00
04442             134.00    -2600.00
04443             148.00    -2800.00
04444             246.00    -3000.00
04445            -122.00    -3600.00
04446            -254.00    -3200.00
04447             210.00    -4000.00
04448              80.00    -3600.00
04449             -22.00    -3800.00
04450             -12.00    -4400.00
04451             -40.00    -4000.00
04452             130.00    -4800.00
04453             -40.00    -4600.00
04454             -80.00    -4800.00
04455             -18.00    -5200.00
04456              32.00    -5200.00
04457             134.00    -5600.00
04458             -50.00    -5400.00
04459             -42.00    -6000.00
04460              -4.00    -6200.00
04461              38.00    -6000.00
04462              72.00    -6400.00
04463             -38.00    -6200.00
04464               6.00    -6800.00
04465              10.00    -6800.00
04466              30.00    -7000.00
04467               0.00    -7200.00
04468             -24.00    -7200.00
04469              40.00    -7400.00
04470              22.00    -7600.00
04471              24.00    -7800.00
04472              -2.00    -7800.00
04473              -8.00    -8000.00
04474              40.00    -8400.00
04475              18.00    -8400.00
04476              -2.00    -8400.00
04477               8.00    -8600.00
04478              26.00    -8800.00
04479              26.00    -9200.00
04480              18.00    -9000.00
04481              14.00    -9200.00
04482               6.00    -9200.00
04483              22.00    -9400.00
04484              28.00    -9600.00
04485              22.00    -9400.00
04486              26.00    -9600.00
04487              10.00    -9800.00
04488              12.00   -10000.00
04489              22.00   -10200.00
04490              20.00   -10200.00
04491              36.00   -10400.00
04492              40.00   -10400.00
04493              18.00   -10400.00
04494               8.00   -10600.00
04495              14.00   -10800.00
04496              24.00   -10800.00
04497              38.00   -10800.00
04498              38.00   -11000.00
04499              24.00   -11000.00
04500              24.00   -11200.00
04501              24.00   -11200.00
04502              22.00   -11200.00
04503              34.00   -11400.00
04504              38.00   -11200.00
04505              34.00   -11400.00
04506              34.00   -11600.00
04507              26.00   -11600.00
04508              26.00   -11600.00
04509              38.00   -11800.00
04510              38.00   -11600.00
04511              36.00   -12000.00
04512              38.00   -11800.00
04513              38.00   -11800.00
04514              38.00   -11800.00
04515              40.00   -11800.00
04516              38.00   -11800.00
04517              46.00   -12000.00
04518              50.00   -12000.00
04519              48.00   -12000.00
04520              46.00   -12000.00
04521              46.00   -11800.00
04522              46.00   -12000.00
04523              56.00   -11800.00
04524              64.00   -12000.00
04525              62.00   -12000.00
04526              64.00   -12000.00
04527              64.00   -12000.00
04528              62.00   -12000.00
04529              72.00   -12000.00
04530              80.00   -11800.00
04531              86.00   -11800.00
04532              86.00   -11800.00
04533              74.00   -11800.00
04534              74.00   -11800.00
04535              80.00   -11600.00
04536              82.00   -11600.00
04537              82.00   -11600.00
04538              80.00   -11600.00
04539              72.00   -11400.00
04540              70.00   -11600.00
04541              64.00   -11400.00
04542              62.00   -11400.00
04543              64.00   -11200.00
04544              62.00   -11200.00
04545              56.00   -11200.00
04546              54.00   -11000.00
04547              48.00   -11000.00
04548              42.00   -11000.00
04549              40.00   -11000.00
04550              42.00   -10800.00
04551              42.00   -10800.00
04552              40.00   -10400.00
04553              36.00   -10400.00
04554              32.00   -10400.00
04555              30.00   -10200.00
04556              32.00   -10200.00
04557              30.00   -10200.00
04558              32.00   -10000.00
04559              30.00   -10000.00
04560              26.00    -9600.00
04561              22.00    -9600.00
04562              22.00    -9600.00
04563              22.00    -9400.00
04564              24.00    -9400.00
04565              26.00    -9200.00
04566              22.00    -9000.00
04567              20.00    -9000.00
04568              16.00    -8800.00
04569              16.00    -8800.00
04570              16.00    -8600.00
04571              20.00    -8400.00
04572              22.00    -8400.00
04573              16.00    -8200.00
04574              12.00    -8000.00
04575               8.00    -7800.00
04576              12.00    -7400.00
04577              18.00    -7400.00
04578              16.00    -7400.00
04579              16.00    -7200.00
04580              12.00    -7000.00
04581               8.00    -6800.00
04582               8.00    -6800.00
04583              10.00    -6400.00
04584              10.00    -6400.00
04585              10.00    -6200.00
04586              10.00    -6000.00
04587               8.00    -5800.00
04588               8.00    -5600.00
04589               8.00    -5400.00
04590               8.00    -5200.00
04591              10.00    -5000.00
04592              10.00    -4800.00
04593               8.00    -4800.00
04594               8.00    -4600.00
04595               6.00    -4400.00
04596               2.00    -4200.00
04597               6.00    -4000.00
04598               8.00    -3800.00
04599               6.00    -3800.00
04600               2.00    -3400.00
04601               0.00    -3200.00
04602               0.00    -3000.00
04603               6.00    -2800.00
04604               2.00    -2800.00
04605               6.00    -2400.00
04606               4.00    -2400.00
04607               0.00    -2200.00
04608               0.00    -2000.00
04609               0.00    -1800.00
04610               2.00    -1400.00
04611               2.00    -1200.00
04612               6.00    -1000.00
04613               0.00     -800.00
04614              -2.00     -800.00
04615              -2.00     -600.00
04616              -2.00     -400.00
04617               0.00     -200.00
04618               4.00        0.00
04619               2.00      200.00
04620               2.00      400.00
04621              14.00      600.00
04622              32.00      800.00
04623              14.00     1000.00
04624             -14.00     1200.00
04625             -10.00     1200.00
04626              10.00     1600.00
04627              26.00     1800.00
04628             178.00     2000.00
04629             246.00     2400.00
04630            -164.00     2400.00
04631            -254.00     2400.00
04632            -254.00     2800.00
04633              62.00     2800.00
04634             246.00     3200.00
04635             246.00     3400.00
04636            -254.00     3200.00
04637            -200.00     3600.00
04638             246.00     4000.00
04639            -118.00     4000.00
04640              42.00     4400.00
04641             -42.00     4400.00
04642             -72.00     4400.00
04643             218.00     4800.00
04644            -170.00     5000.00
04645            -110.00     5200.00
04646              54.00     5400.00
04647              26.00     5600.00
04648              46.00     5400.00
04649             -64.00     6000.00
04650             -28.00     6000.00
04651             -66.00     6000.00
04652              86.00     6600.00
04653              -8.00     6400.00
04654            -106.00     6600.00
04655              50.00     7000.00
04656             -36.00     6800.00
04657               8.00     7200.00
04658             -30.00     7400.00
04659             -58.00     7600.00
04660               8.00     7600.00
04661              22.00     8000.00
04662             -24.00     8000.00
04663             -40.00     8200.00
04664              14.00     8400.00
04665             -22.00     8400.00
04666              -6.00     8600.00
04667             -38.00     8800.00
04668             -48.00     8800.00
04669             -26.00     9200.00
04670              -8.00     9200.00
04671             -34.00     9400.00
04672             -26.00     9200.00
04673             -10.00     9800.00
04674             -24.00     9600.00
04675              16.00     9800.00
04676             -12.00    10000.00
04677             -30.00    10000.00
04678             -42.00    10400.00
04679             -58.00    10400.00
04680             -54.00    10400.00
04681             -10.00    10400.00
04682               2.00    10600.00
04683             -14.00    10600.00
04684             -18.00    10800.00
04685             -42.00    10800.00
04686             -38.00    10800.00
04687             -26.00    11200.00
04688             -32.00    11200.00
04689             -38.00    11200.00
04690             -34.00    11400.00
04691             -40.00    11600.00
04692             -26.00    11400.00
04693             -26.00    11800.00
04694             -38.00    11600.00
04695             -30.00    11800.00
04696             -26.00    11600.00
04697             -38.00    11800.00
04698             -46.00    12000.00
04699             -52.00    12000.00
04700             -56.00    12000.00
04701             -46.00    12000.00
04702             -34.00    12200.00
04703             -32.00    12200.00
04704             -32.00    12200.00
04705             -46.00    12200.00
04706             -50.00    12200.00
04707             -48.00    12200.00
04708             -54.00    12200.00
04709             -54.00    12400.00
04710             -56.00    12400.00
04711             -60.00    12400.00
04712             -56.00    12200.00
04713             -50.00    12400.00
04714             -54.00    12200.00
04715             -56.00    12200.00
04716             -66.00    12200.00
04717             -72.00    12200.00
04718             -74.00    12400.00
04719             -80.00    12200.00
04720             -82.00    12200.00
04721             -80.00    12200.00
04722             -80.00    12200.00
04723             -78.00    12200.00
04724             -74.00    12200.00
04725             -86.00    12200.00
04726             -96.00    12200.00
04727             -98.00    12000.00
04728             -90.00    12000.00
04729             -80.00    12000.00
04730             -74.00    12000.00
04731             -78.00    12000.00
04732             -78.00    11800.00
04733             -82.00    11600.00
04734             -72.00    11800.00
04735             -60.00    11600.00
04736             -54.00    11600.00
04737             -56.00    11600.00
04738             -58.00    11400.00
04739             -64.00    11400.00
04740             -62.00    11400.00
04741             -46.00    11200.00
04742             -38.00    11200.00
04743             -38.00    11000.00
04744             -46.00    10800.00
04745             -48.00    10800.00
04746             -42.00    10800.00
04747             -38.00    10600.00
04748             -32.00    10400.00
04749             -32.00    10400.00
04750             -34.00    10400.00
04751             -32.00    10200.00
04752             -34.00    10000.00
04753             -34.00     9800.00
04754             -32.00     9800.00
04755             -30.00     9800.00
04756             -24.00     9600.00
04757             -26.00     9600.00
04758             -30.00     9400.00
04759             -34.00     9200.00
04760             -32.00     9200.00
04761             -26.00     8800.00
04762             -22.00     8800.00
04763             -18.00     8600.00
04764             -26.00     8400.00
04765             -30.00     8400.00
04766             -26.00     8200.00
04767             -24.00     8000.00
04768             -18.00     8000.00
04769             -18.00     7600.00
04770             -20.00     7600.00
04771             -18.00     7400.00
04772             -18.00     7200.00
04773             -24.00     7000.00
04774             -24.00     6800.00
04775             -22.00     6600.00
04776             -16.00     6600.00
04777             -14.00     6400.00
04778             -16.00     6400.00
04779             -18.00     6400.00
04780             -18.00     5800.00
04781             -16.00     5800.00
04782             -14.00     5600.00
04783             -10.00     5400.00
04784             -14.00     5200.00
04785             -18.00     5000.00
04786             -22.00     5000.00
04787             -18.00     4600.00
04788             -10.00     4400.00
04789              -8.00     4200.00
04790             -10.00     4000.00
04791             -14.00     4000.00
04792             -16.00     3600.00
04793             -14.00     3600.00
04794             -10.00     3400.00
04795             -10.00     3200.00
04796              -6.00     3000.00
04797              -8.00     2800.00
04798             -10.00     2600.00
04799             -10.00     2400.00
04800             -10.00     2400.00
04801             -10.00     2000.00
04802              -6.00     1800.00
04803              -2.00     1600.00
04804              -6.00     1400.00
04805              -6.00     1200.00
04806             -10.00     1000.00
04807              -8.00      800.00
04808              -6.00      800.00
04809               0.00      400.00
04810               0.00      400.00
04811               0.00      200.00
04812               2.00     -200.00
04813              26.00     -400.00
04814              26.00     -400.00
04815              -6.00     -600.00
04816             -18.00     -800.00
04817               0.00    -1000.00
04818              16.00    -1200.00
04819              24.00    -1200.00
04820             120.00    -1400.00
04821             246.00    -2000.00
04822             -10.00    -2400.00
04823            -254.00    -2400.00
04824            -254.00    -2800.00
04825              82.00    -2600.00
04826             118.00    -2600.00
04827             246.00    -3000.00
04828              82.00    -3200.00
04829            -254.00    -3200.00
04830              88.00    -3600.00
04831             170.00    -3800.00
04832             -50.00    -3600.00
04833              10.00    -4400.00
04834             -62.00    -4000.00
04835             112.00    -4600.00
04836              32.00    -4800.00
04837            -108.00    -4800.00
04838             -24.00    -5200.00
04839             -12.00    -5000.00
04840             136.00    -5400.00
04841               8.00    -5400.00
04842             -70.00    -5600.00
04843               0.00    -6000.00
04844               8.00    -6000.00
04845              80.00    -6400.00
04846             -16.00    -6200.00
04847             -14.00    -6600.00
04848              16.00    -6800.00
04849              18.00    -6800.00
04850              22.00    -7200.00
04851             -32.00    -7200.00
04852              30.00    -7600.00
04853              30.00    -7400.00
04854              18.00    -7600.00
04855              14.00    -8000.00
04856             -16.00    -7800.00
04857              30.00    -8400.00
04858              30.00    -8400.00
04859              -2.00    -8400.00
04860               2.00    -8600.00
04861              24.00    -8600.00
04862              26.00    -9000.00
04863              18.00    -9000.00
04864              16.00    -9200.00
04865               6.00    -9200.00
04866              20.00    -9400.00
04867              30.00    -9400.00
04868              14.00    -9600.00
04869              22.00    -9600.00
04870              18.00    -9800.00
04871              14.00   -10000.00
04872              22.00   -10200.00
04873              16.00   -10200.00
04874              24.00   -10200.00
04875              40.00   -10400.00
04876              22.00   -10400.00
04877              12.00   -10600.00
04878              18.00   -10800.00
04879              22.00   -10800.00
04880              30.00   -11000.00
04881              38.00   -11000.00
04882              26.00   -11000.00
04883              26.00   -11000.00
04884              30.00   -11200.00
04885              22.00   -11200.00
04886              30.00   -11200.00
04887              34.00   -11200.00
04888              32.00   -11600.00
04889              38.00   -11600.00
04890              32.00   -11600.00
04891              24.00   -11600.00
04892              32.00   -11600.00
04893              34.00   -11600.00
04894              38.00   -11800.00
04895              42.00   -11800.00
04896              40.00   -11800.00
04897              32.00   -11800.00
04898              38.00   -12000.00
04899              38.00   -12000.00
04900              38.00   -12000.00
04901              50.00   -11800.00
04902              50.00   -12000.00
04903              48.00   -11800.00
04904              46.00   -12000.00
04905              46.00   -12000.00
04906              54.00   -11800.00
04907              58.00   -11800.00
04908              64.00   -11800.00
04909              64.00   -12000.00
04910              64.00   -12000.00
04911              64.00   -11800.00
04912              66.00   -12000.00
04913              74.00   -12000.00
04914              80.00   -11800.00
04915              86.00   -11800.00
04916              80.00   -11800.00
04917              78.00   -11600.00
04918              78.00   -11800.00
04919              74.00   -11600.00
04920              80.00   -11600.00
04921              82.00   -11600.00
04922              78.00   -11400.00
04923              70.00   -11600.00
04924              64.00   -11400.00
04925              62.00   -11600.00
04926              58.00   -11200.00
04927              58.00   -11200.00
04928              58.00   -11200.00
04929              56.00   -11200.00
04930              54.00   -11000.00
04931              46.00   -11000.00
04932              38.00   -10800.00
04933              40.00   -10800.00
04934              40.00   -10600.00
04935              46.00   -10800.00
04936              40.00   -10800.00
04937              32.00   -10400.00
04938              26.00   -10200.00
04939              30.00   -10200.00
04940              32.00   -10200.00
04941              32.00   -10000.00
04942              32.00   -10000.00
04943              28.00    -9800.00
04944              22.00    -9600.00
04945              20.00    -9600.00
04946              20.00    -9400.00
04947              24.00    -9200.00
04948              26.00    -9000.00
04949              26.00    -9200.00
04950              22.00    -8800.00
04951              14.00    -8800.00
04952              16.00    -8800.00
04953              18.00    -8600.00
04954              24.00    -8400.00
04955              22.00    -8400.00
04956              18.00    -8000.00
04957              12.00    -8000.00
04958              10.00    -7800.00
04959              14.00    -7600.00
04960              16.00    -7400.00
04961              16.00    -7200.00
04962              18.00    -7200.00
04963              14.00    -7000.00
04964               8.00    -7000.00
04965               8.00    -6800.00
04966              10.00    -6800.00
04967              12.00    -6400.00
04968              16.00    -6200.00
04969              14.00    -6200.00
04970               6.00    -6000.00
04971               6.00    -6000.00
04972              10.00    -5600.00
04973               8.00    -5400.00
04974               6.00    -5200.00
04975               8.00    -5000.00
04976               6.00    -4800.00
04977              14.00    -4600.00
04978               2.00    -4400.00
04979              -2.00    -4400.00
04980               8.00    -4000.00
04981              10.00    -3800.00
04982              10.00    -3600.00
04983               0.00    -3400.00
04984               0.00    -3200.00
04985               8.00    -3200.00
04986               8.00    -3000.00
04987               0.00    -2800.00
04988               0.00    -2600.00
04989               8.00    -2200.00
04990               6.00    -2200.00
04991               0.00    -2200.00
04992              -6.00    -2000.00
04993               0.00    -1600.00
04994               8.00    -1600.00
04995               2.00    -1200.00
04996               0.00    -1000.00
04997               2.00     -800.00
04998              -2.00     -600.00
04999              -2.00     -400.00
05000               0.00     -200.00
