Unit:(mV)
                     CH1         CH2
Frequency              ? 260.804 kHz
00001               0.00    -3200.00
00002               6.00    -3000.00
00003              14.00    -2800.00
00004               6.00    -2400.00
00005               0.00    -2400.00
00006              -6.00    -2200.00
00007              -2.00    -2000.00
00008               6.00    -1600.00
00009               2.00    -1600.00
00010               0.00    -1200.00
00011               0.00    -1200.00
00012               0.00     -800.00
00013               0.00     -800.00
00014               0.00     -600.00
00015              -2.00     -400.00
00016              -2.00        0.00
00017              -2.00      200.00
00018               0.00      200.00
00019               6.00      400.00
00020              22.00      800.00
00021              32.00      800.00
00022               2.00     1000.00
00023             -24.00     1200.00
00024             -12.00     1400.00
00025              14.00     1600.00
00026              50.00     1600.00
00027             246.00     2000.00
00028             246.00     2400.00
00029            -254.00     2400.00
00030            -254.00     2600.00
00031            -146.00     2800.00
00032             184.00     3000.00
00033             246.00     3200.00
00034             240.00     3400.00
00035            -254.00     3200.00
00036             -38.00     3800.00
00037             246.00     4000.00
00038             -66.00     4000.00
00039             114.00     4400.00
00040            -202.00     4400.00
00041             -32.00     4600.00
00042             224.00     4800.00
00043            -158.00     5200.00
00044            -100.00     5400.00
00045              -6.00     5400.00
00046              88.00     5800.00
00047              24.00     5600.00
00048             -54.00     6000.00
00049             -58.00     6200.00
00050             -94.00     6200.00
00051             138.00     6800.00
00052             -38.00     6400.00
00053             -80.00     6800.00
00054              12.00     7200.00
00055             -38.00     7200.00
00056              18.00     7400.00
00057             -38.00     7600.00
00058             -46.00     7600.00
00059              -8.00     8000.00
00060              40.00     8200.00
00061             -52.00     8200.00
00062             -48.00     8400.00
00063              -2.00     8600.00
00064             -24.00     8400.00
00065               0.00     8800.00
00066             -30.00     9000.00
00067             -50.00     9200.00
00068             -24.00     9200.00
00069              16.00     9400.00
00070             -32.00     9600.00
00071             -14.00     9800.00
00072             -40.00     9800.00
00073             -46.00     9800.00
00074               0.00    10200.00
00075             -16.00    10000.00
00076             -22.00    10400.00
00077             -24.00    10400.00
00078             -40.00    10400.00
00079             -46.00    10600.00
00080              -2.00    10800.00
00081             -10.00    10800.00
00082             -26.00    10800.00
00083             -26.00    11000.00
00084             -48.00    11000.00
00085             -34.00    11200.00
00086             -10.00    11400.00
00087             -22.00    11400.00
00088             -24.00    11600.00
00089             -22.00    11800.00
00090             -40.00    11800.00
00091             -26.00    11800.00
00092             -26.00    11800.00
00093             -34.00    12000.00
00094             -22.00    12000.00
00095             -18.00    12000.00
00096             -32.00    12000.00
00097             -34.00    12000.00
00098             -34.00    12200.00
00099             -38.00    12200.00
00100             -24.00    12200.00
00101             -22.00    12200.00
00102             -26.00    12400.00
00103             -30.00    12400.00
00104             -38.00    12400.00
00105             -38.00    12400.00
00106             -28.00    12600.00
00107             -26.00    12600.00
00108             -26.00    12400.00
00109             -24.00    12600.00
00110             -36.00    12400.00
00111             -40.00    12400.00
00112             -34.00    12600.00
00113             -32.00    12400.00
00114             -26.00    12400.00
00115             -24.00    12400.00
00116             -28.00    12600.00
00117             -34.00    12600.00
00118             -34.00    12600.00
00119             -40.00    12400.00
00120             -32.00    12400.00
00121             -22.00    12400.00
00122             -24.00    12400.00
00123             -32.00    12400.00
00124             -34.00    12400.00
00125             -38.00    12200.00
00126             -32.00    12200.00
00127             -26.00    12400.00
00128             -26.00    12200.00
00129             -26.00    12200.00
00130             -26.00    12200.00
00131             -38.00    12000.00
00132             -34.00    12000.00
00133             -28.00    12000.00
00134             -24.00    11800.00
00135             -22.00    11800.00
00136             -28.00    11800.00
00137             -34.00    11800.00
00138             -32.00    11600.00
00139             -32.00    11400.00
00140             -26.00    11400.00
00141             -26.00    11400.00
00142             -24.00    11200.00
00143             -26.00    11000.00
00144             -28.00    11000.00
00145             -32.00    10800.00
00146             -30.00    10600.00
00147             -24.00    10800.00
00148             -24.00    10600.00
00149             -22.00    10400.00
00150             -24.00    10400.00
00151             -30.00    10400.00
00152             -32.00    10200.00
00153             -26.00    10000.00
00154             -22.00     9800.00
00155             -16.00     9800.00
00156             -24.00     9600.00
00157             -30.00     9400.00
00158             -26.00     9200.00
00159             -24.00     9200.00
00160             -20.00     9000.00
00161             -22.00     9000.00
00162             -22.00     8800.00
00163             -22.00     8800.00
00164             -24.00     8400.00
00165             -26.00     8200.00
00166             -24.00     8200.00
00167             -18.00     8000.00
00168             -16.00     8000.00
00169             -22.00     7600.00
00170             -22.00     7600.00
00171             -22.00     7400.00
00172             -22.00     7200.00
00173             -22.00     7000.00
00174             -22.00     6800.00
00175             -16.00     6600.00
00176             -16.00     6400.00
00177             -20.00     6400.00
00178             -24.00     6400.00
00179             -18.00     6000.00
00180             -14.00     6000.00
00181             -14.00     5600.00
00182             -14.00     5400.00
00183             -18.00     5200.00
00184             -18.00     5200.00
00185             -18.00     5000.00
00186             -18.00     4600.00
00187             -14.00     4600.00
00188              -8.00     4400.00
00189             -10.00     4200.00
00190             -16.00     4000.00
00191             -14.00     3800.00
00192             -12.00     3600.00
00193             -10.00     3400.00
00194             -10.00     3200.00
00195             -10.00     3000.00
00196             -10.00     2800.00
00197             -10.00     2600.00
00198             -14.00     2400.00
00199             -10.00     2000.00
00200              -6.00     2000.00
00201              -2.00     1800.00
00202              -2.00     1600.00
00203             -10.00     1600.00
00204             -10.00     1200.00
00205              -4.00     1000.00
00206              -8.00      800.00
00207              -6.00      800.00
00208               0.00      400.00
00209               2.00      200.00
00210               0.00      200.00
00211               4.00        0.00
00212              26.00     -400.00
00213              26.00     -400.00
00214              -8.00     -600.00
00215             -22.00     -800.00
00216               2.00    -1000.00
00217              18.00    -1200.00
00218              40.00    -1400.00
00219             156.00    -1600.00
00220             246.00    -2000.00
00221            -130.00    -2400.00
00222            -254.00    -2400.00
00223            -224.00    -2600.00
00224             154.00    -2800.00
00225             194.00    -2800.00
00226             246.00    -3000.00
00227            -112.00    -3600.00
00228            -254.00    -3200.00
00229             200.00    -3800.00
00230             142.00    -3800.00
00231               0.00    -3800.00
00232             -16.00    -4600.00
00233             -98.00    -4000.00
00234             138.00    -4800.00
00235              38.00    -4800.00
00236             -90.00    -5000.00
00237             -72.00    -5200.00
00238              30.00    -5200.00
00239             168.00    -5600.00
00240             -34.00    -5400.00
00241             -48.00    -6000.00
00242             -32.00    -6200.00
00243              22.00    -6200.00
00244             118.00    -6600.00
00245             -30.00    -6200.00
00246             -26.00    -6800.00
00247               2.00    -7000.00
00248              42.00    -7000.00
00249              20.00    -7600.00
00250             -16.00    -7400.00
00251              22.00    -7800.00
00252              14.00    -7600.00
00253              40.00    -8000.00
00254               0.00    -8200.00
00255             -16.00    -8000.00
00256              38.00    -8400.00
00257              20.00    -8600.00
00258               6.00    -8800.00
00259              12.00    -8600.00
00260              14.00    -9000.00
00261              26.00    -9200.00
00262              30.00    -9200.00
00263              10.00    -9400.00
00264               6.00    -9400.00
00265              22.00    -9600.00
00266              22.00    -9600.00
00267              18.00   -10000.00
00268              30.00   -10000.00
00269              10.00   -10200.00
00270              14.00   -10200.00
00271              22.00   -10200.00
00272              14.00   -10400.00
00273              30.00   -10400.00
00274              34.00   -10400.00
00275              18.00   -10800.00
00276              16.00   -10800.00
00277              14.00   -11000.00
00278              16.00   -11000.00
00279              32.00   -11200.00
00280              32.00   -11000.00
00281              18.00   -11200.00
00282              22.00   -11400.00
00283              18.00   -11400.00
00284              14.00   -11600.00
00285              28.00   -11600.00
00286              24.00   -11600.00
00287              24.00   -11600.00
00288              32.00   -11800.00
00289              16.00   -11800.00
00290              16.00   -12000.00
00291              24.00   -11800.00
00292              24.00   -12000.00
00293              26.00   -12000.00
00294              26.00   -12000.00
00295              22.00   -12000.00
00296              22.00   -12000.00
00297              24.00   -12200.00
00298              16.00   -12200.00
00299              24.00   -12000.00
00300              32.00   -12000.00
00301              30.00   -12200.00
00302              22.00   -12200.00
00303              16.00   -12200.00
00304              14.00   -12400.00
00305              30.00   -12200.00
00306              30.00   -12200.00
00307              24.00   -12200.00
00308              26.00   -12000.00
00309              22.00   -12200.00
00310              18.00   -12200.00
00311              20.00   -12000.00
00312              24.00   -12000.00
00313              26.00   -12000.00
00314              26.00   -12000.00
00315              22.00   -12000.00
00316              22.00   -12000.00
00317              20.00   -12000.00
00318              18.00   -11800.00
00319              24.00   -11800.00
00320              28.00   -11800.00
00321              30.00   -11800.00
00322              24.00   -11800.00
00323              18.00   -11600.00
00324              16.00   -11600.00
00325              20.00   -11600.00
00326              28.00   -11600.00
00327              26.00   -11600.00
00328              24.00   -11400.00
00329              18.00   -11200.00
00330              16.00   -11200.00
00331              16.00   -11200.00
00332              24.00   -11000.00
00333              26.00   -11000.00
00334              24.00   -10800.00
00335              22.00   -10800.00
00336              16.00   -10600.00
00337              16.00   -10600.00
00338              24.00   -10400.00
00339              22.00   -10400.00
00340              24.00   -10200.00
00341              24.00   -10000.00
00342              20.00   -10000.00
00343              16.00    -9600.00
00344              14.00    -9600.00
00345              14.00    -9600.00
00346              22.00    -9600.00
00347              24.00    -9400.00
00348              20.00    -9200.00
00349              16.00    -9000.00
00350              10.00    -9000.00
00351              16.00    -8800.00
00352              22.00    -8800.00
00353              22.00    -8400.00
00354              16.00    -8400.00
00355              16.00    -8400.00
00356              10.00    -8000.00
00357              14.00    -8000.00
00358              16.00    -7800.00
00359              16.00    -7600.00
00360              16.00    -7400.00
00361              14.00    -7400.00
00362              10.00    -7200.00
00363              12.00    -7000.00
00364              10.00    -7000.00
00365              12.00    -6600.00
00366              14.00    -6400.00
00367              14.00    -6400.00
00368              14.00    -6000.00
00369               8.00    -6000.00
00370               4.00    -6000.00
00371               8.00    -5600.00
00372              12.00    -5400.00
00373               8.00    -5200.00
00374               8.00    -5200.00
00375               8.00    -5000.00
00376               6.00    -4600.00
00377               4.00    -4600.00
00378               4.00    -4400.00
00379               8.00    -4000.00
00380              10.00    -3800.00
00381               6.00    -3800.00
00382               2.00    -3600.00
00383               2.00    -3400.00
00384               2.00    -3000.00
00385               2.00    -3000.00
00386               2.00    -2800.00
00387               6.00    -2600.00
00388               8.00    -2400.00
00389               4.00    -2200.00
00390              -2.00    -2200.00
00391              -2.00    -2000.00
00392               0.00    -1600.00
00393               2.00    -1600.00
00394               2.00    -1000.00
00395               0.00    -1000.00
00396              -2.00     -800.00
00397              -2.00     -600.00
00398              -2.00     -400.00
00399               2.00     -400.00
00400               0.00        0.00
00401               2.00      200.00
00402               0.00      400.00
00403               8.00      600.00
00404              32.00      800.00
00405              16.00      800.00
00406             -16.00     1200.00
00407             -20.00     1200.00
00408               4.00     1600.00
00409              26.00     1600.00
00410             138.00     2000.00
00411             246.00     2400.00
00412             -66.00     2600.00
00413            -254.00     2400.00
00414            -254.00     2600.00
00415              64.00     2800.00
00416             246.00     3200.00
00417             246.00     3600.00
00418            -254.00     3400.00
00419            -254.00     3600.00
00420             246.00     4000.00
00421              26.00     4000.00
00422              40.00     4200.00
00423             -26.00     4400.00
00424            -224.00     4400.00
00425             224.00     4800.00
00426              -6.00     5000.00
00427            -170.00     5400.00
00428             -24.00     5400.00
00429              34.00     5800.00
00430              74.00     5600.00
00431             -56.00     5800.00
00432             -16.00     6400.00
00433            -102.00     6000.00
00434              62.00     6600.00
00435              58.00     6600.00
00436            -144.00     6600.00
00437               6.00     7000.00
00438             -10.00     7200.00
00439              14.00     7400.00
00440             -12.00     7400.00
00441             -66.00     7800.00
00442             -34.00     7800.00
00443              34.00     8000.00
00444              -2.00     8200.00
00445             -72.00     8200.00
00446              -8.00     8400.00
00447             -26.00     8600.00
00448              -6.00     8800.00
00449             -10.00     9000.00
00450             -38.00     9000.00
00451             -44.00     9200.00
00452               6.00     9400.00
00453             -22.00     9600.00
00454             -26.00     9600.00
00455              -8.00     9800.00
00456             -56.00     9800.00
00457             -18.00    10000.00
00458             -14.00    10000.00
00459             -26.00    10200.00
00460             -18.00    10400.00
00461             -26.00    10400.00
00462             -46.00    10600.00
00463             -16.00    10600.00
00464              -6.00    10800.00
00465             -32.00    10800.00
00466             -24.00    11000.00
00467             -38.00    11200.00
00468             -40.00    11000.00
00469             -18.00    11400.00
00470             -16.00    11400.00
00471             -26.00    11800.00
00472             -20.00    11400.00
00473             -34.00    11800.00
00474             -32.00    11800.00
00475             -22.00    11800.00
00476             -32.00    12000.00
00477             -30.00    12000.00
00478             -22.00    12000.00
00479             -26.00    12000.00
00480             -32.00    12200.00
00481             -26.00    12200.00
00482             -32.00    12200.00
00483             -26.00    12200.00
00484             -20.00    12200.00
00485             -32.00    12400.00
00486             -32.00    12400.00
00487             -32.00    12400.00
00488             -36.00    12400.00
00489             -26.00    12400.00
00490             -26.00    12400.00
00491             -32.00    12400.00
00492             -28.00    12400.00
00493             -30.00    12600.00
00494             -34.00    12600.00
00495             -32.00    12400.00
00496             -32.00    12400.00
00497             -32.00    12400.00
00498             -24.00    12600.00
00499             -26.00    12600.00
00500             -34.00    12400.00
00501             -38.00    12600.00
00502             -34.00    12400.00
00503             -30.00    12600.00
00504             -20.00    12400.00
00505             -26.00    12400.00
00506             -34.00    12400.00
00507             -34.00    12200.00
00508             -34.00    12400.00
00509             -32.00    12400.00
00510             -26.00    12200.00
00511             -26.00    12000.00
00512             -24.00    12200.00
00513             -26.00    12200.00
00514             -36.00    12000.00
00515             -40.00    12000.00
00516             -32.00    12000.00
00517             -24.00    12000.00
00518             -22.00    11800.00
00519             -26.00    11800.00
00520             -30.00    11800.00
00521             -32.00    11600.00
00522             -30.00    11400.00
00523             -30.00    11400.00
00524             -32.00    11400.00
00525             -26.00    11200.00
00526             -24.00    11200.00
00527             -22.00    11200.00
00528             -32.00    10800.00
00529             -38.00    10800.00
00530             -30.00    10800.00
00531             -22.00    10600.00
00532             -10.00    10400.00
00533             -16.00    10400.00
00534             -30.00    10400.00
00535             -36.00    10200.00
00536             -38.00    10000.00
00537             -24.00     9800.00
00538             -10.00     9800.00
00539             -16.00     9800.00
00540             -26.00     9600.00
00541             -30.00     9400.00
00542             -28.00     9200.00
00543             -24.00     9200.00
00544             -20.00     9000.00
00545             -20.00     8800.00
00546             -18.00     8600.00
00547             -26.00     8600.00
00548             -26.00     8400.00
00549             -22.00     8200.00
00550             -16.00     8000.00
00551             -16.00     8000.00
00552             -24.00     7800.00
00553             -26.00     7600.00
00554             -16.00     7600.00
00555             -22.00     7400.00
00556             -22.00     7200.00
00557             -18.00     6800.00
00558             -16.00     6800.00
00559             -16.00     6600.00
00560             -18.00     6400.00
00561             -24.00     6000.00
00562             -18.00     6000.00
00563             -12.00     6000.00
00564             -16.00     5800.00
00565             -18.00     5600.00
00566             -16.00     5400.00
00567             -14.00     5200.00
00568             -14.00     5000.00
00569             -20.00     4800.00
00570             -16.00     4400.00
00571              -8.00     4400.00
00572             -10.00     4200.00
00573             -14.00     4200.00
00574             -16.00     4000.00
00575             -18.00     3600.00
00576             -14.00     3400.00
00577              -8.00     3200.00
00578              -8.00     3200.00
00579             -10.00     3000.00
00580             -10.00     2600.00
00581             -14.00     2600.00
00582             -10.00     2400.00
00583              -6.00     2000.00
00584              -2.00     2000.00
00585              -4.00     1800.00
00586             -10.00     1600.00
00587             -10.00     1200.00
00588             -10.00     1200.00
00589             -10.00      800.00
00590              -6.00      800.00
00591               2.00      600.00
00592               6.00      400.00
00593               2.00      200.00
00594              -2.00        0.00
00595              14.00     -200.00
00596              34.00     -400.00
00597               8.00     -600.00
00598             -18.00     -800.00
00599             -10.00     -800.00
00600              10.00     -800.00
00601              22.00    -1200.00
00602              90.00    -1400.00
00603             246.00    -1600.00
00604             102.00    -2400.00
00605            -254.00    -2400.00
00606            -254.00    -2800.00
00607              46.00    -2800.00
00608             190.00    -2800.00
00609             246.00    -2800.00
00610             190.00    -3400.00
00611            -254.00    -3400.00
00612             -48.00    -3600.00
00613             246.00    -4000.00
00614              -6.00    -3600.00
00615              38.00    -4200.00
00616            -112.00    -4200.00
00617              38.00    -4400.00
00618             130.00    -5000.00
00619             -72.00    -4600.00
00620             -72.00    -5200.00
00621             -40.00    -5200.00
00622             150.00    -5600.00
00623              62.00    -5600.00
00624             -80.00    -5600.00
00625             -18.00    -6200.00
00626             -30.00    -6000.00
00627             112.00    -6400.00
00628              38.00    -6400.00
00629             -48.00    -6400.00
00630               0.00    -7000.00
00631              22.00    -6800.00
00632              42.00    -7200.00
00633             -18.00    -7200.00
00634              14.00    -7600.00
00635              18.00    -7800.00
00636              30.00    -7800.00
00637              30.00    -8200.00
00638             -30.00    -8000.00
00639              18.00    -8600.00
00640              34.00    -8400.00
00641              10.00    -8600.00
00642              10.00    -8800.00
00643              10.00    -8800.00
00644              16.00    -9200.00
00645              30.00    -9200.00
00646              16.00    -9400.00
00647               2.00    -9400.00
00648              18.00    -9600.00
00649              24.00    -9600.00
00650              18.00    -9800.00
00651              24.00    -9800.00
00652              16.00   -10000.00
00653               8.00   -10200.00
00654              24.00   -10200.00
00655              14.00   -10400.00
00656              22.00   -10600.00
00657              38.00   -10400.00
00658              22.00   -10800.00
00659              12.00   -10800.00
00660              14.00   -10800.00
00661              16.00   -11000.00
00662              26.00   -11000.00
00663              34.00   -11200.00
00664              22.00   -11200.00
00665              22.00   -11200.00
00666              22.00   -11400.00
00667              16.00   -11400.00
00668              22.00   -11600.00
00669              28.00   -11600.00
00670              24.00   -11600.00
00671              32.00   -11800.00
00672              24.00   -11600.00
00673              14.00   -11800.00
00674              22.00   -12000.00
00675              22.00   -11800.00
00676              24.00   -12000.00
00677              32.00   -12000.00
00678              28.00   -12000.00
00679              22.00   -12000.00
00680              22.00   -12000.00
00681              18.00   -12000.00
00682              22.00   -12200.00
00683              32.00   -12000.00
00684              28.00   -12000.00
00685              24.00   -12200.00
00686              18.00   -12000.00
00687              14.00   -12200.00
00688              22.00   -12000.00
00689              30.00   -12200.00
00690              30.00   -12000.00
00691              26.00   -12000.00
00692              26.00   -12200.00
00693              16.00   -12200.00
00694              20.00   -12200.00
00695              22.00   -12000.00
00696              24.00   -12000.00
00697              26.00   -12000.00
00698              24.00   -12000.00
00699              22.00   -12000.00
00700              20.00   -12000.00
00701              18.00   -12000.00
00702              20.00   -12000.00
00703              26.00   -12000.00
00704              30.00   -11800.00
00705              24.00   -11800.00
00706              20.00   -11600.00
00707              16.00   -11800.00
00708              16.00   -11600.00
00709              24.00   -11600.00
00710              30.00   -11400.00
00711              22.00   -11400.00
00712              22.00   -11200.00
00713              18.00   -11200.00
00714              20.00   -11200.00
00715              22.00   -11000.00
00716              24.00   -11000.00
00717              22.00   -11000.00
00718              22.00   -10800.00
00719              16.00   -10600.00
00720              16.00   -10400.00
00721              20.00   -10400.00
00722              18.00   -10400.00
00723              22.00   -10200.00
00724              26.00   -10000.00
00725              22.00   -10000.00
00726              16.00   -10000.00
00727              14.00   -10000.00
00728              16.00    -9600.00
00729              22.00    -9600.00
00730              24.00    -9400.00
00731              22.00    -9200.00
00732              18.00    -9200.00
00733              14.00    -9000.00
00734              16.00    -8800.00
00735              18.00    -8800.00
00736              18.00    -8600.00
00737              20.00    -8400.00
00738              16.00    -8400.00
00739              14.00    -8200.00
00740              14.00    -7800.00
00741              16.00    -7800.00
00742              16.00    -7600.00
00743              16.00    -7600.00
00744              14.00    -7400.00
00745              16.00    -7200.00
00746              16.00    -7200.00
00747              10.00    -6800.00
00748              10.00    -6800.00
00749              14.00    -6600.00
00750              14.00    -6400.00
00751              16.00    -6400.00
00752              14.00    -6000.00
00753               8.00    -6000.00
00754               6.00    -5600.00
00755               8.00    -5600.00
00756              10.00    -5400.00
00757              12.00    -5200.00
00758              10.00    -4800.00
00759               6.00    -4800.00
00760               2.00    -4600.00
00761               0.00    -4400.00
00762               6.00    -4200.00
00763              10.00    -4000.00
00764              10.00    -3800.00
00765               4.00    -3600.00
00766               0.00    -3600.00
00767               0.00    -3200.00
00768               6.00    -3200.00
00769               6.00    -2800.00
00770               0.00    -2800.00
00771               2.00    -2400.00
00772               0.00    -2400.00
00773               0.00    -2200.00
00774               2.00    -2000.00
00775               0.00    -1600.00
00776              -2.00    -1400.00
00777              -4.00    -1200.00
00778               0.00    -1000.00
00779               6.00    -1000.00
00780               0.00     -800.00
00781               0.00     -600.00
00782               0.00     -400.00
00783              -2.00        0.00
00784              -2.00      200.00
00785               0.00      200.00
00786               8.00      400.00
00787              30.00      600.00
00788              28.00      800.00
00789              -8.00     1000.00
00790             -26.00     1200.00
00791              -2.00     1400.00
00792              24.00     1600.00
00793              66.00     1800.00
00794             246.00     2200.00
00795             178.00     2400.00
00796            -254.00     2400.00
00797            -254.00     2600.00
00798             -64.00     2800.00
00799             244.00     2800.00
00800             246.00     3400.00
00801              30.00     3400.00
00802            -254.00     3200.00
00803             126.00     4000.00
00804             246.00     4000.00
00805             -58.00     4200.00
00806              96.00     4600.00
00807            -248.00     4400.00
00808              56.00     4600.00
00809             182.00     5000.00
00810            -178.00     5200.00
00811             -68.00     5400.00
00812               2.00     5600.00
00813              94.00     5800.00
00814             -10.00     5600.00
00815             -42.00     6000.00
00816             -72.00     6000.00
00817             -54.00     6400.00
00818             142.00     6600.00
00819             -82.00     6600.00
00820             -50.00     6800.00
00821               6.00     7200.00
00822             -26.00     7200.00
00823              10.00     7400.00
00824             -54.00     7600.00
00825             -42.00     7600.00
00826              14.00     7600.00
00827              38.00     8200.00
00828             -70.00     8200.00
00829             -42.00     8400.00
00830             -14.00     8800.00
00831             -20.00     8800.00
00832               0.00     8800.00
00833             -34.00     8800.00
00834             -54.00     9200.00
00835             -16.00     9200.00
00836              16.00     9400.00
00837             -36.00     9400.00
00838             -18.00     9800.00
00839             -54.00     9800.00
00840             -32.00     9800.00
00841               8.00    10200.00
00842             -26.00    10200.00
00843             -38.00    10200.00
00844             -22.00    10400.00
00845             -24.00    10400.00
00846             -32.00    10400.00
00847             -16.00    10800.00
00848             -34.00    10800.00
00849             -16.00    10800.00
00850              -4.00    11200.00
00851             -34.00    11200.00
00852             -46.00    11200.00
00853             -34.00    11400.00
00854             -32.00    11400.00
00855             -10.00    11400.00
00856              -6.00    11800.00
00857             -30.00    11600.00
00858             -30.00    11800.00
00859             -38.00    11800.00
00860             -40.00    12000.00
00861             -22.00    12000.00
00862             -16.00    12000.00
00863             -24.00    12000.00
00864             -24.00    12000.00
00865             -34.00    12200.00
00866             -42.00    12200.00
00867             -24.00    12200.00
00868             -18.00    12200.00
00869             -24.00    12200.00
00870             -30.00    12400.00
00871             -38.00    12400.00
00872             -34.00    12400.00
00873             -18.00    12400.00
00874             -24.00    12600.00
00875             -24.00    12400.00
00876             -26.00    12600.00
00877             -38.00    12600.00
00878             -40.00    12600.00
00879             -30.00    12600.00
00880             -26.00    12400.00
00881             -22.00    12600.00
00882             -26.00    12400.00
00883             -40.00    12400.00
00884             -38.00    12600.00
00885             -32.00    12400.00
00886             -26.00    12600.00
00887             -22.00    12400.00
00888             -28.00    12400.00
00889             -34.00    12400.00
00890             -26.00    12400.00
00891             -32.00    12400.00
00892             -32.00    12400.00
00893             -32.00    12400.00
00894             -28.00    12200.00
00895             -26.00    12200.00
00896             -20.00    12000.00
00897             -34.00    12000.00
00898             -48.00    12000.00
00899             -40.00    12000.00
00900             -30.00    11800.00
00901             -16.00    12000.00
00902             -18.00    11800.00
00903             -26.00    11600.00
00904             -30.00    11600.00
00905             -32.00    11400.00
00906             -40.00    11400.00
00907             -38.00    11400.00
00908             -32.00    11200.00
00909             -14.00    11200.00
00910              -4.00    11400.00
00911             -24.00    10800.00
00912             -52.00    10800.00
00913             -48.00    10800.00
00914             -16.00    10600.00
00915               6.00    10600.00
00916             -10.00    10400.00
00917             -46.00    10400.00
00918             -50.00    10200.00
00919             -28.00    10000.00
00920             -10.00    10000.00
00921             -10.00     9800.00
00922             -22.00     9600.00
00923             -30.00     9600.00
00924             -30.00     9600.00
00925             -24.00     9400.00
00926             -20.00     9200.00
00927             -22.00     9000.00
00928             -24.00     9000.00
00929             -26.00     8800.00
00930             -26.00     8600.00
00931             -24.00     8400.00
00932             -18.00     8400.00
00933             -14.00     8000.00
00934             -16.00     8000.00
00935             -28.00     7800.00
00936             -28.00     7800.00
00937             -16.00     7600.00
00938             -14.00     7400.00
00939             -18.00     7200.00
00940             -22.00     7000.00
00941             -18.00     6800.00
00942             -14.00     6600.00
00943             -14.00     6600.00
00944             -26.00     6400.00
00945             -22.00     6200.00
00946             -16.00     6000.00
00947             -10.00     5800.00
00948             -10.00     5600.00
00949             -16.00     5400.00
00950             -24.00     5200.00
00951             -22.00     5200.00
00952             -18.00     5000.00
00953             -10.00     4600.00
00954              -2.00     4400.00
00955             -10.00     4200.00
00956             -18.00     4000.00
00957             -20.00     4000.00
00958             -22.00     3600.00
00959             -10.00     3600.00
00960              -2.00     3400.00
00961              -6.00     3200.00
00962             -10.00     2800.00
00963             -16.00     2800.00
00964             -26.00     2600.00
00965             -14.00     2400.00
00966               0.00     2200.00
00967               4.00     2000.00
00968               0.00     1800.00
00969             -10.00     1600.00
00970             -16.00     1200.00
00971             -10.00     1000.00
00972              -8.00     1000.00
00973              -2.00      800.00
00974              -2.00      600.00
00975              -2.00      400.00
00976              -4.00      200.00
00977              -2.00        0.00
00978              10.00        0.00
00979              40.00     -400.00
00980              18.00     -400.00
00981             -18.00     -800.00
00982             -24.00     -800.00
00983               2.00    -1200.00
00984              24.00    -1000.00
00985              54.00    -1400.00
00986             194.00    -1600.00
00987             246.00    -2200.00
00988            -226.00    -2400.00
00989            -254.00    -2400.00
00990            -144.00    -2800.00
00991             178.00    -2800.00
00992             210.00    -2600.00
00993             246.00    -3000.00
00994            -234.00    -3400.00
00995            -254.00    -3200.00
00996             246.00    -4000.00
00997              90.00    -3600.00
00998              20.00    -3800.00
00999             -48.00    -4600.00
01000             -80.00    -4000.00
01001             158.00    -4800.00
01002               4.00    -4600.00
01003             -80.00    -4800.00
01004             -68.00    -5200.00
01005              58.00    -5400.00
01006             150.00    -5600.00
01007             -56.00    -5600.00
01008             -30.00    -6200.00
01009             -40.00    -6000.00
01010              48.00    -6200.00
01011             104.00    -6800.00
01012             -38.00    -6400.00
01013             -12.00    -7000.00
01014               6.00    -6800.00
01015              48.00    -7000.00
01016               6.00    -7200.00
01017             -10.00    -7200.00
01018              24.00    -7800.00
01019              16.00    -7600.00
01020              46.00    -8000.00
01021             -10.00    -8000.00
01022             -10.00    -8400.00
01023              38.00    -8400.00
01024              16.00    -8600.00
01025               6.00    -8800.00
01026              14.00    -8600.00
01027              14.00    -9000.00
01028              26.00    -9200.00
01029              24.00    -9200.00
01030               6.00    -9400.00
01031              12.00    -9400.00
01032              26.00    -9600.00
01033              18.00    -9600.00
01034              18.00   -10000.00
01035              24.00   -10000.00
01036               6.00   -10200.00
01037              22.00   -10200.00
01038              16.00   -10200.00
01039              14.00   -10400.00
01040              38.00   -10600.00
01041              30.00   -10400.00
01042              16.00   -10800.00
01043              14.00   -10800.00
01044              14.00   -10800.00
01045              22.00   -11000.00
01046              32.00   -11000.00
01047              26.00   -11200.00
01048              22.00   -11200.00
01049              24.00   -11400.00
01050              16.00   -11400.00
01051              18.00   -11600.00
01052              24.00   -11600.00
01053              22.00   -11600.00
01054              32.00   -11600.00
01055              30.00   -11800.00
01056              16.00   -11800.00
01057              18.00   -11800.00
01058              24.00   -12000.00
01059              24.00   -12000.00
01060              30.00   -12000.00
01061              30.00   -11800.00
01062              22.00   -12000.00
01063              22.00   -12000.00
01064              22.00   -12000.00
01065              18.00   -12200.00
01066              30.00   -12000.00
01067              30.00   -12000.00
01068              26.00   -12400.00
01069              26.00   -12200.00
01070              18.00   -12200.00
01071              16.00   -12200.00
01072              24.00   -12000.00
01073              30.00   -12000.00
01074              30.00   -12200.00
01075              28.00   -12000.00
01076              18.00   -12200.00
01077              16.00   -12200.00
01078              22.00   -12000.00
01079              26.00   -12000.00
01080              26.00   -12000.00
01081              24.00   -12000.00
01082              22.00   -12000.00
01083              18.00   -12000.00
01084              18.00   -12000.00
01085              18.00   -12000.00
01086              26.00   -11800.00
01087              34.00   -11800.00
01088              26.00   -12000.00
01089              18.00   -11800.00
01090              16.00   -11800.00
01091              16.00   -11600.00
01092              24.00   -11400.00
01093              30.00   -11600.00
01094              24.00   -11400.00
01095              22.00   -11400.00
01096              18.00   -11200.00
01097              16.00   -11200.00
01098              18.00   -11200.00
01099              24.00   -11000.00
01100              24.00   -11000.00
01101              24.00   -10800.00
01102              20.00   -10800.00
01103              16.00   -10800.00
01104              16.00   -10800.00
01105              22.00   -10400.00
01106              22.00   -10200.00
01107              26.00   -10200.00
01108              22.00   -10000.00
01109              16.00   -10200.00
01110              14.00   -10000.00
01111              14.00    -9800.00
01112              20.00    -9600.00
01113              22.00    -9400.00
01114              22.00    -9400.00
01115              22.00    -9200.00
01116              18.00    -9200.00
01117              14.00    -8800.00
01118              10.00    -8600.00
01119              16.00    -8800.00
01120              22.00    -8600.00
01121              22.00    -8400.00
01122              16.00    -8200.00
01123              10.00    -8000.00
01124              10.00    -7800.00
01125              16.00    -7800.00
01126              16.00    -7400.00
01127              18.00    -7400.00
01128              14.00    -7400.00
01129              14.00    -7200.00
01130               8.00    -7000.00
01131              10.00    -6800.00
01132              14.00    -6800.00
01133              16.00    -6600.00
01134              16.00    -6400.00
01135               8.00    -6200.00
01136               8.00    -6000.00
01137               8.00    -5600.00
01138              10.00    -5600.00
01139              10.00    -5400.00
01140              14.00    -5200.00
01141              10.00    -5200.00
01142               8.00    -4800.00
01143               4.00    -4800.00
01144               4.00    -4600.00
01145               8.00    -4400.00
01146               6.00    -4000.00
01147               2.00    -4000.00
01148               6.00    -3800.00
01149               6.00    -3600.00
01150               6.00    -3400.00
01151               2.00    -3000.00
01152              -2.00    -3000.00
01153               2.00    -2800.00
01154               8.00    -2400.00
01155               6.00    -2400.00
01156               0.00    -2200.00
01157              -4.00    -2000.00
01158              -4.00    -2000.00
01159              -2.00    -1600.00
01160               0.00    -1400.00
01161               0.00    -1200.00
01162               2.00    -1000.00
01163              -2.00     -800.00
01164              -8.00     -600.00
01165              -4.00     -400.00
01166              -6.00     -200.00
01167               0.00        0.00
01168               0.00        0.00
01169              -2.00      200.00
01170              10.00      400.00
01171              34.00      800.00
01172               8.00     1000.00
01173             -18.00     1000.00
01174             -12.00     1200.00
01175               6.00     1600.00
01176              30.00     1600.00
01177             172.00     1800.00
01178             246.00     2400.00
01179            -174.00     2400.00
01180            -254.00     2600.00
01181            -254.00     2800.00
01182             106.00     2800.00
01183             246.00     3200.00
01184             246.00     3600.00
01185            -254.00     3400.00
01186            -254.00     3600.00
01187             246.00     4000.00
01188             -24.00     4000.00
01189              82.00     4400.00
01190            -102.00     4600.00
01191            -164.00     4400.00
01192             246.00     5000.00
01193             -70.00     5000.00
01194            -150.00     5200.00
01195             -18.00     5400.00
01196              62.00     5600.00
01197              70.00     5800.00
01198             -48.00     6000.00
01199             -32.00     6400.00
01200            -120.00     6000.00
01201              94.00     6800.00
01202              40.00     6600.00
01203            -110.00     6800.00
01204              16.00     7200.00
01205             -38.00     7200.00
01206              12.00     7400.00
01207             -16.00     7600.00
01208             -54.00     7600.00
01209             -24.00     8000.00
01210              38.00     8000.00
01211             -24.00     8400.00
01212             -66.00     8200.00
01213              -2.00     8400.00
01214             -28.00     8600.00
01215               2.00     8800.00
01216             -16.00     9000.00
01217             -48.00     9000.00
01218             -36.00     9200.00
01219              16.00     9400.00
01220             -22.00     9600.00
01221             -22.00     9600.00
01222             -26.00     9800.00
01223             -58.00     9800.00
01224              -8.00    10000.00
01225             -10.00    10000.00
01226             -22.00    10000.00
01227             -22.00    10400.00
01228             -34.00    10400.00
01229             -48.00    10600.00
01230             -10.00    10600.00
01231              -8.00    10800.00
01232             -24.00    10800.00
01233             -22.00    10800.00
01234             -44.00    11200.00
01235             -38.00    11200.00
01236             -16.00    11200.00
01237             -22.00    11400.00
01238             -34.00    11400.00
01239             -16.00    11800.00
01240             -22.00    11800.00
01241             -32.00    11800.00
01242             -38.00    11800.00
01243             -42.00    12000.00
01244             -22.00    12000.00
01245              -6.00    12000.00
01246             -18.00    12000.00
01247             -36.00    12000.00
01248             -42.00    12200.00
01249             -38.00    12200.00
01250             -18.00    12200.00
01251             -16.00    12200.00
01252             -32.00    12400.00
01253             -40.00    12400.00
01254             -34.00    12400.00
01255             -26.00    12400.00
01256             -16.00    12400.00
01257             -26.00    12400.00
01258             -34.00    12600.00
01259             -32.00    12400.00
01260             -30.00    12600.00
01261             -26.00    12400.00
01262             -18.00    12600.00
01263             -30.00    12400.00
01264             -42.00    12600.00
01265             -40.00    12600.00
01266             -26.00    12400.00
01267              -8.00    12600.00
01268             -10.00    12400.00
01269             -42.00    12400.00
01270             -56.00    12400.00
01271             -42.00    12400.00
01272             -16.00    12600.00
01273              -2.00    12400.00
01274             -26.00    12200.00
01275             -48.00    12200.00
01276             -46.00    12400.00
01277             -26.00    12200.00
01278             -18.00    12200.00
01279             -24.00    12200.00
01280             -32.00    12200.00
01281             -34.00    12000.00
01282             -32.00    12000.00
01283             -34.00    12000.00
01284             -34.00    12000.00
01285             -24.00    11800.00
01286             -24.00    11600.00
01287             -26.00    11600.00
01288             -34.00    11800.00
01289             -38.00    11400.00
01290             -26.00    11400.00
01291             -18.00    11400.00
01292             -22.00    11200.00
01293             -30.00    11200.00
01294             -34.00    11000.00
01295             -32.00    10800.00
01296             -30.00    10800.00
01297             -26.00    10800.00
01298             -28.00    10600.00
01299             -26.00    10400.00
01300             -22.00    10400.00
01301             -20.00    10400.00
01302             -26.00    10200.00
01303             -26.00    10000.00
01304             -30.00     9800.00
01305             -32.00     9800.00
01306             -28.00     9600.00
01307             -18.00     9600.00
01308             -10.00     9600.00
01309             -18.00     9400.00
01310             -32.00     9000.00
01311             -32.00     9000.00
01312             -18.00     8800.00
01313             -22.00     8600.00
01314             -30.00     8400.00
01315             -26.00     8400.00
01316             -16.00     8200.00
01317              -8.00     8000.00
01318             -12.00     8000.00
01319             -26.00     8000.00
01320             -28.00     7600.00
01321             -26.00     7400.00
01322             -22.00     7400.00
01323             -10.00     7200.00
01324             -14.00     7000.00
01325             -22.00     6600.00
01326             -26.00     6600.00
01327             -22.00     6400.00
01328             -10.00     6400.00
01329              -8.00     6000.00
01330             -20.00     6000.00
01331             -24.00     5600.00
01332             -14.00     5600.00
01333             -10.00     5200.00
01334             -10.00     5000.00
01335             -22.00     5000.00
01336             -24.00     5000.00
01337             -14.00     4600.00
01338              -6.00     4400.00
01339              -8.00     4200.00
01340             -10.00     4000.00
01341             -18.00     3800.00
01342             -18.00     3600.00
01343             -14.00     3600.00
01344             -10.00     3400.00
01345              -8.00     3200.00
01346             -10.00     2800.00
01347             -10.00     2600.00
01348             -10.00     2600.00
01349              -8.00     2200.00
01350             -10.00     2000.00
01351             -10.00     1800.00
01352             -10.00     1600.00
01353              -6.00     1600.00
01354               0.00     1200.00
01355              -6.00     1200.00
01356             -10.00     1000.00
01357             -14.00      800.00
01358             -10.00      400.00
01359               0.00      400.00
01360               8.00      200.00
01361               6.00        0.00
01362              22.00     -200.00
01363              22.00     -400.00
01364              -8.00     -600.00
01365             -24.00     -800.00
01366              -2.00     -800.00
01367              20.00    -1200.00
01368              30.00    -1400.00
01369             112.00    -1400.00
01370             246.00    -2000.00
01371              16.00    -2400.00
01372            -254.00    -2400.00
01373            -254.00    -2800.00
01374              98.00    -2800.00
01375             182.00    -2800.00
01376             246.00    -2800.00
01377              86.00    -3400.00
01378            -254.00    -3200.00
01379              62.00    -3600.00
01380             230.00    -3800.00
01381             -16.00    -3600.00
01382              22.00    -4400.00
01383            -114.00    -4200.00
01384              86.00    -4400.00
01385              98.00    -4800.00
01386             -88.00    -4800.00
01387             -72.00    -5200.00
01388             -16.00    -5200.00
01389             174.00    -5600.00
01390              30.00    -5400.00
01391             -72.00    -5800.00
01392             -26.00    -6200.00
01393             -18.00    -6000.00
01394             128.00    -6400.00
01395              16.00    -6400.00
01396             -42.00    -6600.00
01397              -6.00    -7000.00
01398              32.00    -6800.00
01399              44.00    -7600.00
01400             -14.00    -7200.00
01401              16.00    -7400.00
01402               8.00    -7800.00
01403              32.00    -7800.00
01404              22.00    -8200.00
01405             -20.00    -8000.00
01406              36.00    -8400.00
01407              28.00    -8400.00
01408              -2.00    -8600.00
01409               2.00    -8800.00
01410              16.00    -8800.00
01411              34.00    -9000.00
01412              36.00    -9200.00
01413               8.00    -9400.00
01414              -6.00    -9400.00
01415              18.00    -9600.00
01416              26.00    -9600.00
01417              18.00    -9800.00
01418              24.00   -10000.00
01419              10.00   -10200.00
01420              14.00   -10200.00
01421              24.00   -10400.00
01422              10.00   -10400.00
01423              26.00   -10400.00
01424              36.00   -10400.00
01425              22.00   -10800.00
01426              14.00   -10800.00
01427               8.00   -10800.00
01428              14.00   -11000.00
01429              26.00   -11200.00
01430              32.00   -11000.00
01431              22.00   -11200.00
01432              24.00   -11200.00
01433              22.00   -11400.00
01434              16.00   -11600.00
01435              22.00   -11600.00
01436              22.00   -11600.00
01437              22.00   -11800.00
01438              30.00   -11600.00
01439              22.00   -11800.00
01440              16.00   -11800.00
01441              24.00   -11800.00
01442              22.00   -12000.00
01443              26.00   -11800.00
01444              32.00   -12000.00
01445              26.00   -12000.00
01446              22.00   -12200.00
01447              22.00   -12000.00
01448              16.00   -12000.00
01449              22.00   -12200.00
01450              30.00   -12000.00
01451              26.00   -12200.00
01452              28.00   -12400.00
01453              24.00   -12000.00
01454              16.00   -12200.00
01455              22.00   -12200.00
01456              28.00   -12000.00
01457              32.00   -12200.00
01458              28.00   -12000.00
01459              22.00   -12000.00
01460              16.00   -12200.00
01461              18.00   -12000.00
01462              30.00   -12000.00
01463              28.00   -12200.00
01464              30.00   -12000.00
01465              24.00   -12000.00
01466              20.00   -12000.00
01467              22.00   -11800.00
01468              18.00   -12000.00
01469              22.00   -12000.00
01470              28.00   -11800.00
01471              26.00   -11800.00
01472              22.00   -11800.00
01473              18.00   -11800.00
01474              18.00   -11600.00
01475              18.00   -11600.00
01476              22.00   -11400.00
01477              22.00   -11200.00
01478              30.00   -11400.00
01479              26.00   -11200.00
01480              16.00   -11400.00
01481              14.00   -11200.00
01482              18.00   -11200.00
01483              22.00   -11000.00
01484              28.00   -11000.00
01485              24.00   -10800.00
01486              16.00   -10800.00
01487              14.00   -10600.00
01488              14.00   -10400.00
01489              18.00   -10400.00
01490              26.00   -10200.00
01491              24.00   -10200.00
01492              18.00   -10000.00
01493              14.00    -9800.00
01494              10.00    -9600.00
01495              18.00    -9600.00
01496              18.00    -9600.00
01497              22.00    -9400.00
01498              22.00    -9200.00
01499              18.00    -9000.00
01500              14.00    -9200.00
01501              10.00    -8800.00
01502              14.00    -8800.00
01503              22.00    -8600.00
01504              22.00    -8400.00
01505              16.00    -8400.00
01506              14.00    -8400.00
01507              14.00    -8000.00
01508              14.00    -7800.00
01509              14.00    -7600.00
01510              16.00    -7400.00
01511              16.00    -7200.00
01512              16.00    -7200.00
01513              10.00    -7000.00
01514               8.00    -7000.00
01515              14.00    -6800.00
01516              16.00    -6600.00
01517              14.00    -6400.00
01518              10.00    -6200.00
01519              12.00    -6200.00
01520              14.00    -6000.00
01521              10.00    -5600.00
01522               6.00    -5600.00
01523              12.00    -5400.00
01524              10.00    -5200.00
01525              14.00    -4800.00
01526              10.00    -4800.00
01527               6.00    -4600.00
01528               6.00    -4400.00
01529               8.00    -4000.00
01530              12.00    -4000.00
01531              10.00    -3800.00
01532               6.00    -3800.00
01533               2.00    -3400.00
01534               0.00    -3200.00
01535               4.00    -3000.00
01536               6.00    -2800.00
01537               6.00    -2800.00
01538               6.00    -2400.00
01539               0.00    -2200.00
01540              -2.00    -2200.00
01541              -2.00    -2000.00
01542               2.00    -1800.00
01543               4.00    -1400.00
01544               6.00    -1400.00
01545               0.00    -1000.00
01546              -2.00     -800.00
01547              -6.00     -800.00
01548              -2.00     -600.00
01549               0.00     -400.00
01550               2.00        0.00
01551               0.00        0.00
01552               2.00      200.00
01553               2.00      400.00
01554              30.00      800.00
01555              22.00      800.00
01556              -8.00     1000.00
01557             -22.00     1200.00
01558              -6.00     1400.00
01559              16.00     1600.00
01560              82.00     1800.00
01561             246.00     2200.00
01562             108.00     2400.00
01563            -254.00     2400.00
01564            -254.00     2600.00
01565             -14.00     2800.00
01566             246.00     3000.00
01567             246.00     3400.00
01568            -176.00     3400.00
01569            -254.00     3400.00
01570             246.00     4000.00
01571             180.00     4000.00
01572             -26.00     4200.00
01573              66.00     4600.00
01574            -254.00     4400.00
01575             140.00     4800.00
01576             118.00     5000.00
01577            -198.00     5200.00
01578             -48.00     5400.00
01579              14.00     5600.00
01580             100.00     5800.00
01581             -24.00     5600.00
01582             -30.00     6400.00
01583             -96.00     6200.00
01584             -16.00     6400.00
01585             128.00     6600.00
01586            -106.00     6600.00
01587             -24.00     7200.00
01588              -8.00     7200.00
01589             -16.00     7200.00
01590              14.00     7200.00
01591             -50.00     7600.00
01592             -40.00     8000.00
01593              16.00     8000.00
01594              22.00     8200.00
01595             -70.00     8000.00
01596             -22.00     8400.00
01597             -18.00     8400.00
01598             -14.00     8600.00
01599              -2.00     9000.00
01600             -36.00     8800.00
01601             -48.00     9000.00
01602              -4.00     9200.00
01603               0.00     9600.00
01604             -34.00     9400.00
01605             -10.00     9800.00
01606             -56.00     9800.00
01607             -26.00     9800.00
01608              -6.00    10000.00
01609             -20.00    10000.00
01610             -24.00    10200.00
01611             -30.00    10400.00
01612             -42.00    10400.00
01613             -26.00    10400.00
01614              -6.00    10800.00
01615             -26.00    10800.00
01616             -24.00    11000.00
01617             -30.00    11000.00
01618             -42.00    11200.00
01619             -32.00    11200.00
01620             -16.00    11400.00
01621             -22.00    11400.00
01622             -22.00    11800.00
01623             -34.00    11600.00
01624             -42.00    11800.00
01625             -22.00    11800.00
01626             -24.00    11800.00
01627             -32.00    11800.00
01628             -24.00    12000.00
01629             -24.00    12000.00
01630             -34.00    12200.00
01631             -30.00    12000.00
01632             -34.00    12200.00
01633             -32.00    12200.00
01634             -24.00    12200.00
01635             -24.00    12400.00
01636             -20.00    12400.00
01637             -26.00    12400.00
01638             -46.00    12400.00
01639             -42.00    12600.00
01640             -26.00    12400.00
01641             -20.00    12600.00
01642             -20.00    12600.00
01643             -26.00    12400.00
01644             -38.00    12600.00
01645             -38.00    12600.00
01646             -32.00    12600.00
01647             -32.00    12400.00
01648             -24.00    12400.00
01649             -18.00    12600.00
01650             -26.00    12600.00
01651             -32.00    12400.00
01652             -42.00    12400.00
01653             -38.00    12600.00
01654             -24.00    12600.00
01655             -16.00    12400.00
01656             -18.00    12400.00
01657             -32.00    12200.00
01658             -40.00    12400.00
01659             -38.00    12400.00
01660             -26.00    12200.00
01661             -18.00    12200.00
01662             -24.00    12200.00
01663             -32.00    12000.00
01664             -38.00    12000.00
01665             -32.00    12000.00
01666             -26.00    12000.00
01667             -26.00    11800.00
01668             -32.00    11800.00
01669             -28.00    11800.00
01670             -24.00    11600.00
01671             -30.00    11800.00
01672             -32.00    11400.00
01673             -34.00    11600.00
01674             -30.00    11400.00
01675             -20.00    11200.00
01676             -22.00    11200.00
01677             -30.00    11200.00
01678             -36.00    11000.00
01679             -34.00    10800.00
01680             -32.00    10600.00
01681             -22.00    10600.00
01682             -18.00    10600.00
01683             -24.00    10400.00
01684             -34.00    10400.00
01685             -34.00    10200.00
01686             -28.00    10000.00
01687             -22.00    10000.00
01688             -18.00     9800.00
01689             -24.00     9800.00
01690             -30.00     9600.00
01691             -32.00     9400.00
01692             -28.00     9400.00
01693             -24.00     9200.00
01694             -18.00     9000.00
01695             -16.00     9000.00
01696             -24.00     8800.00
01697             -28.00     8600.00
01698             -26.00     8400.00
01699             -26.00     8200.00
01700             -18.00     8200.00
01701             -16.00     8000.00
01702             -18.00     7800.00
01703             -22.00     7600.00
01704             -22.00     7600.00
01705             -24.00     7200.00
01706             -20.00     7200.00
01707             -18.00     7200.00
01708             -16.00     6800.00
01709             -16.00     6600.00
01710             -16.00     6600.00
01711             -24.00     6400.00
01712             -18.00     6000.00
01713             -18.00     6000.00
01714             -14.00     5600.00
01715             -10.00     5600.00
01716             -10.00     5400.00
01717             -18.00     5200.00
01718             -22.00     5000.00
01719             -22.00     5000.00
01720             -14.00     4800.00
01721              -8.00     4400.00
01722              -6.00     4400.00
01723              -8.00     4200.00
01724             -10.00     4000.00
01725             -18.00     3600.00
01726             -22.00     3400.00
01727             -16.00     3200.00
01728              -4.00     3200.00
01729               0.00     2800.00
01730             -10.00     2600.00
01731             -14.00     2600.00
01732             -16.00     2400.00
01733              -8.00     2000.00
01734              -6.00     2000.00
01735              -6.00     1800.00
01736              -6.00     1600.00
01737              -8.00     1600.00
01738              -8.00     1200.00
01739              -8.00     1000.00
01740              -6.00      800.00
01741              -2.00      600.00
01742              -6.00      400.00
01743              -6.00      200.00
01744               0.00        0.00
01745              16.00     -400.00
01746              34.00     -400.00
01747               8.00     -600.00
01748             -16.00     -600.00
01749             -16.00     -800.00
01750              10.00    -1000.00
01751              20.00    -1200.00
01752              54.00    -1400.00
01753             224.00    -1600.00
01754             208.00    -2200.00
01755            -254.00    -2400.00
01756            -254.00    -2400.00
01757             -68.00    -2800.00
01758             186.00    -2800.00
01759             238.00    -2600.00
01760             246.00    -3200.00
01761            -254.00    -3400.00
01762            -228.00    -3400.00
01763             246.00    -4000.00
01764              32.00    -3600.00
01765              30.00    -4000.00
01766             -74.00    -4400.00
01767             -34.00    -4200.00
01768             160.00    -4800.00
01769             -34.00    -4800.00
01770             -78.00    -5000.00
01771             -62.00    -5200.00
01772             102.00    -5400.00
01773             128.00    -5800.00
01774             -74.00    -5400.00
01775             -24.00    -6200.00
01776             -40.00    -6000.00
01777              78.00    -6200.00
01778              86.00    -6600.00
01779             -48.00    -6400.00
01780              -6.00    -7000.00
01781              10.00    -6800.00
01782              50.00    -7200.00
01783              -4.00    -7400.00
01784              -2.00    -7200.00
01785              24.00    -7800.00
01786              22.00    -7800.00
01787              42.00    -8000.00
01788             -22.00    -8000.00
01789               0.00    -8400.00
01790              40.00    -8400.00
01791              16.00    -8600.00
01792               8.00    -8800.00
01793              12.00    -8800.00
01794              14.00    -9000.00
01795              30.00    -9200.00
01796              18.00    -9400.00
01797               4.00    -9600.00
01798              16.00    -9400.00
01799              26.00    -9600.00
01800              14.00    -9600.00
01801              16.00   -10000.00
01802              22.00   -10000.00
01803              16.00   -10000.00
01804              24.00   -10200.00
01805              10.00   -10200.00
01806              14.00   -10400.00
01807              36.00   -10400.00
01808              26.00   -10800.00
01809              14.00   -10800.00
01810              10.00   -11000.00
01811              10.00   -11000.00
01812              22.00   -11200.00
01813              32.00   -11000.00
01814              24.00   -11200.00
01815              22.00   -11200.00
01816              22.00   -11400.00
01817              14.00   -11600.00
01818              14.00   -11600.00
01819              24.00   -11600.00
01820              26.00   -11600.00
01821              30.00   -11800.00
01822              24.00   -11800.00
01823              10.00   -11800.00
01824              16.00   -11800.00
01825              24.00   -12000.00
01826              24.00   -12000.00
01827              30.00   -12000.00
01828              30.00   -12000.00
01829              22.00   -12000.00
01830              16.00   -12000.00
01831              22.00   -12000.00
01832              22.00   -12000.00
01833              30.00   -12000.00
01834              26.00   -12200.00
01835              22.00   -12200.00
01836              30.00   -12200.00
01837              24.00   -12200.00
01838              18.00   -12000.00
01839              22.00   -12200.00
01840              24.00   -12000.00
01841              30.00   -12000.00
01842              32.00   -12000.00
01843              22.00   -12200.00
01844              14.00   -12000.00
01845              20.00   -12000.00
01846              24.00   -12000.00
01847              32.00   -12000.00
01848              32.00   -12000.00
01849              22.00   -12000.00
01850              18.00   -12000.00
01851              24.00   -12000.00
01852              26.00   -11800.00
01853              14.00   -11800.00
01854              24.00   -11800.00
01855              22.00   -11800.00
01856              34.00   -11800.00
01857             -10.00   -11600.00
01858              18.00   -11600.00
01859              46.00   -11200.00
01860              54.00   -11400.00
01861              38.00   -11200.00
01862              -6.00   -11400.00
01863              14.00   -11200.00
01864              -2.00   -11200.00
01865               6.00   -11200.00
01866              18.00   -10800.00
01867              48.00   -11000.00
01868              38.00   -10800.00
01869              18.00   -10800.00
01870              12.00   -10800.00
01871              16.00   -10400.00
01872              30.00   -10400.00
01873              16.00   -10400.00
01874              24.00   -10200.00
01875              16.00   -10000.00
01876               0.00   -10000.00
01877               0.00   -10000.00
01878              30.00    -9800.00
01879              34.00    -9600.00
01880              36.00    -9400.00
01881              10.00    -9200.00
01882              16.00    -9200.00
01883              20.00    -9200.00
01884               8.00    -9000.00
01885              -2.00    -8800.00
01886              14.00    -8800.00
01887              22.00    -8600.00
01888              18.00    -8400.00
01889              24.00    -8000.00
01890              20.00    -8200.00
01891              30.00    -8000.00
01892              14.00    -7600.00
01893               8.00    -7400.00
01894               6.00    -7400.00
01895              10.00    -7200.00
01896               2.00    -7200.00
01897              10.00    -7000.00
01898              22.00    -6800.00
01899              22.00    -6600.00
01900              22.00    -6400.00
01901               8.00    -6200.00
01902               8.00    -6200.00
01903              14.00    -6000.00
01904               8.00    -6000.00
01905               2.00    -5600.00
01906               8.00    -5400.00
01907              10.00    -5200.00
01908              14.00    -5200.00
01909              16.00    -4800.00
01910               8.00    -4800.00
01911               6.00    -4400.00
01912               4.00    -4400.00
01913               0.00    -4000.00
01914              10.00    -3800.00
01915              10.00    -3800.00
01916               6.00    -3600.00
01917               2.00    -3400.00
01918               0.00    -3000.00
01919               6.00    -3000.00
01920              12.00    -2800.00
01921               8.00    -2600.00
01922               4.00    -2400.00
01923               0.00    -2200.00
01924              -2.00    -2000.00
01925              -2.00    -1800.00
01926               0.00    -1600.00
01927               6.00    -1600.00
01928               8.00    -1200.00
01929               0.00    -1000.00
01930              -6.00     -800.00
01931              -6.00     -600.00
01932              -2.00     -400.00
01933               2.00     -200.00
01934               0.00        0.00
01935               0.00      200.00
01936               2.00      400.00
01937              16.00      600.00
01938              30.00      800.00
01939               6.00     1000.00
01940             -22.00     1200.00
01941             -10.00     1200.00
01942              10.00     1600.00
01943              34.00     1600.00
01944             218.00     2000.00
01945             246.00     2400.00
01946            -254.00     2600.00
01947            -254.00     2600.00
01948            -198.00     2800.00
01949             150.00     2800.00
01950             246.00     3200.00
01951             246.00     3600.00
01952            -254.00     3200.00
01953            -144.00     3600.00
01954             246.00     4000.00
01955             -62.00     4000.00
01956             102.00     4400.00
01957            -166.00     4600.00
01958             -88.00     4600.00
01959             244.00     4800.00
01960            -130.00     5200.00
01961            -120.00     5200.00
01962              -8.00     5600.00
01963              80.00     5800.00
01964              38.00     5800.00
01965             -54.00     6000.00
01966             -42.00     6200.00
01967            -104.00     6200.00
01968             126.00     6800.00
01969             -12.00     6400.00
01970             -98.00     6800.00
01971              16.00     7000.00
01972             -34.00     7200.00
01973              22.00     7400.00
01974             -28.00     7600.00
01975             -50.00     7800.00
01976             -16.00     7800.00
01977              38.00     8200.00
01978             -38.00     8200.00
01979             -56.00     8200.00
01980              -2.00     8600.00
01981             -24.00     8400.00
01982               0.00     8800.00
01983             -22.00     9200.00
01984             -48.00     9200.00
01985             -32.00     9200.00
01986              16.00     9600.00
01987             -32.00     9600.00
01988             -20.00     9800.00
01989             -32.00     9800.00
01990             -50.00     9800.00
01991              -6.00    10000.00
01992             -16.00    10000.00
01993             -22.00    10200.00
01994             -24.00    10400.00
01995             -40.00    10400.00
01996             -48.00    10400.00
01997              -6.00    10600.00
01998              -8.00    10800.00
01999             -26.00    10800.00
02000             -28.00    11000.00
02001             -48.00    11200.00
02002             -38.00    11200.00
02003             -12.00    11400.00
02004             -22.00    11200.00
02005             -30.00    11400.00
02006             -22.00    11600.00
02007             -38.00    11800.00
02008             -32.00    11800.00
02009             -28.00    11800.00
02010             -38.00    12000.00
02011             -22.00    11800.00
02012             -16.00    12000.00
02013             -34.00    12200.00
02014             -34.00    12200.00
02015             -32.00    12000.00
02016             -38.00    12200.00
02017             -24.00    12200.00
02018             -22.00    12400.00
02019             -26.00    12200.00
02020             -30.00    12600.00
02021             -38.00    12400.00
02022             -40.00    12400.00
02023             -24.00    12400.00
02024             -26.00    12400.00
02025             -30.00    12400.00
02026             -26.00    12400.00
02027             -32.00    12600.00
02028             -32.00    12400.00
02029             -30.00    12600.00
02030             -34.00    12400.00
02031             -28.00    12600.00
02032             -18.00    12400.00
02033             -26.00    12600.00
02034             -32.00    12600.00
02035             -38.00    12400.00
02036             -36.00    12400.00
02037             -28.00    12400.00
02038             -26.00    12600.00
02039             -24.00    12400.00
02040             -26.00    12200.00
02041             -34.00    12400.00
02042             -40.00    12200.00
02043             -32.00    12200.00
02044             -22.00    12200.00
02045             -18.00    12200.00
02046             -26.00    12200.00
02047             -32.00    12200.00
02048             -38.00    12000.00
02049             -32.00    12000.00
02050             -26.00    12000.00
02051             -24.00    11800.00
02052             -24.00    11800.00
02053             -26.00    11800.00
02054             -32.00    11600.00
02055             -32.00    11600.00
02056             -32.00    11600.00
02057             -30.00    11400.00
02058             -22.00    11200.00
02059             -26.00    11200.00
02060             -26.00    11000.00
02061             -28.00    11000.00
02062             -34.00    10800.00
02063             -26.00    10800.00
02064             -24.00    10600.00
02065             -24.00    10400.00
02066             -26.00    10400.00
02067             -28.00    10400.00
02068             -32.00    10400.00
02069             -30.00    10200.00
02070             -26.00    10000.00
02071             -26.00     9800.00
02072             -18.00     9800.00
02073             -24.00     9600.00
02074             -26.00     9600.00
02075             -30.00     9200.00
02076             -30.00     9200.00
02077             -24.00     9200.00
02078             -18.00     9000.00
02079             -20.00     8800.00
02080             -26.00     8400.00
02081             -30.00     8400.00
02082             -26.00     8200.00
02083             -22.00     8000.00
02084             -18.00     8000.00
02085             -18.00     8000.00
02086             -18.00     7600.00
02087             -18.00     7600.00
02088             -24.00     7400.00
02089             -22.00     7200.00
02090             -18.00     7000.00
02091             -16.00     6800.00
02092             -16.00     6800.00
02093             -16.00     6400.00
02094             -20.00     6400.00
02095             -16.00     6400.00
02096             -18.00     6000.00
02097             -16.00     5800.00
02098             -12.00     5800.00
02099             -12.00     5600.00
02100             -16.00     5400.00
02101             -16.00     5200.00
02102             -18.00     5000.00
02103             -16.00     4800.00
02104             -10.00     4600.00
02105              -8.00     4400.00
02106             -10.00     4000.00
02107             -14.00     4200.00
02108             -14.00     3800.00
02109             -14.00     3600.00
02110             -10.00     3400.00
02111             -10.00     3200.00
02112              -6.00     3000.00
02113             -10.00     2800.00
02114             -10.00     2600.00
02115             -10.00     2600.00
02116             -10.00     2200.00
02117              -6.00     2000.00
02118              -6.00     1800.00
02119              -8.00     1600.00
02120              -8.00     1400.00
02121             -10.00     1200.00
02122             -10.00     1000.00
02123              -8.00      800.00
02124              -6.00      600.00
02125              -2.00      400.00
02126               0.00      200.00
02127               0.00        0.00
02128               2.00        0.00
02129              22.00     -400.00
02130              22.00     -400.00
02131              -6.00     -600.00
02132             -20.00     -800.00
02133              -2.00    -1000.00
02134              14.00    -1200.00
02135              32.00    -1400.00
02136             140.00    -1600.00
02137             246.00    -2000.00
02138             -74.00    -2400.00
02139            -254.00    -2400.00
02140            -254.00    -2400.00
02141             138.00    -2800.00
02142             186.00    -2600.00
02143             246.00    -2800.00
02144             -34.00    -3400.00
02145            -254.00    -3200.00
02146             152.00    -3800.00
02147             178.00    -3800.00
02148             -10.00    -3600.00
02149               2.00    -4400.00
02150            -112.00    -4000.00
02151             122.00    -4600.00
02152              64.00    -4800.00
02153             -90.00    -4800.00
02154             -68.00    -5400.00
02155               2.00    -5000.00
02156             170.00    -5600.00
02157             -12.00    -5400.00
02158             -54.00    -6000.00
02159             -24.00    -6200.00
02160               6.00    -6000.00
02161             126.00    -6600.00
02162             -16.00    -6400.00
02163             -32.00    -6600.00
02164               6.00    -7000.00
02165              40.00    -7000.00
02166              26.00    -7400.00
02167             -24.00    -7200.00
02168              22.00    -7800.00
02169              18.00    -7600.00
02170              46.00    -7800.00
02171               6.00    -8000.00
02172             -24.00    -8200.00
02173              40.00    -8400.00
02174              28.00    -8400.00
02175               6.00    -8600.00
02176               8.00    -8800.00
02177              10.00    -8800.00
02178              30.00    -9200.00
02179              30.00    -9200.00
02180              10.00    -9400.00
02181               4.00    -9400.00
02182              22.00    -9600.00
02183              22.00    -9600.00
02184              16.00    -9600.00
02185              26.00   -10000.00
02186              14.00   -10200.00
02187              14.00   -10200.00
02188              18.00   -10200.00
02189               8.00   -10400.00
02190              30.00   -10600.00
02191              34.00   -10400.00
02192              16.00   -10800.00
02193              10.00   -10800.00
02194              14.00   -11000.00
02195              16.00   -10800.00
02196              26.00   -11000.00
02197              30.00   -11000.00
02198              16.00   -11200.00
02199              22.00   -11200.00
02200              16.00   -11400.00
02201              10.00   -11600.00
02202              24.00   -11600.00
02203              26.00   -11600.00
02204              22.00   -11600.00
02205              28.00   -11600.00
02206              16.00   -11800.00
02207              14.00   -11800.00
02208              22.00   -11800.00
02209              20.00   -12000.00
02210              24.00   -12000.00
02211              32.00   -12000.00
02212              22.00   -12000.00
02213              18.00   -12000.00
02214              18.00   -12000.00
02215              18.00   -12000.00
02216              24.00   -12000.00
02217              32.00   -12200.00
02218              26.00   -12200.00
02219              24.00   -12000.00
02220              18.00   -12200.00
02221              14.00   -12400.00
02222              24.00   -12200.00
02223              32.00   -12200.00
02224              26.00   -12000.00
02225              24.00   -12000.00
02226              22.00   -12000.00
02227              18.00   -12000.00
02228              24.00   -12200.00
02229              26.00   -12000.00
02230              26.00   -12000.00
02231              32.00   -12000.00
02232              24.00   -12000.00
02233              22.00   -12000.00
02234              18.00   -11800.00
02235              18.00   -11800.00
02236              30.00   -11800.00
02237              32.00   -11800.00
02238              24.00   -11800.00
02239              22.00   -11800.00
02240              22.00   -11600.00
02241              22.00   -11600.00
02242              22.00   -11600.00
02243              24.00   -11400.00
02244              30.00   -11400.00
02245              26.00   -11400.00
02246              22.00   -11200.00
02247              16.00   -11200.00
02248              18.00   -11200.00
02249              24.00   -11200.00
02250              24.00   -11000.00
02251              24.00   -11000.00
02252              20.00   -10800.00
02253              16.00   -10800.00
02254              16.00   -10400.00
02255              18.00   -10600.00
02256              22.00   -10400.00
02257              24.00   -10200.00
02258              22.00   -10000.00
02259              18.00   -10000.00
02260              16.00   -10000.00
02261              14.00    -9600.00
02262              16.00    -9600.00
02263              22.00    -9600.00
02264              20.00    -9400.00
02265              18.00    -9400.00
02266              14.00    -9200.00
02267              10.00    -9000.00
02268              14.00    -9000.00
02269              16.00    -8600.00
02270              22.00    -8600.00
02271              16.00    -8600.00
02272              14.00    -8400.00
02273              12.00    -8000.00
02274              10.00    -8000.00
02275              14.00    -7800.00
02276              14.00    -7800.00
02277              18.00    -7400.00
02278              18.00    -7400.00
02279              12.00    -7200.00
02280              10.00    -7000.00
02281               6.00    -6800.00
02282              14.00    -6800.00
02283              14.00    -6600.00
02284              12.00    -6400.00
02285              10.00    -6200.00
02286              10.00    -6000.00
02287              10.00    -5800.00
02288               6.00    -5600.00
02289               6.00    -5400.00
02290              18.00    -5400.00
02291              18.00    -5200.00
02292              10.00    -4800.00
02293              -2.00    -4800.00
02294               0.00    -4400.00
02295              14.00    -4400.00
02296              14.00    -4400.00
02297               6.00    -3800.00
02298               6.00    -3800.00
02299              10.00    -3600.00
02300               8.00    -3400.00
02301               0.00    -3200.00
02302              -2.00    -3000.00
02303               0.00    -2800.00
02304              14.00    -2800.00
02305              18.00    -2400.00
02306              12.00    -2200.00
02307              -8.00    -2200.00
02308             -18.00    -2000.00
02309              -6.00    -1600.00
02310              16.00    -1400.00
02311              18.00    -1200.00
02312               6.00    -1000.00
02313             -10.00     -800.00
02314             -10.00     -600.00
02315              -2.00     -600.00
02316               2.00     -200.00
02317               0.00        0.00
02318               2.00        0.00
02319               2.00      200.00
02320               8.00      400.00
02321              28.00      800.00
02322              18.00      800.00
02323             -12.00     1000.00
02324             -22.00     1200.00
02325              -2.00     1400.00
02326              22.00     1600.00
02327             114.00     2000.00
02328             246.00     2200.00
02329               2.00     2400.00
02330            -254.00     2400.00
02331            -254.00     2600.00
02332              32.00     2800.00
02333             246.00     3000.00
02334             246.00     3400.00
02335            -254.00     3200.00
02336            -254.00     3600.00
02337             246.00     3800.00
02338              86.00     3800.00
02339              16.00     4400.00
02340              16.00     4400.00
02341            -246.00     4400.00
02342             198.00     4600.00
02343              40.00     5000.00
02344            -186.00     5200.00
02345             -34.00     5400.00
02346              28.00     5600.00
02347              94.00     5800.00
02348             -42.00     5800.00
02349             -24.00     6400.00
02350            -114.00     6000.00
02351              24.00     6600.00
02352             102.00     6600.00
02353            -118.00     6800.00
02354              -2.00     7200.00
02355             -16.00     7200.00
02356               0.00     7400.00
02357               0.00     7400.00
02358             -58.00     7800.00
02359             -40.00     7800.00
02360              26.00     8000.00
02361              16.00     8200.00
02362             -74.00     8200.00
02363             -14.00     8400.00
02364             -26.00     8600.00
02365              -8.00     8800.00
02366              -4.00     9000.00
02367             -40.00     9000.00
02368             -48.00     9200.00
02369               6.00     9200.00
02370              -8.00     9400.00
02371             -36.00     9600.00
02372             -10.00     9800.00
02373             -56.00     9800.00
02374             -18.00    10000.00
02375              -4.00    10000.00
02376             -22.00    10200.00
02377             -18.00    10400.00
02378             -26.00    10600.00
02379             -54.00    10400.00
02380             -30.00    10600.00
02381               0.00    10800.00
02382             -24.00    10800.00
02383             -18.00    11000.00
02384             -34.00    11200.00
02385             -42.00    11000.00
02386             -22.00    11200.00
02387             -18.00    11400.00
02388             -32.00    11400.00
02389             -18.00    11400.00
02390             -30.00    11600.00
02391             -36.00    11600.00
02392             -26.00    11800.00
02393             -38.00    12000.00
02394             -26.00    12000.00
02395             -14.00    12000.00
02396             -26.00    12000.00
02397             -38.00    12200.00
02398             -34.00    12000.00
02399             -38.00    12400.00
02400             -26.00    12200.00
02401             -20.00    12200.00
02402             -30.00    12400.00
02403             -32.00    12400.00
02404             -32.00    12600.00
02405             -38.00    12400.00
02406             -30.00    12600.00
02407             -26.00    12400.00
02408             -30.00    12400.00
02409             -24.00    12400.00
02410             -28.00    12600.00
02411             -40.00    12600.00
02412             -38.00    12400.00
02413             -26.00    12600.00
02414             -22.00    12400.00
02415             -18.00    12600.00
02416             -30.00    12400.00
02417             -38.00    12600.00
02418             -38.00    12400.00
02419             -32.00    12600.00
02420             -24.00    12400.00
02421             -22.00    12400.00
02422             -26.00    12400.00
02423             -32.00    12400.00
02424             -34.00    12400.00
02425             -34.00    12400.00
02426             -32.00    12400.00
02427             -20.00    12400.00
02428             -22.00    12200.00
02429             -28.00    12200.00
02430             -32.00    12000.00
02431             -34.00    12000.00
02432             -32.00    12000.00
02433             -26.00    12000.00
02434             -28.00    11800.00
02435             -22.00    12000.00
02436             -22.00    11600.00
02437             -30.00    11600.00
02438             -30.00    11600.00
02439             -32.00    11800.00
02440             -30.00    11400.00
02441             -24.00    11400.00
02442             -24.00    11400.00
02443             -26.00    11200.00
02444             -24.00    11000.00
02445             -32.00    10800.00
02446             -32.00    10800.00
02447             -26.00    10800.00
02448             -22.00    10600.00
02449             -18.00    10600.00
02450             -26.00    10400.00
02451             -32.00    10400.00
02452             -32.00    10200.00
02453             -26.00    10000.00
02454             -26.00     9800.00
02455             -22.00     9800.00
02456             -22.00     9800.00
02457             -26.00     9600.00
02458             -28.00     9600.00
02459             -26.00     9200.00
02460             -30.00     9000.00
02461             -18.00     9000.00
02462             -22.00     8800.00
02463             -22.00     8800.00
02464             -24.00     8600.00
02465             -26.00     8400.00
02466             -26.00     8200.00
02467             -22.00     8200.00
02468             -18.00     8000.00
02469             -22.00     7800.00
02470             -18.00     7600.00
02471             -24.00     7600.00
02472             -26.00     7200.00
02473             -24.00     7200.00
02474             -22.00     6800.00
02475             -14.00     6800.00
02476             -10.00     6600.00
02477             -18.00     6400.00
02478             -22.00     6400.00
02479             -18.00     6200.00
02480             -18.00     6000.00
02481             -16.00     5600.00
02482             -16.00     5600.00
02483             -16.00     5600.00
02484             -16.00     5400.00
02485             -18.00     5000.00
02486             -14.00     5000.00
02487             -10.00     4600.00
02488             -10.00     4400.00
02489             -12.00     4400.00
02490             -14.00     4000.00
02491             -16.00     4000.00
02492             -16.00     3600.00
02493              -8.00     3400.00
02494              -8.00     3400.00
02495             -10.00     3200.00
02496             -12.00     2800.00
02497             -10.00     2800.00
02498              -8.00     2600.00
02499              -6.00     2200.00
02500             -10.00     2000.00
02501             -10.00     2000.00
02502              -8.00     1600.00
02503              -6.00     1600.00
02504              -2.00     1200.00
02505              -2.00     1200.00
02506              -8.00     1000.00
02507              -8.00      800.00
02508              -2.00      600.00
02509              -4.00      400.00
02510               2.00      200.00
02511               0.00        0.00
02512              10.00     -400.00
02513              26.00     -400.00
02514               6.00     -600.00
02515             -16.00     -800.00
02516              -8.00    -1000.00
02517              14.00    -1200.00
02518              20.00    -1400.00
02519              74.00    -1600.00
02520             246.00    -1600.00
02521             142.00    -2400.00
02522            -254.00    -2400.00
02523            -254.00    -2400.00
02524               2.00    -2800.00
02525             184.00    -2800.00
02526             246.00    -2800.00
02527             244.00    -3200.00
02528            -254.00    -3200.00
02529            -122.00    -3400.00
02530             246.00    -4000.00
02531               2.00    -3600.00
02532              34.00    -4400.00
02533            -102.00    -4400.00
02534               2.00    -4400.00
02535             148.00    -4800.00
02536             -54.00    -4600.00
02537             -74.00    -5200.00
02538             -56.00    -5200.00
02539             134.00    -5400.00
02540              88.00    -5600.00
02541             -78.00    -5600.00
02542             -20.00    -6200.00
02543             -38.00    -6000.00
02544             102.00    -6400.00
02545              56.00    -6600.00
02546             -58.00    -6400.00
02547              -8.00    -7000.00
02548              16.00    -6800.00
02549              50.00    -7000.00
02550             -10.00    -7200.00
02551               6.00    -7400.00
02552              22.00    -7800.00
02553              26.00    -7800.00
02554              34.00    -8000.00
02555             -26.00    -8000.00
02556              14.00    -8400.00
02557              38.00    -8400.00
02558               8.00    -8600.00
02559               6.00    -8800.00
02560              10.00    -8800.00
02561              22.00    -8800.00
02562              32.00    -9200.00
02563              18.00    -9200.00
02564               0.00    -9400.00
02565              18.00    -9600.00
02566              28.00    -9600.00
02567              16.00    -9600.00
02568              22.00   -10000.00
02569              20.00   -10000.00
02570              10.00   -10200.00
02571              24.00   -10200.00
02572              14.00   -10200.00
02573              18.00   -10400.00
02574              36.00   -10400.00
02575              24.00   -10600.00
02576              14.00   -10800.00
02577              10.00   -10800.00
02578              12.00   -11000.00
02579              24.00   -11000.00
02580              32.00   -11000.00
02581              24.00   -11200.00
02582              18.00   -11200.00
02583              20.00   -11200.00
02584              14.00   -11400.00
02585              22.00   -11600.00
02586              30.00   -11600.00
02587              22.00   -11600.00
02588              26.00   -11800.00
02589              22.00   -11800.00
02590              14.00   -11800.00
02591              22.00   -11800.00
02592              24.00   -12000.00
02593              22.00   -11800.00
02594              30.00   -12000.00
02595              26.00   -12000.00
02596              20.00   -12200.00
02597              22.00   -12200.00
02598              18.00   -12000.00
02599              18.00   -12000.00
02600              30.00   -12200.00
02601              26.00   -12000.00
02602              26.00   -12400.00
02603              22.00   -12000.00
02604              16.00   -12400.00
02605              22.00   -12000.00
02606              26.00   -12000.00
02607              30.00   -12200.00
02608              28.00   -12200.00
02609              26.00   -12200.00
02610              18.00   -12000.00
02611              18.00   -12000.00
02612              24.00   -12200.00
02613              26.00   -12000.00
02614              30.00   -12000.00
02615              30.00   -12000.00
02616              22.00   -12000.00
02617              20.00   -12000.00
02618              22.00   -12000.00
02619              22.00   -12000.00
02620              26.00   -11800.00
02621              30.00   -11800.00
02622              26.00   -11800.00
02623              22.00   -11600.00
02624              18.00   -11600.00
02625              16.00   -11600.00
02626              26.00   -11600.00
02627              32.00   -11400.00
02628              26.00   -11400.00
02629              22.00   -11200.00
02630              16.00   -11200.00
02631              18.00   -11200.00
02632              24.00   -11200.00
02633              22.00   -11000.00
02634              22.00   -11000.00
02635              24.00   -10800.00
02636              22.00   -10800.00
02637              16.00   -10800.00
02638              18.00   -10400.00
02639              22.00   -10200.00
02640              22.00   -10200.00
02641              24.00   -10200.00
02642              16.00   -10000.00
02643              16.00   -10000.00
02644              18.00    -9800.00
02645              16.00    -9600.00
02646              20.00    -9600.00
02647              22.00    -9600.00
02648              18.00    -9400.00
02649              18.00    -9200.00
02650              14.00    -9200.00
02651              10.00    -8800.00
02652              16.00    -8800.00
02653              18.00    -8600.00
02654              18.00    -8600.00
02655              18.00    -8400.00
02656              10.00    -8200.00
02657              10.00    -8000.00
02658              12.00    -7800.00
02659              14.00    -7800.00
02660              16.00    -7600.00
02661              16.00    -7400.00
02662              10.00    -7200.00
02663              10.00    -7000.00
02664              14.00    -7000.00
02665              10.00    -6800.00
02666              10.00    -6600.00
02667              14.00    -6400.00
02668              14.00    -6400.00
02669              16.00    -6200.00
02670               6.00    -5800.00
02671               4.00    -5800.00
02672               6.00    -5600.00
02673              14.00    -5400.00
02674              16.00    -5200.00
02675              10.00    -4800.00
02676               6.00    -4800.00
02677               2.00    -4600.00
02678               4.00    -4400.00
02679               8.00    -4400.00
02680              10.00    -4000.00
02681               6.00    -4000.00
02682               2.00    -3800.00
02683               0.00    -3400.00
02684               6.00    -3200.00
02685               6.00    -3200.00
02686               8.00    -2800.00
02687               8.00    -2800.00
02688               0.00    -2600.00
02689               0.00    -2400.00
02690               0.00    -2200.00
02691               2.00    -2000.00
02692               2.00    -1800.00
02693              -2.00    -1600.00
02694               0.00    -1400.00
02695               0.00    -1000.00
02696               8.00     -800.00
02697               6.00     -800.00
02698              -2.00     -600.00
02699             -10.00     -200.00
02700             -14.00     -200.00
02701               0.00        0.00
02702              16.00      200.00
02703              16.00      400.00
02704              22.00      600.00
02705              22.00      800.00
02706              -8.00     1000.00
02707             -24.00     1200.00
02708              -8.00     1200.00
02709              16.00     1600.00
02710              56.00     1600.00
02711             246.00     2000.00
02712             230.00     2400.00
02713            -254.00     2400.00
02714            -254.00     2600.00
02715            -120.00     2800.00
02716             200.00     2800.00
02717             246.00     3200.00
02718             168.00     3400.00
02719            -254.00     3400.00
02720              30.00     3800.00
02721             246.00     4000.00
02722             -78.00     4000.00
02723             104.00     4400.00
02724            -210.00     4400.00
02725               8.00     4600.00
02726             208.00     4800.00
02727            -182.00     5200.00
02728             -96.00     5400.00
02729               8.00     5600.00
02730              94.00     5800.00
02731              -6.00     5600.00
02732             -56.00     6400.00
02733             -40.00     6000.00
02734             -58.00     6400.00
02735             128.00     6800.00
02736             -86.00     6600.00
02737             -80.00     6800.00
02738              30.00     7200.00
02739             -10.00     7200.00
02740              24.00     7600.00
02741             -54.00     7600.00
02742             -62.00     7800.00
02743             -10.00     7800.00
02744              46.00     8200.00
02745             -42.00     8200.00
02746             -40.00     8400.00
02747             -10.00     8600.00
02748             -32.00     8800.00
02749              -8.00     8800.00
02750             -30.00     9000.00
02751             -40.00     9000.00
02752              -8.00     9400.00
02753              14.00     9400.00
02754             -46.00     9600.00
02755             -22.00     9600.00
02756             -34.00     9800.00
02757             -34.00     9800.00
02758              -2.00    10000.00
02759             -24.00    10000.00
02760             -26.00    10200.00
02761             -20.00    10400.00
02762             -36.00    10400.00
02763             -34.00    10400.00
02764               0.00    10800.00
02765             -16.00    11000.00
02766             -34.00    10800.00
02767             -32.00    11200.00
02768             -42.00    11200.00
02769             -20.00    11200.00
02770              -8.00    11400.00
02771             -30.00    11400.00
02772             -34.00    11400.00
02773             -32.00    11600.00
02774             -32.00    11800.00
02775             -16.00    11800.00
02776             -26.00    12000.00
02777             -42.00    12000.00
02778             -32.00    11800.00
02779             -26.00    12000.00
02780             -26.00    12000.00
02781             -24.00    12200.00
02782             -26.00    12200.00
02783             -40.00    12200.00
02784             -32.00    12200.00
02785             -26.00    12400.00
02786             -30.00    12400.00
02787             -26.00    12400.00
02788             -34.00    12400.00
02789             -36.00    12400.00
02790             -26.00    12400.00
02791             -28.00    12600.00
02792             -26.00    12400.00
02793             -26.00    12600.00
02794             -32.00    12600.00
02795             -38.00    12600.00
02796             -34.00    12400.00
02797             -34.00    12400.00
02798             -26.00    12400.00
02799             -18.00    12600.00
02800             -32.00    12600.00
02801             -40.00    12400.00
02802             -38.00    12400.00
02803             -34.00    12400.00
02804             -24.00    12400.00
02805             -16.00    12400.00
02806             -22.00    12400.00
02807             -26.00    12400.00
02808             -42.00    12200.00
02809             -50.00    12400.00
02810             -40.00    12200.00
02811             -16.00    12200.00
02812              -2.00    12200.00
02813             -10.00    12200.00
02814             -46.00    12200.00
02815             -64.00    12000.00
02816             -32.00    12200.00
02817               0.00    12000.00
02818              -6.00    12000.00
02819             -34.00    12000.00
02820             -54.00    11800.00
02821             -38.00    11600.00
02822             -24.00    11800.00
02823             -22.00    11400.00
02824             -22.00    11400.00
02825             -22.00    11400.00
02826             -30.00    11200.00
02827             -32.00    11200.00
02828             -30.00    11000.00
02829             -26.00    10800.00
02830             -26.00    10800.00
02831             -26.00    10800.00
02832             -30.00    10400.00
02833             -24.00    10400.00
02834             -22.00    10400.00
02835             -20.00    10200.00
02836             -26.00    10000.00
02837             -34.00    10000.00
02838             -32.00     9800.00
02839             -22.00     9600.00
02840             -18.00     9600.00
02841             -22.00     9600.00
02842             -26.00     9200.00
02843             -24.00     9200.00
02844             -24.00     9000.00
02845             -26.00     9000.00
02846             -26.00     8800.00
02847             -26.00     8800.00
02848             -24.00     8400.00
02849             -22.00     8200.00
02850             -24.00     8200.00
02851             -24.00     8000.00
02852             -24.00     8000.00
02853             -26.00     7600.00
02854             -22.00     7600.00
02855             -16.00     7600.00
02856             -14.00     7200.00
02857             -18.00     7200.00
02858             -22.00     6800.00
02859             -26.00     6800.00
02860             -22.00     6600.00
02861             -18.00     6400.00
02862             -12.00     6200.00
02863             -12.00     6000.00
02864             -16.00     5800.00
02865             -18.00     5600.00
02866             -24.00     5600.00
02867             -22.00     5400.00
02868             -14.00     5000.00
02869             -10.00     5200.00
02870             -10.00     4600.00
02871             -14.00     4400.00
02872             -16.00     4400.00
02873             -18.00     4000.00
02874             -10.00     4000.00
02875             -12.00     3800.00
02876             -10.00     3600.00
02877             -10.00     3400.00
02878              -8.00     3200.00
02879             -10.00     3000.00
02880             -10.00     2800.00
02881             -14.00     2600.00
02882             -16.00     2400.00
02883              -8.00     2200.00
02884              -6.00     2000.00
02885              -2.00     1800.00
02886              -4.00     1600.00
02887              -8.00     1600.00
02888              -8.00     1200.00
02889             -10.00     1000.00
02890              -8.00      800.00
02891              -2.00      600.00
02892               0.00      400.00
02893               0.00      400.00
02894               0.00        0.00
02895               2.00     -200.00
02896              26.00     -400.00
02897              18.00     -400.00
02898             -10.00     -600.00
02899             -20.00     -800.00
02900               2.00    -1000.00
02901              18.00    -1200.00
02902              38.00    -1400.00
02903             168.00    -1600.00
02904             246.00    -2000.00
02905            -160.00    -2400.00
02906            -254.00    -2400.00
02907            -194.00    -2800.00
02908             162.00    -2800.00
02909             194.00    -2600.00
02910             246.00    -3200.00
02911            -158.00    -3400.00
02912            -254.00    -3200.00
02913             224.00    -4000.00
02914             118.00    -3800.00
02915               4.00    -3800.00
02916             -24.00    -4600.00
02917             -90.00    -4000.00
02918             150.00    -4800.00
02919              18.00    -4800.00
02920             -96.00    -5000.00
02921             -72.00    -5200.00
02922              46.00    -5200.00
02923             172.00    -5600.00
02924             -42.00    -5600.00
02925             -50.00    -6000.00
02926             -38.00    -6200.00
02927              34.00    -6000.00
02928             118.00    -6800.00
02929             -34.00    -6400.00
02930             -22.00    -6800.00
02931               2.00    -7000.00
02932              46.00    -7000.00
02933              14.00    -7400.00
02934             -16.00    -7200.00
02935              30.00    -7800.00
02936              16.00    -7600.00
02937              42.00    -7800.00
02938              -2.00    -8400.00
02939             -14.00    -8200.00
02940              42.00    -8400.00
02941              18.00    -8400.00
02942              -2.00    -8800.00
02943               8.00    -8800.00
02944              22.00    -9000.00
02945              30.00    -9200.00
02946              30.00    -9200.00
02947               4.00    -9400.00
02948               6.00    -9600.00
02949              30.00    -9600.00
02950              22.00    -9600.00
02951              24.00    -9800.00
02952              30.00   -10000.00
02953               6.00   -10200.00
02954              16.00   -10200.00
02955              22.00   -10200.00
02956              10.00   -10400.00
02957              32.00   -10400.00
02958              30.00   -10800.00
02959              16.00   -10800.00
02960              16.00   -11000.00
02961              14.00   -11000.00
02962              16.00   -11000.00
02963              32.00   -11000.00
02964              30.00   -11200.00
02965              22.00   -11200.00
02966              30.00   -11200.00
02967              16.00   -11400.00
02968              14.00   -11600.00
02969              26.00   -11600.00
02970              24.00   -11600.00
02971              30.00   -11800.00
02972              32.00   -11800.00
02973              10.00   -11800.00
02974              10.00   -11800.00
02975              22.00   -12000.00
02976              22.00   -12000.00
02977              32.00   -12000.00
02978              30.00   -12000.00
02979              16.00   -12000.00
02980              22.00   -12000.00
02981              26.00   -12000.00
02982              20.00   -12000.00
02983              18.00   -12000.00
02984              24.00   -12000.00
02985              30.00   -12200.00
02986              32.00   -12000.00
02987              18.00   -12200.00
02988              10.00   -12200.00
02989              22.00   -12200.00
02990              30.00   -12000.00
02991              32.00   -12200.00
02992              26.00   -12000.00
02993              18.00   -12400.00
02994              10.00   -12200.00
02995              16.00   -12000.00
02996              32.00   -12000.00
02997              38.00   -12000.00
02998              32.00   -12000.00
02999              16.00   -12000.00
03000              10.00   -12000.00
03001              16.00   -12000.00
03002              26.00   -11800.00
03003              34.00   -11800.00
03004              32.00   -11800.00
03005              22.00   -11800.00
03006              14.00   -11800.00
03007              14.00   -11600.00
03008              22.00   -11600.00
03009              26.00   -11600.00
03010              30.00   -11400.00
03011              24.00   -11400.00
03012              22.00   -11200.00
03013              18.00   -11200.00
03014              20.00   -11200.00
03015              22.00   -11000.00
03016              22.00   -11000.00
03017              22.00   -10800.00
03018              30.00   -10800.00
03019              24.00   -10800.00
03020              22.00   -10800.00
03021              10.00   -10600.00
03022              14.00   -10400.00
03023              22.00   -10400.00
03024              30.00   -10200.00
03025              28.00   -10000.00
03026              22.00   -10000.00
03027              10.00   -10000.00
03028              10.00    -9600.00
03029              16.00    -9400.00
03030              24.00    -9600.00
03031              26.00    -9400.00
03032              20.00    -9200.00
03033              16.00    -9200.00
03034              10.00    -9000.00
03035              10.00    -8800.00
03036              14.00    -8600.00
03037              18.00    -8400.00
03038              22.00    -8400.00
03039              18.00    -8400.00
03040               8.00    -8200.00
03041               6.00    -8000.00
03042              10.00    -7800.00
03043              18.00    -7600.00
03044              22.00    -7400.00
03045              16.00    -7400.00
03046               8.00    -7200.00
03047               8.00    -7000.00
03048               8.00    -6800.00
03049              14.00    -6800.00
03050              14.00    -6400.00
03051              14.00    -6400.00
03052              10.00    -6200.00
03053               8.00    -6200.00
03054               6.00    -5800.00
03055               6.00    -5400.00
03056               8.00    -5600.00
03057              14.00    -5200.00
03058              10.00    -5200.00
03059               6.00    -4800.00
03060               6.00    -4800.00
03061               6.00    -4400.00
03062               8.00    -4200.00
03063              10.00    -4000.00
03064              12.00    -4000.00
03065               6.00    -3800.00
03066              -2.00    -3600.00
03067              -2.00    -3400.00
03068               6.00    -3200.00
03069              10.00    -3000.00
03070               6.00    -2800.00
03071               0.00    -2800.00
03072              -2.00    -2400.00
03073               2.00    -2000.00
03074               6.00    -2000.00
03075               2.00    -2000.00
03076               6.00    -1600.00
03077               0.00    -1400.00
03078              -6.00    -1200.00
03079              -2.00    -1000.00
03080               8.00     -800.00
03081               0.00     -600.00
03082              -6.00     -400.00
03083              -2.00     -200.00
03084               2.00        0.00
03085               6.00      200.00
03086               6.00      400.00
03087               2.00      600.00
03088              24.00      800.00
03089              16.00      800.00
03090              -2.00     1200.00
03091              -8.00     1000.00
03092               0.00     1600.00
03093               8.00     1600.00
03094             142.00     1800.00
03095             246.00     2400.00
03096             -90.00     2400.00
03097            -254.00     2600.00
03098            -254.00     2600.00
03099              72.00     3000.00
03100             246.00     3000.00
03101             246.00     3400.00
03102            -254.00     3400.00
03103            -254.00     3600.00
03104             246.00     4000.00
03105              -2.00     4000.00
03106              48.00     4200.00
03107             -42.00     4400.00
03108            -182.00     4600.00
03109             246.00     4800.00
03110             -48.00     5000.00
03111            -190.00     5400.00
03112             -24.00     5400.00
03113              70.00     5800.00
03114              90.00     5600.00
03115             -64.00     6000.00
03116             -42.00     6000.00
03117            -122.00     6000.00
03118              88.00     6600.00
03119              70.00     6600.00
03120            -132.00     6800.00
03121               4.00     7200.00
03122             -26.00     7000.00
03123              18.00     7400.00
03124             -10.00     7400.00
03125             -66.00     7800.00
03126             -30.00     7800.00
03127              42.00     8000.00
03128              -6.00     8200.00
03129             -72.00     8200.00
03130             -10.00     8600.00
03131             -28.00     8600.00
03132               2.00     8800.00
03133             -10.00     9000.00
03134             -46.00     9000.00
03135             -46.00     9200.00
03136               2.00     9400.00
03137             -14.00     9600.00
03138             -16.00     9600.00
03139             -10.00     9800.00
03140             -60.00     9800.00
03141             -16.00     9800.00
03142             -10.00    10200.00
03143             -16.00    10400.00
03144             -14.00    10400.00
03145             -28.00    10400.00
03146             -54.00    10600.00
03147             -18.00    10600.00
03148              -8.00    10800.00
03149             -24.00    10800.00
03150             -18.00    11200.00
03151             -38.00    11200.00
03152             -42.00    11200.00
03153             -20.00    11400.00
03154             -22.00    11400.00
03155             -26.00    11600.00
03156             -12.00    11800.00
03157             -26.00    11600.00
03158             -32.00    11800.00
03159             -26.00    11800.00
03160             -38.00    11800.00
03161             -24.00    12000.00
03162             -16.00    12000.00
03163             -30.00    12200.00
03164             -38.00    12200.00
03165             -34.00    12200.00
03166             -34.00    12200.00
03167             -20.00    12400.00
03168             -18.00    12200.00
03169             -32.00    12200.00
03170             -32.00    12200.00
03171             -32.00    12400.00
03172             -38.00    12400.00
03173             -26.00    12400.00
03174             -30.00    12600.00
03175             -30.00    12600.00
03176             -26.00    12600.00
03177             -30.00    12400.00
03178             -40.00    12600.00
03179             -34.00    12600.00
03180             -30.00    12400.00
03181             -26.00    12400.00
03182             -24.00    12600.00
03183             -32.00    12400.00
03184             -36.00    12400.00
03185             -32.00    12400.00
03186             -34.00    12400.00
03187             -32.00    12400.00
03188             -24.00    12400.00
03189             -26.00    12400.00
03190             -26.00    12400.00
03191             -32.00    12200.00
03192             -38.00    12400.00
03193             -30.00    12200.00
03194             -26.00    12200.00
03195             -26.00    12200.00
03196             -30.00    12200.00
03197             -32.00    12200.00
03198             -34.00    12200.00
03199             -30.00    12000.00
03200             -26.00    12000.00
03201             -28.00    11800.00
03202             -24.00    11800.00
03203             -30.00    11800.00
03204             -30.00    11800.00
03205             -26.00    11600.00
03206             -32.00    11800.00
03207             -34.00    11400.00
03208             -28.00    11400.00
03209             -22.00    11200.00
03210             -16.00    11200.00
03211             -26.00    11000.00
03212             -38.00    11000.00
03213             -34.00    10800.00
03214             -26.00    10600.00
03215             -18.00    10600.00
03216             -18.00    10400.00
03217             -26.00    10400.00
03218             -38.00    10400.00
03219             -34.00    10200.00
03220             -26.00    10000.00
03221             -16.00    10000.00
03222             -14.00     9800.00
03223             -22.00     9600.00
03224             -30.00     9600.00
03225             -32.00     9200.00
03226             -30.00     9200.00
03227             -22.00     9200.00
03228             -18.00     9000.00
03229             -16.00     8800.00
03230             -22.00     8600.00
03231             -26.00     8600.00
03232             -26.00     8400.00
03233             -24.00     8200.00
03234             -22.00     8000.00
03235             -24.00     8000.00
03236             -32.00     7800.00
03237             -26.00     7600.00
03238             -16.00     7400.00
03239             -10.00     7200.00
03240             -10.00     7200.00
03241             -22.00     7000.00
03242             -28.00     6800.00
03243             -32.00     6600.00
03244             -24.00     6600.00
03245             -10.00     6400.00
03246              -6.00     6200.00
03247             -10.00     6000.00
03248             -24.00     5800.00
03249             -32.00     5400.00
03250             -24.00     5600.00
03251             -10.00     5200.00
03252             -14.00     5000.00
03253             -18.00     4800.00
03254             -16.00     4600.00
03255              -8.00     4400.00
03256              -8.00     4200.00
03257             -16.00     4000.00
03258             -26.00     3600.00
03259             -24.00     3600.00
03260              -6.00     3600.00
03261               6.00     3400.00
03262              -2.00     3000.00
03263             -14.00     2800.00
03264             -24.00     2600.00
03265             -18.00     2600.00
03266              -8.00     2400.00
03267               0.00     2000.00
03268               2.00     1800.00
03269              -2.00     1600.00
03270             -10.00     1600.00
03271             -14.00     1200.00
03272             -10.00     1000.00
03273              -8.00     1000.00
03274               0.00      800.00
03275               6.00      400.00
03276               2.00      400.00
03277              -2.00        0.00
03278              -4.00        0.00
03279              18.00     -200.00
03280              30.00     -400.00
03281               0.00     -800.00
03282             -16.00     -800.00
03283              -2.00    -1000.00
03284              18.00    -1200.00
03285              26.00    -1400.00
03286              90.00    -1400.00
03287             246.00    -1800.00
03288              64.00    -2200.00
03289            -254.00    -2600.00
03290            -254.00    -2600.00
03291              72.00    -2800.00
03292             186.00    -2800.00
03293             246.00    -3000.00
03294             150.00    -3400.00
03295            -254.00    -3200.00
03296              -8.00    -3600.00
03297             246.00    -4000.00
03298             -10.00    -3600.00
03299              30.00    -4200.00
03300            -118.00    -4400.00
03301              54.00    -4400.00
03302             126.00    -4800.00
03303             -78.00    -4800.00
03304             -70.00    -5200.00
03305             -38.00    -5200.00
03306             158.00    -5600.00
03307              56.00    -5600.00
03308             -70.00    -5600.00
03309             -22.00    -6200.00
03310             -36.00    -6000.00
03311             104.00    -6600.00
03312              30.00    -6400.00
03313             -34.00    -6400.00
03314               8.00    -7000.00
03315              18.00    -6800.00
03316              34.00    -7200.00
03317             -26.00    -7200.00
03318              16.00    -7600.00
03319              22.00    -7800.00
03320              30.00    -7800.00
03321              32.00    -8000.00
03322             -24.00    -8000.00
03323              28.00    -8400.00
03324              30.00    -8400.00
03325               2.00    -8600.00
03326              10.00    -8800.00
03327              16.00    -8800.00
03328              24.00    -9200.00
03329              30.00    -9200.00
03330              12.00    -9400.00
03331               0.00    -9400.00
03332              18.00    -9400.00
03333              24.00    -9600.00
03334              22.00    -9800.00
03335              32.00   -10000.00
03336              16.00   -10000.00
03337              12.00   -10000.00
03338              20.00   -10200.00
03339               8.00   -10200.00
03340              26.00   -10400.00
03341              42.00   -10400.00
03342              22.00   -10800.00
03343              14.00   -10800.00
03344              10.00   -10800.00
03345              10.00   -11000.00
03346              26.00   -11000.00
03347              34.00   -11000.00
03348              24.00   -11200.00
03349              24.00   -11200.00
03350              22.00   -11400.00
03351               8.00   -11600.00
03352              20.00   -11600.00
03353              26.00   -11600.00
03354              24.00   -11600.00
03355              32.00   -11600.00
03356              20.00   -11800.00
03357              14.00   -11800.00
03358              22.00   -11800.00
03359              24.00   -12000.00
03360              26.00   -12000.00
03361              30.00   -12000.00
03362              22.00   -12000.00
03363              22.00   -12000.00
03364              22.00   -12000.00
03365              16.00   -12000.00
03366              18.00   -12200.00
03367              30.00   -12000.00
03368              28.00   -12000.00
03369              26.00   -12000.00
03370              22.00   -12200.00
03371              14.00   -12200.00
03372              22.00   -12000.00
03373              30.00   -12000.00
03374              30.00   -12200.00
03375              24.00   -12000.00
03376              22.00   -12200.00
03377              16.00   -12000.00
03378              18.00   -12200.00
03379              24.00   -12000.00
03380              26.00   -12000.00
03381              32.00   -12000.00
03382              26.00   -12000.00
03383              18.00   -12000.00
03384              18.00   -12000.00
03385              18.00   -11800.00
03386              22.00   -11800.00
03387              30.00   -11800.00
03388              30.00   -11800.00
03389              24.00   -11800.00
03390              16.00   -11600.00
03391              12.00   -11600.00
03392              18.00   -11600.00
03393              32.00   -11600.00
03394              34.00   -11400.00
03395              22.00   -11400.00
03396              22.00   -11200.00
03397              14.00   -11200.00
03398              22.00   -11200.00
03399              22.00   -11200.00
03400              22.00   -11000.00
03401              24.00   -11000.00
03402              24.00   -10800.00
03403              16.00   -10800.00
03404              16.00   -10600.00
03405              22.00   -10400.00
03406              22.00   -10400.00
03407              24.00   -10400.00
03408              22.00   -10200.00
03409              18.00   -10200.00
03410              16.00   -10000.00
03411              14.00    -9800.00
03412              16.00    -9600.00
03413              22.00    -9400.00
03414              22.00    -9600.00
03415              18.00    -9200.00
03416              16.00    -9200.00
03417              14.00    -9000.00
03418              16.00    -8800.00
03419              16.00    -8800.00
03420              14.00    -8600.00
03421              16.00    -8400.00
03422              16.00    -8400.00
03423              14.00    -8200.00
03424              14.00    -8000.00
03425              14.00    -7800.00
03426              10.00    -7800.00
03427              16.00    -7600.00
03428              16.00    -7400.00
03429              12.00    -7200.00
03430              12.00    -7000.00
03431               8.00    -7000.00
03432              10.00    -6800.00
03433              14.00    -6600.00
03434              14.00    -6400.00
03435              10.00    -6400.00
03436              10.00    -6000.00
03437               6.00    -6000.00
03438               6.00    -5600.00
03439               8.00    -5600.00
03440              10.00    -5400.00
03441              12.00    -5200.00
03442              10.00    -5000.00
03443               6.00    -4800.00
03444               4.00    -4600.00
03445               2.00    -4400.00
03446               6.00    -4400.00
03447               8.00    -4000.00
03448              12.00    -3800.00
03449               2.00    -3600.00
03450               0.00    -3400.00
03451               2.00    -3200.00
03452               2.00    -3000.00
03453               6.00    -2800.00
03454               8.00    -2800.00
03455               6.00    -2400.00
03456               0.00    -2400.00
03457              -2.00    -2200.00
03458              -2.00    -2000.00
03459               6.00    -1600.00
03460               8.00    -1400.00
03461               0.00    -1400.00
03462              -6.00    -1000.00
03463              -2.00     -800.00
03464               2.00     -600.00
03465               2.00     -400.00
03466              -6.00     -400.00
03467              -6.00        0.00
03468               8.00        0.00
03469               6.00      400.00
03470              -2.00      400.00
03471              22.00      800.00
03472              30.00      800.00
03473               6.00     1000.00
03474             -22.00     1200.00
03475             -10.00     1400.00
03476              16.00     1600.00
03477              72.00     1800.00
03478             246.00     2000.00
03479             160.00     2600.00
03480            -254.00     2400.00
03481            -254.00     2800.00
03482             -48.00     3000.00
03483             246.00     3000.00
03484             246.00     3400.00
03485             -46.00     3400.00
03486            -254.00     3400.00
03487             176.00     4000.00
03488             240.00     4000.00
03489             -48.00     4200.00
03490              82.00     4400.00
03491            -254.00     4400.00
03492              88.00     4600.00
03493             154.00     5000.00
03494            -192.00     5200.00
03495             -64.00     5400.00
03496              10.00     5600.00
03497             102.00     5800.00
03498             -16.00     5600.00
03499             -40.00     6400.00
03500             -86.00     6200.00
03501             -42.00     6400.00
03502             138.00     6800.00
03503             -88.00     6600.00
03504             -42.00     7000.00
03505              -2.00     7000.00
03506             -24.00     7400.00
03507              20.00     7600.00
03508             -48.00     7600.00
03509             -42.00     7600.00
03510               2.00     7800.00
03511              24.00     8200.00
03512             -66.00     8200.00
03513             -26.00     8400.00
03514             -10.00     8800.00
03515             -18.00     8400.00
03516              -4.00     9000.00
03517             -40.00     9000.00
03518             -48.00     9200.00
03519              -8.00     9200.00
03520               8.00     9600.00
03521             -38.00     9600.00
03522             -14.00     9800.00
03523             -50.00     9800.00
03524             -34.00     9800.00
03525              -2.00    10000.00
03526             -18.00    10200.00
03527             -18.00    10200.00
03528             -26.00    10400.00
03529             -46.00    10600.00
03530             -36.00    10400.00
03531               0.00    10800.00
03532             -18.00    10800.00
03533             -22.00    10800.00
03534             -30.00    11200.00
03535             -44.00    11200.00
03536             -30.00    11200.00
03537             -14.00    11400.00
03538             -26.00    11400.00
03539             -24.00    11400.00
03540             -24.00    11800.00
03541             -38.00    11800.00
03542             -24.00    12000.00
03543             -26.00    12000.00
03544             -34.00    11800.00
03545             -24.00    12200.00
03546             -22.00    12000.00
03547             -32.00    12200.00
03548             -26.00    12200.00
03549             -32.00    12200.00
03550             -36.00    12200.00
03551             -22.00    12400.00
03552             -24.00    12400.00
03553             -32.00    12200.00
03554             -30.00    12400.00
03555             -38.00    12400.00
03556             -34.00    12400.00
03557             -30.00    12400.00
03558             -30.00    12600.00
03559             -24.00    12400.00
03560             -24.00    12600.00
03561             -38.00    12600.00
03562             -34.00    12400.00
03563             -34.00    12600.00
03564             -32.00    12400.00
03565             -24.00    12400.00
03566             -24.00    12600.00
03567             -34.00    12400.00
03568             -34.00    12600.00
03569             -38.00    12600.00
03570             -34.00    12400.00
03571             -24.00    12400.00
03572             -24.00    12400.00
03573             -30.00    12400.00
03574             -32.00    12400.00
03575             -38.00    12200.00
03576             -36.00    12400.00
03577             -30.00    12200.00
03578             -24.00    12200.00
03579             -26.00    12200.00
03580             -30.00    12000.00
03581             -36.00    12000.00
03582             -34.00    12200.00
03583             -30.00    12000.00
03584             -26.00    12000.00
03585             -24.00    11800.00
03586             -26.00    11600.00
03587             -32.00    12000.00
03588             -34.00    11800.00
03589             -32.00    11600.00
03590             -32.00    11400.00
03591             -26.00    11400.00
03592             -24.00    11200.00
03593             -26.00    11200.00
03594             -30.00    11200.00
03595             -32.00    11200.00
03596             -26.00    11000.00
03597             -24.00    10800.00
03598             -24.00    10600.00
03599             -30.00    10400.00
03600             -26.00    10400.00
03601             -24.00    10400.00
03602             -26.00    10200.00
03603             -26.00    10200.00
03604             -28.00    10000.00
03605             -24.00     9800.00
03606             -20.00     9800.00
03607             -22.00     9600.00
03608             -28.00     9400.00
03609             -30.00     9400.00
03610             -24.00     9200.00
03611             -16.00     9000.00
03612             -16.00     9000.00
03613             -24.00     8800.00
03614             -30.00     8600.00
03615             -30.00     8400.00
03616             -20.00     8400.00
03617             -14.00     8200.00
03618             -16.00     8000.00
03619             -22.00     8000.00
03620             -26.00     7600.00
03621             -22.00     7600.00
03622             -18.00     7200.00
03623             -16.00     7200.00
03624             -20.00     7000.00
03625             -24.00     6800.00
03626             -18.00     6600.00
03627             -20.00     6600.00
03628             -22.00     6400.00
03629             -16.00     6200.00
03630             -14.00     6000.00
03631             -14.00     5800.00
03632             -18.00     5600.00
03633             -22.00     5400.00
03634             -18.00     5200.00
03635             -16.00     5200.00
03636             -16.00     4800.00
03637             -16.00     4800.00
03638             -10.00     4400.00
03639             -10.00     4200.00
03640             -10.00     4200.00
03641             -18.00     4000.00
03642             -18.00     3600.00
03643             -14.00     3600.00
03644             -10.00     3400.00
03645              -8.00     3200.00
03646              -8.00     2800.00
03647             -10.00     2800.00
03648             -16.00     2400.00
03649             -18.00     2400.00
03650             -10.00     2200.00
03651              -4.00     2000.00
03652               2.00     2000.00
03653              -2.00     1600.00
03654             -10.00     1400.00
03655             -10.00     1200.00
03656             -10.00     1000.00
03657              -6.00      800.00
03658              -2.00      600.00
03659               0.00      400.00
03660               0.00      200.00
03661              -2.00        0.00
03662               8.00        0.00
03663              38.00     -400.00
03664              18.00     -600.00
03665             -20.00     -800.00
03666             -22.00     -800.00
03667               8.00    -1000.00
03668              26.00    -1200.00
03669              54.00    -1400.00
03670             202.00    -1600.00
03671             234.00    -2200.00
03672            -250.00    -2400.00
03673            -254.00    -2600.00
03674            -112.00    -2800.00
03675             182.00    -2800.00
03676             222.00    -2800.00
03677             246.00    -3200.00
03678            -254.00    -3400.00
03679            -254.00    -3200.00
03680             246.00    -4000.00
03681              64.00    -3600.00
03682              30.00    -3800.00
03683             -50.00    -4400.00
03684             -64.00    -4000.00
03685             152.00    -4800.00
03686             -16.00    -4600.00
03687             -78.00    -5200.00
03688             -58.00    -5200.00
03689              78.00    -5200.00
03690             138.00    -5800.00
03691             -70.00    -5400.00
03692             -28.00    -6200.00
03693             -34.00    -6000.00
03694              58.00    -6200.00
03695              90.00    -6600.00
03696             -50.00    -6200.00
03697             -14.00    -6800.00
03698               8.00    -7000.00
03699              52.00    -7200.00
03700               0.00    -7200.00
03701              -8.00    -7200.00
03702              24.00    -7600.00
03703              16.00    -7600.00
03704              40.00    -8000.00
03705             -18.00    -8000.00
03706               0.00    -8400.00
03707              48.00    -8600.00
03708              18.00    -8600.00
03709               0.00    -8800.00
03710               6.00    -8800.00
03711              14.00    -9000.00
03712              36.00    -9200.00
03713              26.00    -9200.00
03714               2.00    -9600.00
03715               6.00    -9400.00
03716              24.00    -9600.00
03717              22.00    -9800.00
03718              26.00   -10000.00
03719              24.00   -10000.00
03720               6.00   -10200.00
03721              14.00   -10400.00
03722              14.00   -10200.00
03723              16.00   -10400.00
03724              40.00   -10400.00
03725              32.00   -10800.00
03726              10.00   -10800.00
03727               6.00   -11000.00
03728              10.00   -11000.00
03729              26.00   -11000.00
03730              40.00   -11000.00
03731              30.00   -11200.00
03732              16.00   -11200.00
03733              16.00   -11400.00
03734              16.00   -11200.00
03735              22.00   -11400.00
03736              32.00   -11600.00
03737              26.00   -11600.00
03738              26.00   -11800.00
03739              24.00   -11800.00
03740              14.00   -11800.00
03741              16.00   -11800.00
03742              26.00   -11800.00
03743              30.00   -12000.00
03744              30.00   -12000.00
03745              26.00   -12000.00
03746              18.00   -12000.00
03747              22.00   -12200.00
03748              18.00   -12000.00
03749              16.00   -12000.00
03750              30.00   -12000.00
03751              32.00   -12000.00
03752              22.00   -12200.00
03753              18.00   -12200.00
03754              18.00   -12200.00
03755              16.00   -12200.00
03756              26.00   -12200.00
03757              26.00   -12200.00
03758              22.00   -12200.00
03759              24.00   -12200.00
03760              22.00   -12200.00
03761              18.00   -12000.00
03762              22.00   -12200.00
03763              22.00   -12400.00
03764              24.00   -12000.00
03765              30.00   -12000.00
03766              22.00   -12000.00
03767              18.00   -12000.00
03768              18.00   -12000.00
03769              16.00   -12000.00
03770              26.00   -11800.00
03771              30.00   -12000.00
03772              24.00   -11800.00
03773              22.00   -11800.00
03774              18.00   -11800.00
03775              16.00   -11600.00
03776              20.00   -11600.00
03777              26.00   -11600.00
03778              24.00   -11400.00
03779              24.00   -11200.00
03780              18.00   -11200.00
03781              16.00   -11200.00
03782              18.00   -11200.00
03783              24.00   -11000.00
03784              24.00   -11000.00
03785              26.00   -10800.00
03786              18.00   -10800.00
03787              14.00   -10600.00
03788              16.00   -10600.00
03789              22.00   -10400.00
03790              24.00   -10400.00
03791              26.00   -10200.00
03792              22.00   -10000.00
03793              18.00   -10000.00
03794              16.00    -9800.00
03795              16.00    -9600.00
03796              18.00    -9600.00
03797              22.00    -9400.00
03798              22.00    -9200.00
03799              22.00    -9200.00
03800              16.00    -8800.00
03801              14.00    -8800.00
03802              14.00    -8800.00
03803              18.00    -8800.00
03804              22.00    -8600.00
03805              22.00    -8400.00
03806              14.00    -8000.00
03807              10.00    -8200.00
03808               8.00    -8000.00
03809              18.00    -7800.00
03810              18.00    -7600.00
03811              16.00    -7400.00
03812              16.00    -7200.00
03813              12.00    -7200.00
03814              10.00    -7000.00
03815               8.00    -7000.00
03816               8.00    -6800.00
03817              16.00    -6600.00
03818              16.00    -6200.00
03819               8.00    -6200.00
03820               6.00    -6000.00
03821               8.00    -5600.00
03822              10.00    -5600.00
03823              10.00    -5400.00
03824               8.00    -5400.00
03825               8.00    -5000.00
03826              10.00    -4800.00
03827               6.00    -4800.00
03828               2.00    -4600.00
03829               6.00    -4400.00
03830               6.00    -4000.00
03831              10.00    -4000.00
03832              10.00    -3800.00
03833               2.00    -3600.00
03834               0.00    -3400.00
03835               2.00    -3200.00
03836               2.00    -3000.00
03837               8.00    -2800.00
03838               6.00    -2600.00
03839               0.00    -2400.00
03840               0.00    -2200.00
03841               0.00    -2200.00
03842               0.00    -1800.00
03843               2.00    -1600.00
03844               0.00    -1400.00
03845               6.00    -1000.00
03846               0.00     -800.00
03847              -2.00     -800.00
03848              -4.00     -400.00
03849              -2.00     -400.00
03850               0.00        0.00
03851               2.00        0.00
03852               0.00      200.00
03853               0.00      400.00
03854              12.00      600.00
03855              32.00      800.00
03856              14.00      800.00
03857             -16.00     1000.00
03858             -14.00     1200.00
03859               6.00     1600.00
03860              32.00     1800.00
03861             192.00     2000.00
03862             246.00     2400.00
03863            -218.00     2400.00
03864            -254.00     2600.00
03865            -250.00     2800.00
03866             124.00     2800.00
03867             246.00     3200.00
03868             246.00     3600.00
03869            -254.00     3200.00
03870            -248.00     3600.00
03871             246.00     4000.00
03872             -38.00     4000.00
03873              94.00     4400.00
03874            -130.00     4600.00
03875            -136.00     4400.00
03876             246.00     4800.00
03877             -96.00     5000.00
03878            -136.00     5400.00
03879             -14.00     5400.00
03880              68.00     5800.00
03881              54.00     5600.00
03882             -60.00     5800.00
03883             -40.00     6200.00
03884            -114.00     6000.00
03885             112.00     6600.00
03886              16.00     6400.00
03887            -110.00     6800.00
03888              16.00     7200.00
03889             -34.00     7000.00
03890              22.00     7400.00
03891             -24.00     7600.00
03892             -56.00     7800.00
03893             -24.00     7800.00
03894              38.00     8000.00
03895             -28.00     8200.00
03896             -64.00     8200.00
03897              -8.00     8600.00
03898             -30.00     8400.00
03899               0.00     8800.00
03900             -18.00     8800.00
03901             -46.00     9000.00
03902             -36.00     9200.00
03903              12.00     9400.00
03904             -26.00     9600.00
03905             -20.00     9600.00
03906             -28.00     9800.00
03907             -56.00     9800.00
03908              -6.00    10000.00
03909             -16.00    10200.00
03910             -22.00    10400.00
03911             -24.00    10400.00
03912             -36.00    10600.00
03913             -48.00    10600.00
03914             -10.00    10600.00
03915              -8.00    10800.00
03916             -24.00    10800.00
03917             -24.00    10800.00
03918             -42.00    11200.00
03919             -40.00    11200.00
03920             -16.00    11400.00
03921             -18.00    11400.00
03922             -26.00    11800.00
03923             -22.00    11800.00
03924             -34.00    11800.00
03925             -32.00    11800.00
03926             -24.00    11800.00
03927             -36.00    12000.00
03928             -26.00    12000.00
03929             -14.00    12000.00
03930             -26.00    12000.00
03931             -32.00    12000.00
03932             -32.00    12200.00
03933             -38.00    12200.00
03934             -24.00    12200.00
03935             -18.00    12200.00
03936             -26.00    12400.00
03937             -26.00    12400.00
03938             -34.00    12400.00
03939             -38.00    12400.00
03940             -26.00    12600.00
03941             -26.00    12400.00
03942             -26.00    12600.00
03943             -24.00    12400.00
03944             -32.00    12800.00
03945             -38.00    12800.00
03946             -32.00    12600.00
03947             -32.00    12400.00
03948             -30.00    12600.00
03949             -22.00    12400.00
03950             -30.00    12400.00
03951             -32.00    12800.00
03952             -34.00    12400.00
03953             -38.00    12600.00
03954             -30.00    12400.00
03955             -22.00    12400.00
03956             -26.00    12400.00
03957             -32.00    12400.00
03958             -34.00    12400.00
03959             -34.00    12200.00
03960             -30.00    12400.00
03961             -26.00    12200.00
03962             -30.00    12200.00
03963             -26.00    12000.00
03964             -32.00    12200.00
03965             -34.00    12000.00
03966             -32.00    12000.00
03967             -30.00    11800.00
03968             -24.00    11800.00
03969             -24.00    11800.00
03970             -30.00    11600.00
03971             -32.00    11800.00
03972             -34.00    11600.00
03973             -32.00    11800.00
03974             -26.00    11400.00
03975             -22.00    11400.00
03976             -24.00    11200.00
03977             -26.00    11200.00
03978             -32.00    11200.00
03979             -30.00    11000.00
03980             -26.00    10800.00
03981             -26.00    10600.00
03982             -24.00    10600.00
03983             -24.00    10400.00
03984             -26.00    10400.00
03985             -30.00    10200.00
03986             -30.00    10000.00
03987             -26.00    10000.00
03988             -22.00    10000.00
03989             -18.00     9800.00
03990             -22.00     9600.00
03991             -26.00     9600.00
03992             -28.00     9600.00
03993             -26.00     9200.00
03994             -22.00     9200.00
03995             -18.00     9000.00
03996             -16.00     8800.00
03997             -22.00     8600.00
03998             -26.00     8400.00
03999             -26.00     8400.00
04000             -20.00     8200.00
04001             -16.00     8000.00
04002             -16.00     8000.00
04003             -22.00     7800.00
04004             -24.00     7600.00
04005             -18.00     7600.00
04006             -22.00     7400.00
04007             -18.00     7200.00
04008             -18.00     6800.00
04009             -16.00     6600.00
04010             -16.00     6600.00
04011             -18.00     6600.00
04012             -18.00     6200.00
04013             -16.00     6000.00
04014             -18.00     6000.00
04015             -16.00     5600.00
04016             -14.00     5600.00
04017             -16.00     5200.00
04018             -16.00     5400.00
04019             -22.00     4800.00
04020             -18.00     4800.00
04021             -14.00     4400.00
04022              -8.00     4400.00
04023             -10.00     4000.00
04024             -16.00     4000.00
04025             -16.00     3800.00
04026             -14.00     3600.00
04027             -10.00     3600.00
04028             -12.00     3200.00
04029             -10.00     3000.00
04030             -10.00     2800.00
04031             -10.00     2600.00
04032             -10.00     2600.00
04033             -10.00     2200.00
04034             -10.00     2000.00
04035              -6.00     1800.00
04036              -4.00     1600.00
04037              -6.00     1600.00
04038             -10.00     1200.00
04039             -10.00     1000.00
04040             -10.00      800.00
04041              -6.00      800.00
04042               0.00      600.00
04043               0.00      200.00
04044               2.00      200.00
04045               0.00        0.00
04046              22.00     -400.00
04047              26.00     -600.00
04048              -2.00     -600.00
04049             -18.00     -800.00
04050              -2.00     -800.00
04051              18.00    -1200.00
04052              30.00    -1400.00
04053             120.00    -1600.00
04054             246.00    -2000.00
04055             -16.00    -2400.00
04056            -254.00    -2400.00
04057            -254.00    -2600.00
04058             116.00    -2800.00
04059             186.00    -2800.00
04060             246.00    -2800.00
04061              40.00    -3400.00
04062            -254.00    -3200.00
04063              98.00    -3600.00
04064             210.00    -3800.00
04065             -16.00    -3600.00
04066              14.00    -4400.00
04067            -114.00    -4200.00
04068             102.00    -4600.00
04069              88.00    -4800.00
04070             -86.00    -4800.00
04071             -70.00    -5200.00
04072             -14.00    -5200.00
04073             174.00    -5600.00
04074              10.00    -5600.00
04075             -64.00    -5800.00
04076             -24.00    -6200.00
04077             -10.00    -6000.00
04078             122.00    -6400.00
04079               2.00    -6400.00
04080             -38.00    -6800.00
04081               0.00    -7000.00
04082              32.00    -7000.00
04083              32.00    -7400.00
04084             -18.00    -7200.00
04085              22.00    -7600.00
04086              14.00    -7800.00
04087              38.00    -7800.00
04088              16.00    -8000.00
04089             -26.00    -8000.00
04090              32.00    -8600.00
04091              26.00    -8400.00
04092               6.00    -8600.00
04093              10.00    -8800.00
04094              10.00    -9000.00
04095              22.00    -9200.00
04096              30.00    -9200.00
04097              10.00    -9400.00
04098               6.00    -9600.00
04099              22.00    -9600.00
04100              20.00    -9600.00
04101              18.00    -9800.00
04102              26.00   -10000.00
04103              14.00   -10000.00
04104              14.00   -10200.00
04105              20.00   -10200.00
04106              10.00   -10400.00
04107              30.00   -10400.00
04108              38.00   -10600.00
04109              18.00   -10600.00
04110              14.00   -10800.00
04111              10.00   -10800.00
04112              14.00   -11000.00
04113              30.00   -11000.00
04114              32.00   -11200.00
04115              18.00   -11200.00
04116              22.00   -11200.00
04117              18.00   -11400.00
04118              16.00   -11600.00
04119              24.00   -11600.00
04120              26.00   -11600.00
04121              24.00   -11800.00
04122              32.00   -11600.00
04123              18.00   -11600.00
04124              14.00   -11800.00
04125              22.00   -11800.00
04126              22.00   -12000.00
04127              24.00   -12000.00
04128              32.00   -11800.00
04129              22.00   -12000.00
04130              22.00   -12000.00
04131              22.00   -12000.00
04132              18.00   -12000.00
04133              26.00   -12200.00
04134              32.00   -12000.00
04135              26.00   -12000.00
04136              26.00   -12200.00
04137              22.00   -12000.00
04138              18.00   -12200.00
04139              22.00   -12000.00
04140              24.00   -12000.00
04141              26.00   -12200.00
04142              30.00   -12000.00
04143              24.00   -12200.00
04144              14.00   -12200.00
04145              16.00   -12000.00
04146              24.00   -12000.00
04147              30.00   -12000.00
04148              30.00   -12000.00
04149              22.00   -12000.00
04150              18.00   -12000.00
04151              22.00   -12000.00
04152              18.00   -12000.00
04153              24.00   -11800.00
04154              30.00   -11800.00
04155              26.00   -11800.00
04156              22.00   -11800.00
04157              20.00   -11600.00
04158              16.00   -11600.00
04159              22.00   -11600.00
04160              24.00   -11600.00
04161              26.00   -11600.00
04162              24.00   -11400.00
04163              16.00   -11000.00
04164              14.00   -11200.00
04165              24.00   -11200.00
04166              30.00   -11200.00
04167              24.00   -11000.00
04168              16.00   -10800.00
04169              16.00   -10800.00
04170              22.00   -10800.00
04171              22.00   -10600.00
04172              16.00   -10400.00
04173              18.00   -10400.00
04174              26.00   -10200.00
04175              26.00   -10200.00
04176              18.00   -10000.00
04177               8.00    -9800.00
04178               8.00    -9800.00
04179              24.00    -9400.00
04180              36.00    -9400.00
04181              30.00    -9400.00
04182              14.00    -9400.00
04183               0.00    -9000.00
04184               8.00    -9200.00
04185              28.00    -8800.00
04186              30.00    -8600.00
04187              16.00    -8800.00
04188              10.00    -8400.00
04189              12.00    -8400.00
04190              14.00    -8200.00
04191              14.00    -8000.00
04192              14.00    -7800.00
04193              18.00    -7800.00
04194              18.00    -7400.00
04195              16.00    -7400.00
04196              14.00    -7200.00
04197              10.00    -7000.00
04198              10.00    -6800.00
04199              10.00    -6800.00
04200              14.00    -6600.00
04201              16.00    -6400.00
04202              16.00    -6400.00
04203              14.00    -6000.00
04204              10.00    -5800.00
04205               6.00    -5600.00
04206               4.00    -5600.00
04207               8.00    -5200.00
04208              16.00    -5200.00
04209              18.00    -5000.00
04210               8.00    -4800.00
04211               0.00    -4600.00
04212               0.00    -4400.00
04213               6.00    -4400.00
04214              14.00    -4000.00
04215              10.00    -3800.00
04216               6.00    -3600.00
04217               0.00    -3200.00
04218               0.00    -3200.00
04219              -2.00    -3000.00
04220               2.00    -2800.00
04221               6.00    -2600.00
04222               8.00    -2400.00
04223               6.00    -2200.00
04224               0.00    -2200.00
04225              -6.00    -2000.00
04226              -4.00    -1600.00
04227              -2.00    -1400.00
04228               2.00    -1200.00
04229               8.00    -1000.00
04230               2.00    -1000.00
04231              -8.00     -800.00
04232             -10.00     -400.00
04233              -6.00     -400.00
04234               2.00        0.00
04235               2.00        0.00
04236               4.00      200.00
04237               6.00      400.00
04238              26.00      800.00
04239              18.00     1000.00
04240             -10.00     1000.00
04241             -22.00     1200.00
04242               0.00     1200.00
04243              22.00     1600.00
04244              90.00     1800.00
04245             246.00     2200.00
04246              66.00     2400.00
04247            -254.00     2400.00
04248            -254.00     2600.00
04249               2.00     2800.00
04250             246.00     3000.00
04251             246.00     3400.00
04252            -254.00     3400.00
04253            -254.00     3400.00
04254             246.00     4000.00
04255             138.00     4000.00
04256              -8.00     4200.00
04257              48.00     4600.00
04258            -254.00     4400.00
04259             162.00     4800.00
04260              86.00     5000.00
04261            -190.00     5400.00
04262             -42.00     5200.00
04263              18.00     5800.00
04264              96.00     5600.00
04265             -32.00     5800.00
04266             -26.00     6400.00
04267            -102.00     6200.00
04268               0.00     6600.00
04269             114.00     6600.00
04270            -114.00     6600.00
04271             -14.00     7200.00
04272             -10.00     7200.00
04273             -10.00     7200.00
04274               8.00     7400.00
04275             -56.00     7600.00
04276             -40.00     7800.00
04277              16.00     8000.00
04278              16.00     8200.00
04279             -78.00     8200.00
04280             -18.00     8400.00
04281             -18.00     8800.00
04282             -10.00     8600.00
04283              -6.00     9000.00
04284             -42.00     9000.00
04285             -54.00     9200.00
04286              -2.00     9200.00
04287               0.00     9600.00
04288             -34.00     9600.00
04289             -16.00     9800.00
04290             -58.00     9800.00
04291             -26.00     9800.00
04292               0.00    10000.00
04293             -22.00    10200.00
04294             -26.00    10400.00
04295             -28.00    10400.00
04296             -48.00    10400.00
04297             -30.00    10600.00
04298               0.00    10800.00
04299             -24.00    10800.00
04300             -22.00    10800.00
04301             -34.00    11200.00
04302             -48.00    11200.00
04303             -26.00    11200.00
04304             -10.00    11400.00
04305             -26.00    11400.00
04306             -22.00    11600.00
04307             -30.00    11800.00
04308             -40.00    11600.00
04309             -24.00    11800.00
04310             -30.00    12000.00
04311             -32.00    12000.00
04312             -16.00    12000.00
04313             -26.00    12000.00
04314             -34.00    12000.00
04315             -30.00    12200.00
04316             -34.00    12200.00
04317             -32.00    12200.00
04318             -18.00    12400.00
04319             -26.00    12400.00
04320             -26.00    12400.00
04321             -26.00    12400.00
04322             -40.00    12400.00
04323             -38.00    12400.00
04324             -26.00    12600.00
04325             -26.00    12400.00
04326             -22.00    12400.00
04327             -22.00    12600.00
04328             -34.00    12400.00
04329             -42.00    12400.00
04330             -42.00    12400.00
04331             -30.00    12600.00
04332             -10.00    12600.00
04333             -10.00    12600.00
04334             -38.00    12400.00
04335             -48.00    12400.00
04336             -42.00    12600.00
04337             -30.00    12400.00
04338             -14.00    12400.00
04339             -18.00    12400.00
04340             -34.00    12400.00
04341             -40.00    12400.00
04342             -40.00    12200.00
04343             -34.00    12200.00
04344             -26.00    12200.00
04345             -22.00    12200.00
04346             -20.00    12200.00
04347             -26.00    12200.00
04348             -42.00    12000.00
04349             -50.00    12000.00
04350             -34.00    12000.00
04351              -8.00    11800.00
04352              -6.00    12000.00
04353             -24.00    11800.00
04354             -48.00    11600.00
04355             -48.00    11800.00
04356             -26.00    11600.00
04357             -18.00    11400.00
04358             -18.00    11400.00
04359             -32.00    11200.00
04360             -40.00    11200.00
04361             -30.00    11200.00
04362             -18.00    11000.00
04363             -22.00    10800.00
04364             -26.00    10800.00
04365             -30.00    10600.00
04366             -26.00    10600.00
04367             -26.00    10400.00
04368             -26.00    10200.00
04369             -26.00    10400.00
04370             -30.00    10000.00
04371             -24.00    10000.00
04372             -24.00     9800.00
04373             -18.00     9600.00
04374             -22.00     9600.00
04375             -26.00     9600.00
04376             -30.00     9600.00
04377             -28.00     9200.00
04378             -24.00     9000.00
04379             -16.00     9000.00
04380             -16.00     8800.00
04381             -18.00     8600.00
04382             -26.00     8400.00
04383             -26.00     8200.00
04384             -22.00     8000.00
04385             -16.00     8000.00
04386             -16.00     8000.00
04387             -18.00     7600.00
04388             -22.00     7600.00
04389             -24.00     7200.00
04390             -22.00     7200.00
04391             -18.00     7200.00
04392             -16.00     6600.00
04393             -16.00     6600.00
04394             -16.00     6400.00
04395             -20.00     6400.00
04396             -18.00     6200.00
04397             -18.00     6000.00
04398             -16.00     5800.00
04399             -14.00     5600.00
04400             -14.00     5400.00
04401             -16.00     5400.00
04402             -16.00     5000.00
04403             -18.00     4800.00
04404             -18.00     4600.00
04405             -16.00     4400.00
04406             -10.00     4400.00
04407             -10.00     4000.00
04408             -14.00     4000.00
04409             -16.00     3600.00
04410             -16.00     3400.00
04411             -10.00     3200.00
04412             -10.00     3200.00
04413             -12.00     3000.00
04414             -12.00     2800.00
04415             -14.00     2400.00
04416             -10.00     2400.00
04417             -10.00     2000.00
04418             -10.00     1800.00
04419              -6.00     1800.00
04420              -6.00     1600.00
04421              -8.00     1400.00
04422              -8.00     1200.00
04423              -6.00     1200.00
04424             -10.00      800.00
04425              -6.00      600.00
04426              -2.00      400.00
04427               0.00      200.00
04428               0.00        0.00
04429              10.00     -200.00
04430              30.00     -400.00
04431               8.00     -800.00
04432             -16.00     -600.00
04433             -14.00     -800.00
04434              10.00    -1000.00
04435              18.00    -1200.00
04436              62.00    -1400.00
04437             238.00    -1600.00
04438             184.00    -2200.00
04439            -254.00    -2400.00
04440            -254.00    -2800.00
04441             -38.00    -2600.00
04442             186.00    -2800.00
04443             246.00    -2800.00
04444             246.00    -3200.00
04445            -254.00    -3400.00
04446            -184.00    -3400.00
04447             246.00    -4000.00
04448              20.00    -3600.00
04449              32.00    -4000.00
04450             -86.00    -4400.00
04451             -16.00    -4200.00
04452             158.00    -4800.00
04453             -46.00    -4600.00
04454             -78.00    -5000.00
04455             -58.00    -5200.00
04456             116.00    -5400.00
04457             112.00    -5800.00
04458             -78.00    -5400.00
04459             -24.00    -6200.00
04460             -40.00    -6000.00
04461              86.00    -6200.00
04462              72.00    -6600.00
04463             -50.00    -6400.00
04464              -6.00    -7000.00
04465              14.00    -6800.00
04466              50.00    -7200.00
04467             -10.00    -7200.00
04468               0.00    -7400.00
04469              22.00    -7800.00
04470              24.00    -7800.00
04471              38.00    -8000.00
04472             -26.00    -8000.00
04473               8.00    -8400.00
04474              42.00    -8400.00
04475              10.00    -8600.00
04476               6.00    -8800.00
04477               8.00    -8800.00
04478              16.00    -9000.00
04479              32.00    -9200.00
04480              20.00    -9400.00
04481               2.00    -9400.00
04482              12.00    -9400.00
04483              24.00    -9600.00
04484              18.00    -9800.00
04485              22.00    -9800.00
04486              22.00   -10000.00
04487               8.00   -10200.00
04488              18.00   -10200.00
04489              14.00   -10200.00
04490              16.00   -10400.00
04491              38.00   -10800.00
04492              24.00   -10600.00
04493              14.00   -10800.00
04494              14.00   -11000.00
04495              14.00   -11000.00
04496              22.00   -11000.00
04497              34.00   -11200.00
04498              24.00   -11200.00
04499              18.00   -11200.00
04500              22.00   -11200.00
04501              14.00   -11400.00
04502              18.00   -11400.00
04503              26.00   -11600.00
04504              22.00   -11600.00
04505              30.00   -11600.00
04506              24.00   -11800.00
04507              14.00   -11800.00
04508              22.00   -11800.00
04509              24.00   -11800.00
04510              22.00   -12000.00
04511              30.00   -12000.00
04512              24.00   -12000.00
04513              18.00   -12000.00
04514              22.00   -12000.00
04515              22.00   -12000.00
04516              22.00   -12000.00
04517              30.00   -12000.00
04518              32.00   -12200.00
04519              24.00   -12200.00
04520              24.00   -12000.00
04521              16.00   -12200.00
04522              20.00   -12200.00
04523              26.00   -12200.00
04524              30.00   -12200.00
04525              30.00   -12400.00
04526              26.00   -12000.00
04527              18.00   -12000.00
04528              16.00   -12000.00
04529              22.00   -12000.00
04530              26.00   -12000.00
04531              34.00   -12000.00
04532              32.00   -12000.00
04533              22.00   -12000.00
04534              16.00   -12000.00
04535              14.00   -12000.00
04536              20.00   -11800.00
04537              32.00   -11800.00
04538              32.00   -11800.00
04539              22.00   -12000.00
04540              16.00   -11600.00
04541              16.00   -11800.00
04542              18.00   -11600.00
04543              24.00   -11600.00
04544              30.00   -11400.00
04545              22.00   -11400.00
04546              22.00   -11200.00
04547              18.00   -11200.00
04548              18.00   -11200.00
04549              18.00   -11000.00
04550              18.00   -11000.00
04551              24.00   -11000.00
04552              30.00   -10800.00
04553              22.00   -10800.00
04554              14.00   -10600.00
04555              14.00   -10400.00
04556              16.00   -10400.00
04557              22.00   -10200.00
04558              24.00   -10200.00
04559              24.00   -10000.00
04560              16.00   -10000.00
04561              14.00    -9800.00
04562              14.00    -9600.00
04563              18.00    -9600.00
04564              20.00    -9400.00
04565              18.00    -9400.00
04566              22.00    -9200.00
04567              18.00    -9200.00
04568              10.00    -9200.00
04569              14.00    -8800.00
04570              16.00    -8600.00
04571              22.00    -8600.00
04572              24.00    -8400.00
04573              16.00    -8400.00
04574               8.00    -8000.00
04575              10.00    -7800.00
04576              14.00    -7800.00
04577              18.00    -7600.00
04578              22.00    -7400.00
04579              14.00    -7200.00
04580               8.00    -7200.00
04581               2.00    -7000.00
04582               6.00    -6800.00
04583              16.00    -6600.00
04584              22.00    -6400.00
04585              18.00    -6400.00
04586               8.00    -6200.00
04587              -2.00    -6000.00
04588               0.00    -5800.00
04589              16.00    -5400.00
04590              24.00    -5400.00
04591              16.00    -5200.00
04592               2.00    -5000.00
04593              -6.00    -4800.00
04594               0.00    -4600.00
04595              16.00    -4600.00
04596              20.00    -4200.00
04597              10.00    -4000.00
04598               0.00    -4000.00
04599              -6.00    -3800.00
04600               2.00    -3600.00
04601               8.00    -3200.00
04602               6.00    -3200.00
04603               0.00    -2800.00
04604               0.00    -2800.00
04605               6.00    -2400.00
04606               8.00    -2400.00
04607               0.00    -2200.00
04608              -4.00    -2000.00
04609              -6.00    -1600.00
04610               0.00    -1600.00
04611               6.00    -1400.00
04612               6.00    -1200.00
04613               0.00     -800.00
04614              -8.00     -800.00
04615              -8.00     -600.00
04616               0.00     -400.00
04617               6.00     -200.00
04618               0.00        0.00
04619              -4.00      200.00
04620              -4.00      400.00
04621              18.00      600.00
04622              36.00      800.00
04623               8.00     1000.00
04624             -22.00     1000.00
04625             -18.00     1200.00
04626               6.00     1600.00
04627              42.00     1600.00
04628             240.00     2000.00
04629             246.00     2400.00
04630            -254.00     2400.00
04631            -254.00     2600.00
04632            -172.00     2800.00
04633             168.00     2800.00
04634             246.00     3400.00
04635             246.00     3400.00
04636            -254.00     3400.00
04637             -74.00     3600.00
04638             246.00     4000.00
04639             -70.00     4000.00
04640             112.00     4400.00
04641            -184.00     4400.00
04642             -44.00     4400.00
04643             232.00     4800.00
04644            -158.00     5000.00
04645            -112.00     5400.00
04646              -2.00     5600.00
04647              94.00     5800.00
04648              32.00     5600.00
04649             -58.00     6000.00
04650             -64.00     6000.00
04651             -96.00     6200.00
04652             144.00     6600.00
04653             -26.00     6600.00
04654             -98.00     6800.00
04655               8.00     7200.00
04656             -22.00     7200.00
04657              40.00     7400.00
04658             -42.00     7600.00
04659             -74.00     7600.00
04660             -16.00     7800.00
04661              54.00     8000.00
04662             -30.00     8200.00
04663             -46.00     8400.00
04664             -14.00     8800.00
04665             -42.00     8600.00
04666              -6.00     9000.00
04667             -24.00     9000.00
04668             -40.00     9000.00
04669             -18.00     9200.00
04670              16.00     9200.00
04671             -32.00     9400.00
04672             -22.00     9600.00
04673             -50.00     9800.00
04674             -60.00     9800.00
04675               2.00    10000.00
04676               8.00    10000.00
04677              -2.00    10200.00
04678             -32.00    10400.00
04679             -70.00    10400.00
04680             -66.00    10400.00
04681              12.00    10600.00
04682              18.00    10800.00
04683             -16.00    10800.00
04684             -48.00    11000.00
04685             -66.00    11000.00
04686             -32.00    11200.00
04687              -2.00    11200.00
04688             -18.00    11200.00
04689             -32.00    11400.00
04690             -28.00    11800.00
04691             -38.00    11800.00
04692             -22.00    11800.00
04693             -22.00    11800.00
04694             -38.00    11800.00
04695             -30.00    12000.00
04696             -26.00    12000.00
04697             -32.00    12000.00
04698             -30.00    12200.00
04699             -30.00    12200.00
04700             -34.00    12200.00
04701             -22.00    12400.00
04702             -26.00    12200.00
04703             -34.00    12200.00
04704             -32.00    12200.00
04705             -34.00    12400.00
04706             -30.00    12400.00
04707             -18.00    12400.00
04708             -26.00    12400.00
04709             -34.00    12400.00
04710             -32.00    12600.00
04711             -34.00    12600.00
04712             -28.00    12400.00
04713             -18.00    12600.00
04714             -24.00    12400.00
04715             -26.00    12400.00
04716             -30.00    12400.00
04717             -34.00    12400.00
04718             -34.00    12600.00
04719             -34.00    12600.00
04720             -30.00    12600.00
04721             -22.00    12400.00
04722             -18.00    12400.00
04723             -30.00    12400.00
04724             -42.00    12400.00
04725             -42.00    12200.00
04726             -34.00    12200.00
04727             -20.00    12400.00
04728             -16.00    12200.00
04729             -26.00    12000.00
04730             -38.00    12000.00
04731             -46.00    12000.00
04732             -40.00    12000.00
04733             -24.00    11800.00
04734             -16.00    12000.00
04735             -20.00    11800.00
04736             -32.00    11600.00
04737             -34.00    11800.00
04738             -38.00    11600.00
04739             -32.00    11400.00
04740             -30.00    11400.00
04741             -26.00    11400.00
04742             -24.00    11200.00
04743             -26.00    11200.00
04744             -30.00    11200.00
04745             -32.00    11000.00
04746             -32.00    10800.00
04747             -26.00    10800.00
04748             -20.00    10600.00
04749             -24.00    10400.00
04750             -26.00    10400.00
04751             -32.00    10200.00
04752             -34.00    10000.00
04753             -32.00    10000.00
04754             -26.00    10000.00
04755             -22.00     9800.00
04756             -14.00     9800.00
04757             -16.00     9600.00
04758             -22.00     9600.00
04759             -34.00     9400.00
04760             -34.00     9200.00
04761             -30.00     9000.00
04762             -22.00     9000.00
04763             -22.00     8800.00
04764             -24.00     8600.00
04765             -24.00     8400.00
04766             -18.00     8400.00
04767             -20.00     8200.00
04768             -14.00     8000.00
04769             -16.00     7800.00
04770             -18.00     7600.00
04771             -22.00     7400.00
04772             -26.00     7400.00
04773             -32.00     7200.00
04774             -26.00     7000.00
04775             -18.00     6800.00
04776             -10.00     6800.00
04777              -6.00     6600.00
04778             -10.00     6400.00
04779             -18.00     6200.00
04780             -22.00     6000.00
04781             -22.00     6000.00
04782             -22.00     5800.00
04783             -18.00     5600.00
04784             -18.00     5200.00
04785             -16.00     5200.00
04786             -10.00     5000.00
04787             -10.00     4800.00
04788              -8.00     4400.00
04789             -10.00     4400.00
04790             -12.00     4200.00
04791             -16.00     4000.00
04792             -16.00     3800.00
04793             -16.00     3600.00
04794             -16.00     3400.00
04795             -10.00     3200.00
04796              -8.00     3000.00
04797              -6.00     2800.00
04798              -6.00     2600.00
04799             -10.00     2600.00
04800              -8.00     2200.00
04801             -10.00     2000.00
04802             -10.00     1800.00
04803             -12.00     1600.00
04804             -14.00     1400.00
04805             -10.00     1200.00
04806              -6.00     1000.00
04807              -2.00      800.00
04808               0.00      800.00
04809               0.00      400.00
04810              -2.00      200.00
04811              -8.00        0.00
04812              -6.00        0.00
04813              22.00     -400.00
04814              24.00     -600.00
04815              -6.00     -800.00
04816             -14.00     -800.00
04817               2.00    -1200.00
04818              18.00    -1400.00
04819              32.00    -1200.00
04820             148.00    -1600.00
04821             246.00    -2000.00
04822            -110.00    -2400.00
04823            -254.00    -2400.00
04824            -248.00    -2800.00
04825             146.00    -2600.00
04826             190.00    -2400.00
04827             246.00    -2800.00
04828             -78.00    -3600.00
04829            -254.00    -3200.00
04830             186.00    -3800.00
04831             146.00    -3800.00
04832             -12.00    -3800.00
04833             -18.00    -4600.00
04834            -104.00    -4000.00
04835             144.00    -4600.00
04836              54.00    -4600.00
04837             -88.00    -4800.00
04838             -72.00    -5200.00
04839              16.00    -5000.00
04840             168.00    -5600.00
04841             -26.00    -5400.00
04842             -50.00    -5600.00
04843             -28.00    -6000.00
04844              16.00    -6200.00
04845             118.00    -6600.00
04846             -24.00    -6400.00
04847             -26.00    -6800.00
04848              10.00    -7000.00
04849              42.00    -7000.00
04850              16.00    -7400.00
04851             -22.00    -7200.00
04852              24.00    -7800.00
04853              18.00    -7400.00
04854              44.00    -8000.00
04855               0.00    -8000.00
04856             -24.00    -8000.00
04857              38.00    -8400.00
04858              26.00    -8400.00
04859              10.00    -8800.00
04860              12.00    -8600.00
04861               8.00    -9000.00
04862              22.00    -9200.00
04863              26.00    -9200.00
04864              14.00    -9400.00
04865              14.00    -9400.00
04866              26.00    -9600.00
04867              22.00    -9600.00
04868              10.00    -9800.00
04869              18.00   -10000.00
04870              10.00   -10000.00
04871              18.00   -10200.00
04872              24.00   -10400.00
04873              10.00   -10400.00
04874              26.00   -10600.00
04875              32.00   -10600.00
04876              16.00   -10600.00
04877              14.00   -10800.00
04878              10.00   -11000.00
04879              14.00   -11000.00
04880              32.00   -11000.00
04881              34.00   -11200.00
04882              24.00   -11200.00
04883              22.00   -11400.00
04884              14.00   -11200.00
04885              14.00   -11600.00
04886              26.00   -11600.00
04887              30.00   -11600.00
04888              26.00   -11800.00
04889              24.00   -11800.00
04890               8.00   -11800.00
04891              12.00   -11800.00
04892              22.00   -12000.00
04893              28.00   -11800.00
04894              32.00   -12000.00
04895              30.00   -12000.00
04896              20.00   -12000.00
04897              18.00   -12000.00
04898              22.00   -11800.00
04899              22.00   -12000.00
04900              30.00   -12000.00
04901              32.00   -12000.00
04902              26.00   -12000.00
04903              22.00   -12200.00
04904              18.00   -12000.00
04905              18.00   -12400.00
04906              26.00   -12200.00
04907              30.00   -12000.00
04908              30.00   -12200.00
04909              26.00   -12000.00
04910              18.00   -12000.00
04911              14.00   -12000.00
04912              22.00   -12000.00
04913              30.00   -12000.00
04914              32.00   -12000.00
04915              32.00   -12000.00
04916              22.00   -12000.00
04917              18.00   -12000.00
04918              22.00   -12000.00
04919              22.00   -11800.00
04920              26.00   -12000.00
04921              30.00   -11800.00
04922              22.00   -11800.00
04923              22.00   -11600.00
04924              22.00   -11600.00
04925              22.00   -11800.00
04926              18.00   -11600.00
04927              24.00   -11400.00
04928              24.00   -11400.00
04929              24.00   -11200.00
04930              16.00   -11400.00
04931              12.00   -11200.00
04932              18.00   -11200.00
04933              24.00   -11000.00
04934              20.00   -11000.00
04935              22.00   -10800.00
04936              24.00   -10800.00
04937              16.00   -10800.00
04938              14.00   -10400.00
04939              22.00   -10400.00
04940              22.00   -10200.00
04941              24.00   -10200.00
04942              18.00   -10200.00
04943              14.00   -10000.00
04944              10.00   -10000.00
04945              18.00    -9600.00
04946              24.00    -9600.00
04947              24.00    -9400.00
04948              14.00    -9400.00
04949               2.00    -9400.00
04950               8.00    -9200.00
04951              22.00    -9000.00
04952              30.00    -8800.00
04953              16.00    -8600.00
04954              10.00    -8600.00
04955               8.00    -8400.00
04956              12.00    -8400.00
04957              16.00    -8000.00
04958              22.00    -8000.00
04959              22.00    -7800.00
04960               8.00    -7600.00
04961              -2.00    -7400.00
04962               8.00    -7200.00
04963              30.00    -7000.00
04964              36.00    -7000.00
04965              14.00    -6800.00
04966             -16.00    -6600.00
04967             -10.00    -6400.00
04968              22.00    -6400.00
04969              40.00    -6200.00
04970              24.00    -6000.00
04971              -6.00    -5600.00
04972             -16.00    -5600.00
04973               6.00    -5400.00
04974              26.00    -5200.00
04975              22.00    -5200.00
04976               6.00    -4800.00
04977              -2.00    -4800.00
04978               0.00    -4400.00
04979              10.00    -4400.00
04980              10.00    -4000.00
04981               8.00    -4000.00
04982               8.00    -3800.00
04983               8.00    -3600.00
04984               2.00    -3400.00
04985               0.00    -3200.00
04986               0.00    -3000.00
04987               8.00    -2800.00
04988              10.00    -2600.00
04989               8.00    -2400.00
04990              -4.00    -2400.00
04991             -10.00    -2000.00
04992              -6.00    -2000.00
04993              10.00    -1600.00
04994              14.00    -1400.00
04995               6.00    -1200.00
04996              -8.00    -1000.00
04997             -10.00     -800.00
04998              -6.00     -600.00
04999               2.00     -400.00
05000               0.00     -200.00
