Unit:(mV)
                     CH1         CH2
Frequency              ? 300.225 kHz
00001              -6.00     -200.00
00002              20.00     -200.00
00003              42.00     -400.00
00004               6.00     -600.00
00005             -30.00     -800.00
00006             -20.00     -800.00
00007              20.00    -1000.00
00008              28.00    -1200.00
00009              22.00    -1400.00
00010             224.00    -1600.00
00011             250.00    -1800.00
00012            -250.00    -2200.00
00013            -250.00    -2400.00
00014            -250.00    -2600.00
00015             228.00    -2000.00
00016             250.00    -2200.00
00017             250.00    -3200.00
00018            -250.00    -2600.00
00019            -250.00    -3000.00
00020             250.00    -3600.00
00021             244.00    -2800.00
00022            -250.00    -3200.00
00023            -184.00    -4200.00
00024            -134.00    -3400.00
00025             250.00    -4200.00
00026             130.00    -4400.00
00027            -250.00    -4000.00
00028             126.00    -4400.00
00029             250.00    -4800.00
00030            -132.00    -4400.00
00031              -6.00    -5000.00
00032            -184.00    -5000.00
00033             -54.00    -5000.00
00034             250.00    -5600.00
00035             -28.00    -5200.00
00036            -214.00    -5600.00
00037            -102.00    -5800.00
00038              78.00    -5800.00
00039             158.00    -6200.00
00040            -108.00    -6000.00
00041             -70.00    -6200.00
00042               4.00    -6600.00
00043              30.00    -6200.00
00044             108.00    -6800.00
00045            -108.00    -6600.00
00046            -110.00    -6600.00
00047              16.00    -7200.00
00048              48.00    -6800.00
00049              84.00    -7200.00
00050            -102.00    -7400.00
00051            -124.00    -7400.00
00052              68.00    -7600.00
00053              70.00    -7400.00
00054              -4.00    -7800.00
00055             -66.00    -7800.00
00056             -60.00    -7800.00
00057             -14.00    -8000.00
00058              18.00    -8000.00
00059              44.00    -8200.00
00060             -38.00    -8200.00
00061             -76.00    -8200.00
00062               6.00    -8400.00
00063              32.00    -8200.00
00064             -10.00    -8400.00
00065             -50.00    -8400.00
00066             -22.00    -8600.00
00067              10.00    -8800.00
00068             -26.00    -8800.00
00069             -22.00    -8800.00
00070              -6.00    -8800.00
00071             -14.00    -8800.00
00072               2.00    -9000.00
00073             -14.00    -8800.00
00074             -38.00    -8800.00
00075             -30.00    -9000.00
00076              12.00    -9000.00
00077              14.00    -9000.00
00078             -44.00    -9000.00
00079             -52.00    -9000.00
00080               2.00    -9000.00
00081              20.00    -9000.00
00082              -8.00    -9000.00
00083             -38.00    -9200.00
00084             -30.00    -9000.00
00085              -6.00    -9000.00
00086               8.00    -9000.00
00087              -4.00    -9000.00
00088             -44.00    -9200.00
00089             -38.00    -9000.00
00090              12.00    -9000.00
00091              10.00    -9000.00
00092             -34.00    -9000.00
00093             -46.00    -9000.00
00094              -4.00    -8800.00
00095              12.00    -8800.00
00096             -18.00    -8800.00
00097             -26.00    -8800.00
00098             -20.00    -8600.00
00099              -6.00    -8800.00
00100              -2.00    -8600.00
00101             -20.00    -8400.00
00102             -30.00    -8400.00
00103             -18.00    -8400.00
00104              10.00    -8400.00
00105              -4.00    -8200.00
00106             -38.00    -8200.00
00107             -26.00    -8000.00
00108               6.00    -8000.00
00109              -2.00    -8000.00
00110             -24.00    -8000.00
00111             -30.00    -8000.00
00112             -10.00    -8000.00
00113              -4.00    -7600.00
00114              -4.00    -7600.00
00115             -18.00    -7400.00
00116             -26.00    -7200.00
00117              -6.00    -7400.00
00118               2.00    -7200.00
00119             -14.00    -7000.00
00120             -30.00    -6800.00
00121             -20.00    -6800.00
00122               6.00    -6600.00
00123              -6.00    -6600.00
00124             -28.00    -6400.00
00125             -22.00    -6400.00
00126             -10.00    -6200.00
00127               2.00    -6000.00
00128              -8.00    -6000.00
00129             -26.00    -6000.00
00130             -22.00    -5800.00
00131              -6.00    -5600.00
00132               2.00    -5600.00
00133             -12.00    -5400.00
00134             -28.00    -5200.00
00135             -10.00    -5000.00
00136               4.00    -5000.00
00137             -10.00    -4600.00
00138             -22.00    -4600.00
00139             -20.00    -4400.00
00140              -2.00    -4400.00
00141               2.00    -4200.00
00142             -12.00    -4000.00
00143             -22.00    -4000.00
00144             -14.00    -3800.00
00145               4.00    -3600.00
00146               2.00    -3400.00
00147             -18.00    -3200.00
00148             -24.00    -3200.00
00149              -6.00    -3000.00
00150               6.00    -2800.00
00151              -6.00    -2600.00
00152             -20.00    -2400.00
00153             -14.00    -2200.00
00154               2.00    -2000.00
00155               4.00    -2000.00
00156              -6.00    -2000.00
00157             -20.00    -1800.00
00158             -10.00    -1600.00
00159               4.00    -1200.00
00160               6.00    -1000.00
00161             -14.00    -1000.00
00162             -18.00     -800.00
00163               2.00     -600.00
00164               6.00     -400.00
00165              -4.00     -200.00
00166             -12.00     -200.00
00167              -6.00        0.00
00168              14.00      200.00
00169              34.00      400.00
00170              18.00      600.00
00171             -22.00      600.00
00172             -26.00      800.00
00173               4.00      800.00
00174              22.00     1200.00
00175              10.00     1400.00
00176              22.00     1400.00
00177             196.00     1800.00
00178             250.00     2000.00
00179            -172.00     2000.00
00180            -250.00     2200.00
00181            -250.00     2400.00
00182             142.00     2400.00
00183             250.00     2800.00
00184             250.00     3000.00
00185            -250.00     2800.00
00186            -250.00     3200.00
00187             250.00     3400.00
00188             250.00     3200.00
00189            -250.00     3800.00
00190            -250.00     3600.00
00191             -76.00     3600.00
00192             250.00     4200.00
00193             250.00     4000.00
00194            -250.00     4400.00
00195            -250.00     4800.00
00196             250.00     4600.00
00197             250.00     4600.00
00198             -68.00     4800.00
00199            -222.00     5200.00
00200            -140.00     5200.00
00201             240.00     5400.00
00202             250.00     5600.00
00203            -196.00     5600.00
00204            -250.00     5600.00
00205             126.00     6000.00
00206             236.00     6200.00
00207             -62.00     6200.00
00208            -146.00     6400.00
00209             -14.00     6400.00
00210              92.00     6400.00
00211             110.00     6600.00
00212             -32.00     6800.00
00213            -126.00     7000.00
00214             -14.00     7000.00
00215             108.00     7000.00
00216              92.00     7200.00
00217             -66.00     7200.00
00218            -112.00     7400.00
00219              42.00     7600.00
00220             106.00     7800.00
00221               4.00     7800.00
00222             -44.00     7800.00
00223              -4.00     8000.00
00224               4.00     8000.00
00225              12.00     8200.00
00226              42.00     8400.00
00227               2.00     8400.00
00228             -42.00     8400.00
00229              14.00     8200.00
00230              54.00     8400.00
00231              12.00     8400.00
00232             -22.00     8400.00
00233               4.00     8600.00
00234              20.00     8600.00
00235               6.00     8600.00
00236              10.00     8800.00
00237              12.00     8800.00
00238              -4.00     8800.00
00239               6.00     8800.00
00240              26.00     9000.00
00241               2.00     8800.00
00242             -16.00     8800.00
00243              22.00     8800.00
00244              42.00     9000.00
00245              -4.00     9000.00
00246             -28.00     9000.00
00247              14.00     9000.00
00248              34.00     9000.00
00249              14.00     9200.00
00250               0.00     9200.00
00251              -2.00     9000.00
00252               4.00     9000.00
00253              20.00     9200.00
00254              22.00     9200.00
00255              -6.00     9200.00
00256             -14.00     8800.00
00257              26.00     8800.00
00258              36.00     9000.00
00259             -10.00     9200.00
00260             -22.00     8800.00
00261              14.00     8800.00
00262              30.00     8800.00
00263              10.00     8800.00
00264              -2.00     8800.00
00265              -4.00     8800.00
00266               8.00     8600.00
00267              18.00     8600.00
00268              14.00     8400.00
00269              -4.00     8400.00
00270               2.00     8400.00
00271              26.00     8400.00
00272              18.00     8400.00
00273             -14.00     8200.00
00274              -6.00     8200.00
00275              26.00     8000.00
00276              26.00     8000.00
00277              -4.00     7800.00
00278              -6.00     7800.00
00279               2.00     7600.00
00280              18.00     7600.00
00281              18.00     7400.00
00282               6.00     7600.00
00283              -6.00     7200.00
00284               4.00     7200.00
00285              22.00     7200.00
00286              12.00     7000.00
00287             -12.00     7000.00
00288              -2.00     6800.00
00289              22.00     6600.00
00290              14.00     6600.00
00291              -2.00     6400.00
00292              -8.00     6400.00
00293               6.00     6200.00
00294              16.00     6200.00
00295              16.00     6000.00
00296               2.00     6000.00
00297              -6.00     5600.00
00298               4.00     5600.00
00299              18.00     5600.00
00300               6.00     5200.00
00301              -6.00     5400.00
00302               4.00     5000.00
00303              18.00     4800.00
00304               8.00     4600.00
00305              -8.00     4400.00
00306              -2.00     4600.00
00307              10.00     4400.00
00308              18.00     4200.00
00309               4.00     4000.00
00310              -6.00     3800.00
00311              -8.00     3800.00
00312              10.00     3400.00
00313              14.00     3400.00
00314              -2.00     3200.00
00315             -12.00     3200.00
00316               4.00     2800.00
00317              16.00     2800.00
00318               4.00     2600.00
00319             -12.00     2400.00
00320              -6.00     2200.00
00321              10.00     2000.00
00322              12.00     2000.00
00323              -4.00     1800.00
00324             -14.00     1600.00
00325              -6.00     1400.00
00326              10.00     1200.00
00327              12.00     1000.00
00328              -6.00      800.00
00329             -14.00      600.00
00330              -2.00      600.00
00331              10.00      400.00
00332               2.00      200.00
00333              -6.00        0.00
00334              -6.00        0.00
00335              14.00     -200.00
00336              42.00     -400.00
00337              12.00     -600.00
00338             -24.00     -800.00
00339             -26.00     -800.00
00340              14.00    -1000.00
00341              26.00    -1200.00
00342              20.00    -1200.00
00343             196.00    -1400.00
00344             250.00    -1800.00
00345            -210.00    -2200.00
00346            -250.00    -2400.00
00347            -250.00    -2600.00
00348             142.00    -2200.00
00349             250.00    -2000.00
00350             250.00    -3000.00
00351            -250.00    -2800.00
00352            -250.00    -2800.00
00353             250.00    -4000.00
00354             250.00    -2800.00
00355            -250.00    -3200.00
00356            -164.00    -4200.00
00357            -188.00    -3600.00
00358             250.00    -4000.00
00359             250.00    -4400.00
00360            -250.00    -3800.00
00361              14.00    -4400.00
00362             250.00    -4800.00
00363            -106.00    -4400.00
00364              -2.00    -5000.00
00365            -172.00    -5000.00
00366            -122.00    -4800.00
00367             250.00    -5600.00
00368              34.00    -5200.00
00369            -198.00    -5600.00
00370            -102.00    -6000.00
00371              62.00    -5600.00
00372             162.00    -6000.00
00373             -94.00    -6000.00
00374             -98.00    -6200.00
00375               6.00    -6400.00
00376              18.00    -6200.00
00377             106.00    -6800.00
00378             -82.00    -6800.00
00379            -110.00    -6600.00
00380              24.00    -7200.00
00381              38.00    -7000.00
00382              82.00    -7200.00
00383             -90.00    -7400.00
00384            -134.00    -7400.00
00385              58.00    -7600.00
00386              68.00    -7400.00
00387             -12.00    -7800.00
00388             -66.00    -8000.00
00389             -50.00    -7800.00
00390              -4.00    -8000.00
00391              16.00    -8000.00
00392              36.00    -8200.00
00393             -38.00    -8200.00
00394             -82.00    -8200.00
00395               2.00    -8400.00
00396              38.00    -8400.00
00397               0.00    -8400.00
00398             -54.00    -8600.00
00399             -36.00    -8800.00
00400              10.00    -8600.00
00401             -10.00    -8800.00
00402             -20.00    -8800.00
00403             -18.00    -8800.00
00404             -28.00    -8800.00
00405              -6.00    -9000.00
00406              -4.00    -9000.00
00407             -30.00    -8800.00
00408             -32.00    -9000.00
00409               6.00    -9000.00
00410              18.00    -9000.00
00411             -38.00    -9200.00
00412             -52.00    -9000.00
00413               2.00    -9000.00
00414              18.00    -9200.00
00415             -12.00    -9000.00
00416             -38.00    -9000.00
00417             -30.00    -9000.00
00418              -2.00    -9200.00
00419              10.00    -9000.00
00420              -4.00    -9000.00
00421             -44.00    -9000.00
00422             -36.00    -9000.00
00423              18.00    -9000.00
00424              12.00    -9000.00
00425             -30.00    -9000.00
00426             -50.00    -9000.00
00427             -12.00    -8800.00
00428              12.00    -8800.00
00429             -10.00    -8800.00
00430             -22.00    -8800.00
00431             -20.00    -8800.00
00432             -12.00    -8800.00
00433              -4.00    -8600.00
00434             -16.00    -8600.00
00435             -26.00    -8400.00
00436             -18.00    -8400.00
00437               4.00    -8400.00
00438              -6.00    -8200.00
00439             -36.00    -8200.00
00440             -24.00    -8200.00
00441               6.00    -8200.00
00442               2.00    -8000.00
00443             -26.00    -8000.00
00444             -36.00    -7800.00
00445             -12.00    -8000.00
00446               2.00    -7600.00
00447              -2.00    -7600.00
00448             -22.00    -7600.00
00449             -30.00    -7400.00
00450              -6.00    -7400.00
00451               4.00    -7200.00
00452             -12.00    -7200.00
00453             -34.00    -7000.00
00454             -22.00    -6800.00
00455               6.00    -6800.00
00456               0.00    -6600.00
00457             -22.00    -6600.00
00458             -26.00    -6400.00
00459             -18.00    -6400.00
00460              -2.00    -6000.00
00461              -2.00    -6000.00
00462             -12.00    -6000.00
00463             -24.00    -5800.00
00464             -16.00    -5600.00
00465             -10.00    -5600.00
00466             -12.00    -5400.00
00467             -20.00    -5200.00
00468               0.00    -5000.00
00469               4.00    -4800.00
00470             -18.00    -4800.00
00471             -30.00    -4600.00
00472             -18.00    -4400.00
00473               6.00    -4200.00
00474              12.00    -4200.00
00475             -12.00    -4000.00
00476             -34.00    -4000.00
00477             -20.00    -3800.00
00478               6.00    -3600.00
00479              10.00    -3400.00
00480             -18.00    -3200.00
00481             -28.00    -3200.00
00482             -10.00    -2800.00
00483              12.00    -2800.00
00484               2.00    -2600.00
00485             -22.00    -2600.00
00486             -26.00    -2400.00
00487              -6.00    -2200.00
00488              10.00    -2000.00
00489               4.00    -1800.00
00490             -12.00    -1800.00
00491             -12.00    -1600.00
00492               2.00    -1200.00
00493               4.00    -1000.00
00494             -12.00    -1000.00
00495             -12.00     -800.00
00496              -2.00     -600.00
00497               6.00     -400.00
00498              -6.00     -400.00
00499             -12.00     -200.00
00500              -2.00        0.00
00501              14.00      200.00
00502              28.00      400.00
00503              18.00      600.00
00504             -20.00      600.00
00505             -22.00      800.00
00506              10.00      800.00
00507              20.00     1000.00
00508               4.00     1200.00
00509              14.00     1600.00
00510             172.00     1800.00
00511             250.00     2000.00
00512            -108.00     2200.00
00513            -250.00     2200.00
00514            -250.00     2200.00
00515             110.00     2400.00
00516             250.00     2800.00
00517             250.00     3000.00
00518            -250.00     2800.00
00519            -250.00     2800.00
00520             250.00     3200.00
00521             250.00     3400.00
00522            -250.00     3800.00
00523            -250.00     3600.00
00524             -98.00     3600.00
00525             210.00     4200.00
00526             250.00     4200.00
00527            -250.00     4200.00
00528            -250.00     4600.00
00529             250.00     4600.00
00530             250.00     4600.00
00531             -48.00     5000.00
00532            -214.00     5200.00
00533            -166.00     5400.00
00534             210.00     5200.00
00535             250.00     5600.00
00536            -154.00     5600.00
00537            -250.00     5600.00
00538              86.00     5800.00
00539             250.00     6200.00
00540             -30.00     6000.00
00541            -150.00     6400.00
00542             -30.00     6400.00
00543              80.00     6600.00
00544             122.00     6600.00
00545             -12.00     6800.00
00546            -126.00     7000.00
00547             -30.00     7000.00
00548             100.00     7000.00
00549             102.00     7200.00
00550             -46.00     7200.00
00551            -116.00     7200.00
00552              20.00     7600.00
00553             102.00     7800.00
00554              18.00     7800.00
00555             -38.00     7800.00
00556              -2.00     8000.00
00557               4.00     8000.00
00558               4.00     8000.00
00559              38.00     8400.00
00560              12.00     8400.00
00561             -36.00     8400.00
00562               6.00     8400.00
00563              50.00     8400.00
00564              10.00     8400.00
00565             -20.00     8400.00
00566               4.00     8600.00
00567              22.00     8600.00
00568               4.00     8600.00
00569               6.00     8800.00
00570              18.00     8800.00
00571               2.00     8800.00
00572               4.00     8800.00
00573              26.00     9000.00
00574               2.00     9000.00
00575             -20.00     8800.00
00576              22.00     9000.00
00577              46.00     8800.00
00578               2.00     9200.00
00579             -30.00     9000.00
00580               6.00     9000.00
00581              38.00     9000.00
00582              20.00     8800.00
00583              -2.00     9000.00
00584              -6.00     9000.00
00585               4.00     9000.00
00586              20.00     9200.00
00587              26.00     9000.00
00588              -4.00     9200.00
00589             -16.00     8800.00
00590              20.00     9000.00
00591              38.00     9000.00
00592              -4.00     8800.00
00593             -26.00     8800.00
00594              10.00     8800.00
00595              32.00     8800.00
00596              14.00     8800.00
00597              -4.00     8800.00
00598              -2.00     8600.00
00599               6.00     8800.00
00600              20.00     8600.00
00601              14.00     8600.00
00602              -2.00     8400.00
00603              -6.00     8600.00
00604              24.00     8400.00
00605              22.00     8400.00
00606             -12.00     8200.00
00607             -12.00     8200.00
00608              22.00     8200.00
00609              28.00     8000.00
00610               4.00     7800.00
00611              -8.00     7800.00
00612              -2.00     7800.00
00613              16.00     7600.00
00614              20.00     7600.00
00615              10.00     7600.00
00616              -6.00     7400.00
00617               2.00     7200.00
00618              20.00     7000.00
00619              14.00     7200.00
00620              -6.00     7000.00
00621              -2.00     6800.00
00622              22.00     6800.00
00623              20.00     6600.00
00624              -4.00     6400.00
00625             -10.00     6400.00
00626               6.00     6200.00
00627              18.00     6200.00
00628              16.00     6000.00
00629               2.00     5800.00
00630             -10.00     5800.00
00631               4.00     5600.00
00632              20.00     5600.00
00633               8.00     5200.00
00634             -10.00     5200.00
00635              -2.00     5200.00
00636              14.00     4800.00
00637              12.00     4800.00
00638              -8.00     4600.00
00639              -6.00     4400.00
00640               6.00     4400.00
00641              18.00     4000.00
00642              12.00     4000.00
00643              -6.00     3800.00
00644             -10.00     3800.00
00645               4.00     3600.00
00646              14.00     3400.00
00647               2.00     3200.00
00648              -8.00     3000.00
00649              -4.00     2800.00
00650              12.00     2800.00
00651               6.00     2600.00
00652             -10.00     2400.00
00653              -4.00     2400.00
00654               6.00     2200.00
00655              10.00     2000.00
00656              -4.00     1600.00
00657             -18.00     1800.00
00658              -6.00     1400.00
00659              14.00     1400.00
00660              12.00     1200.00
00661              -6.00      800.00
00662             -12.00      800.00
00663              -4.00      600.00
00664               4.00      400.00
00665               4.00      200.00
00666              -6.00        0.00
00667             -10.00     -200.00
00668              10.00     -200.00
00669              42.00     -400.00
00670              20.00     -600.00
00671             -20.00     -800.00
00672             -22.00    -1000.00
00673              14.00    -1000.00
00674              26.00    -1200.00
00675              18.00    -1200.00
00676             164.00    -1600.00
00677             250.00    -2000.00
00678            -140.00    -2400.00
00679            -250.00    -2400.00
00680            -250.00    -2600.00
00681              66.00    -2400.00
00682             250.00    -2000.00
00683             250.00    -3000.00
00684            -250.00    -2800.00
00685            -250.00    -2800.00
00686             250.00    -4000.00
00687             250.00    -2800.00
00688            -250.00    -3000.00
00689            -170.00    -4200.00
00690            -194.00    -3600.00
00691             250.00    -3800.00
00692             250.00    -4400.00
00693            -250.00    -4000.00
00694             -80.00    -4400.00
00695             250.00    -4800.00
00696             -78.00    -4400.00
00697             -20.00    -4800.00
00698            -148.00    -4800.00
00699            -162.00    -4800.00
00700             250.00    -5600.00
00701              78.00    -5400.00
00702            -198.00    -5600.00
00703            -110.00    -6000.00
00704              42.00    -5600.00
00705             166.00    -6000.00
00706             -70.00    -6200.00
00707            -110.00    -6200.00
00708               2.00    -6600.00
00709               6.00    -6200.00
00710             108.00    -6600.00
00711             -58.00    -6600.00
00712            -124.00    -6800.00
00713              20.00    -7200.00
00714              34.00    -6800.00
00715              82.00    -7200.00
00716             -70.00    -7400.00
00717            -142.00    -7200.00
00718              44.00    -7600.00
00719              68.00    -7400.00
00720              -6.00    -7800.00
00721             -52.00    -7800.00
00722             -44.00    -7800.00
00723             -12.00    -8000.00
00724               2.00    -7800.00
00725              34.00    -8200.00
00726             -22.00    -8200.00
00727             -76.00    -8400.00
00728              -2.00    -8400.00
00729              34.00    -8200.00
00730              -6.00    -8400.00
00731             -50.00    -8600.00
00732             -32.00    -8600.00
00733              16.00    -8800.00
00734             -10.00    -8800.00
00735             -28.00    -8800.00
00736             -20.00    -8800.00
00737             -22.00    -8800.00
00738               2.00    -9200.00
00739               4.00    -8800.00
00740             -36.00    -8800.00
00741             -42.00    -9000.00
00742              -2.00    -9000.00
00743              22.00    -9000.00
00744             -24.00    -9000.00
00745             -52.00    -9000.00
00746              -6.00    -8800.00
00747              12.00    -9000.00
00748             -10.00    -9200.00
00749             -30.00    -9000.00
00750             -26.00    -9000.00
00751              -6.00    -9000.00
00752               2.00    -9200.00
00753              -4.00    -9000.00
00754             -38.00    -8800.00
00755             -36.00    -9000.00
00756              10.00    -9000.00
00757              10.00    -9200.00
00758             -22.00    -8800.00
00759             -42.00    -9000.00
00760             -10.00    -8800.00
00761              10.00    -8800.00
00762             -18.00    -8800.00
00763             -26.00    -8800.00
00764             -20.00    -8800.00
00765             -12.00    -8800.00
00766              -2.00    -8600.00
00767             -18.00    -8600.00
00768             -22.00    -8400.00
00769             -18.00    -8400.00
00770              10.00    -8400.00
00771              -2.00    -8400.00
00772             -38.00    -8400.00
00773             -34.00    -8200.00
00774              -2.00    -8200.00
00775               4.00    -8000.00
00776             -18.00    -8000.00
00777             -34.00    -8000.00
00778             -20.00    -7800.00
00779              -6.00    -7800.00
00780               2.00    -7600.00
00781             -12.00    -7400.00
00782             -30.00    -7400.00
00783             -16.00    -7200.00
00784              -4.00    -7200.00
00785             -10.00    -7000.00
00786             -26.00    -6800.00
00787             -20.00    -6800.00
00788               2.00    -6800.00
00789              -6.00    -6600.00
00790             -28.00    -6400.00
00791             -20.00    -6400.00
00792              -4.00    -6400.00
00793              -4.00    -6000.00
00794             -14.00    -6000.00
00795             -26.00    -6000.00
00796             -18.00    -5800.00
00797              -4.00    -5600.00
00798               2.00    -5600.00
00799             -18.00    -5200.00
00800             -30.00    -5200.00
00801             -10.00    -5200.00
00802              12.00    -5000.00
00803              -2.00    -4800.00
00804             -26.00    -4600.00
00805             -26.00    -4400.00
00806              -4.00    -4200.00
00807               4.00    -4200.00
00808              -4.00    -4200.00
00809             -22.00    -4000.00
00810             -20.00    -3800.00
00811              -4.00    -3600.00
00812               6.00    -3400.00
00813             -10.00    -3200.00
00814             -20.00    -3200.00
00815             -10.00    -3000.00
00816               6.00    -2800.00
00817              -6.00    -2800.00
00818             -20.00    -2600.00
00819             -14.00    -2400.00
00820               2.00    -2200.00
00821               6.00    -2000.00
00822              -8.00    -1800.00
00823             -20.00    -1800.00
00824              -6.00    -1600.00
00825               6.00    -1400.00
00826               4.00    -1200.00
00827             -14.00     -800.00
00828             -18.00     -800.00
00829              -4.00     -600.00
00830              10.00     -400.00
00831              -2.00     -400.00
00832             -12.00        0.00
00833              -8.00        0.00
00834              12.00      200.00
00835              34.00      400.00
00836              26.00      600.00
00837             -20.00      600.00
00838             -28.00      800.00
00839               2.00     1000.00
00840              26.00     1200.00
00841              10.00     1200.00
00842              10.00     1400.00
00843             142.00     1800.00
00844             250.00     2000.00
00845             -50.00     2200.00
00846            -250.00     2200.00
00847            -250.00     2400.00
00848              76.00     2400.00
00849             250.00     2600.00
00850             250.00     3000.00
00851            -250.00     2800.00
00852            -250.00     3000.00
00853             250.00     3200.00
00854             250.00     3200.00
00855            -178.00     3800.00
00856            -250.00     3800.00
00857            -118.00     3400.00
00858             178.00     4000.00
00859             250.00     4400.00
00860            -216.00     4200.00
00861            -250.00     4600.00
00862             212.00     4400.00
00863             250.00     4600.00
00864             -22.00     5200.00
00865            -204.00     5000.00
00866            -190.00     5400.00
00867             170.00     5400.00
00868             250.00     5600.00
00869            -108.00     5600.00
00870            -250.00     5800.00
00871              52.00     6000.00
00872             250.00     6200.00
00873              -6.00     6200.00
00874            -154.00     6200.00
00875             -36.00     6400.00
00876              74.00     6600.00
00877             114.00     6800.00
00878              -2.00     6800.00
00879            -124.00     7000.00
00880             -40.00     6800.00
00881              92.00     7200.00
00882             110.00     7200.00
00883             -28.00     7200.00
00884            -120.00     7600.00
00885               6.00     7600.00
00886             108.00     7800.00
00887              26.00     7800.00
00888             -46.00     7800.00
00889             -10.00     8200.00
00890              12.00     8200.00
00891               6.00     8000.00
00892              38.00     8200.00
00893              16.00     8400.00
00894             -36.00     8400.00
00895               2.00     8200.00
00896              54.00     8400.00
00897              20.00     8400.00
00898             -26.00     8400.00
00899              -2.00     8600.00
00900              26.00     8600.00
00901              10.00     8600.00
00902               4.00     8600.00
00903              18.00     8800.00
00904               4.00     8800.00
00905               4.00     8800.00
00906              26.00     8800.00
00907               4.00     8800.00
00908             -22.00     8800.00
00909              12.00     8800.00
00910              44.00     9000.00
00911               4.00     9000.00
00912             -34.00     9000.00
00913               4.00     9000.00
00914              36.00     9200.00
00915              22.00     9000.00
00916               0.00     9000.00
00917              -6.00     9000.00
00918              -2.00     9000.00
00919              18.00     8800.00
00920              28.00     9000.00
00921              -2.00     8800.00
00922             -18.00     9000.00
00923              20.00     8800.00
00924              40.00     9000.00
00925               2.00     8800.00
00926             -22.00     9000.00
00927               4.00     9000.00
00928              28.00     8800.00
00929              16.00     8800.00
00930               2.00     8600.00
00931               2.00     8800.00
00932               4.00     8600.00
00933              18.00     8600.00
00934              14.00     8600.00
00935               0.00     8600.00
00936              -2.00     8400.00
00937              22.00     8400.00
00938              24.00     8400.00
00939             -12.00     8400.00
00940             -12.00     8000.00
00941              22.00     8200.00
00942              28.00     8000.00
00943               4.00     8000.00
00944             -10.00     7800.00
00945               2.00     7800.00
00946              14.00     7600.00
00947              20.00     7600.00
00948              12.00     7600.00
00949              -6.00     7400.00
00950              -2.00     7200.00
00951              20.00     7200.00
00952              18.00     7000.00
00953              -6.00     6800.00
00954              -6.00     6800.00
00955              18.00     6800.00
00956              20.00     6800.00
00957               4.00     6400.00
00958              -4.00     6400.00
00959               4.00     6200.00
00960              12.00     6200.00
00961              14.00     6000.00
00962               4.00     6000.00
00963              -2.00     6000.00
00964               2.00     5600.00
00965              12.00     5400.00
00966               4.00     5600.00
00967              -6.00     5200.00
00968               4.00     5000.00
00969              16.00     4800.00
00970              14.00     4800.00
00971              -4.00     4600.00
00972              -6.00     4600.00
00973              -2.00     4200.00
00974              12.00     4000.00
00975               6.00     4000.00
00976              -4.00     4000.00
00977              -6.00     3600.00
00978               4.00     3600.00
00979              12.00     3400.00
00980               2.00     3200.00
00981              -6.00     3000.00
00982               4.00     3000.00
00983              10.00     2800.00
00984              -6.00     2600.00
00985             -12.00     2400.00
00986              -2.00     2200.00
00987               6.00     2000.00
00988              12.00     2000.00
00989              -2.00     1800.00
00990             -14.00     1400.00
00991              -6.00     1400.00
00992              10.00     1200.00
00993              20.00     1000.00
00994              -6.00      800.00
00995             -20.00      800.00
00996              -6.00      600.00
00997              10.00      400.00
00998               4.00      200.00
00999              -6.00        0.00
01000              -6.00     -200.00
01001              12.00     -200.00
01002              44.00     -400.00
01003              26.00     -400.00
01004             -22.00     -600.00
01005             -36.00     -800.00
01006               4.00    -1000.00
01007              30.00    -1000.00
01008              26.00    -1400.00
01009             140.00    -1400.00
01010             250.00    -1800.00
01011             -76.00    -2000.00
01012            -250.00    -2400.00
01013            -250.00    -2600.00
01014               2.00    -2400.00
01015             250.00    -2000.00
01016             250.00    -2800.00
01017            -250.00    -2800.00
01018            -250.00    -2800.00
01019             250.00    -4000.00
01020             250.00    -3000.00
01021            -250.00    -3000.00
01022            -196.00    -4200.00
01023            -202.00    -3600.00
01024             250.00    -3600.00
01025             250.00    -4400.00
01026            -250.00    -4000.00
01027            -180.00    -4400.00
01028             250.00    -4800.00
01029             -36.00    -4400.00
01030             -28.00    -5000.00
01031            -114.00    -4800.00
01032            -202.00    -4800.00
01033             250.00    -5600.00
01034             124.00    -5200.00
01035            -196.00    -5600.00
01036            -124.00    -5800.00
01037              20.00    -5800.00
01038             172.00    -6000.00
01039             -46.00    -6400.00
01040            -126.00    -6200.00
01041               4.00    -6600.00
01042               4.00    -6400.00
01043             106.00    -6800.00
01044             -38.00    -6800.00
01045            -140.00    -6600.00
01046              12.00    -7000.00
01047              34.00    -6800.00
01048              84.00    -7000.00
01049             -48.00    -7400.00
01050            -158.00    -7200.00
01051              26.00    -7600.00
01052              76.00    -7400.00
01053               4.00    -7600.00
01054             -46.00    -8000.00
01055             -58.00    -7800.00
01056             -18.00    -8000.00
01057              -2.00    -8000.00
01058              38.00    -8200.00
01059              -4.00    -8200.00
01060             -78.00    -8200.00
01061             -22.00    -8400.00
01062              28.00    -8400.00
01063               2.00    -8400.00
01064             -36.00    -8600.00
01065             -30.00    -8400.00
01066              10.00    -8800.00
01067              -4.00    -8600.00
01068             -26.00    -8800.00
01069             -22.00    -8800.00
01070             -30.00    -8800.00
01071              -4.00    -9000.00
01072              14.00    -9000.00
01073             -28.00    -9000.00
01074             -44.00    -9000.00
01075             -12.00    -8800.00
01076              26.00    -8800.00
01077              -6.00    -9000.00
01078             -52.00    -9000.00
01079             -30.00    -9000.00
01080               2.00    -9000.00
01081               4.00    -9000.00
01082              -8.00    -9000.00
01083             -26.00    -9000.00
01084             -20.00    -9000.00
01085             -10.00    -9000.00
01086              -2.00    -9000.00
01087             -22.00    -8800.00
01088             -28.00    -9200.00
01089               8.00    -9000.00
01090               2.00    -9000.00
01091             -36.00    -9000.00
01092             -42.00    -9000.00
01093              -2.00    -8800.00
01094              22.00    -9000.00
01095             -14.00    -8800.00
01096             -34.00    -8800.00
01097             -28.00    -8800.00
01098              -8.00    -8800.00
01099               6.00    -8600.00
01100             -12.00    -8400.00
01101             -30.00    -8400.00
01102             -22.00    -8400.00
01103               2.00    -8400.00
01104               4.00    -8200.00
01105             -30.00    -8200.00
01106             -34.00    -8200.00
01107              -6.00    -8200.00
01108              -2.00    -8000.00
01109             -12.00    -8000.00
01110             -24.00    -8000.00
01111             -18.00    -7800.00
01112             -12.00    -7800.00
01113             -12.00    -7800.00
01114             -14.00    -7400.00
01115             -26.00    -7400.00
01116              -6.00    -7200.00
01117               6.00    -7200.00
01118             -12.00    -7200.00
01119             -42.00    -7200.00
01120             -28.00    -6800.00
01121               6.00    -6600.00
01122               4.00    -6800.00
01123             -28.00    -6400.00
01124             -34.00    -6400.00
01125             -16.00    -6400.00
01126              -2.00    -6200.00
01127              -2.00    -6000.00
01128             -20.00    -6000.00
01129             -22.00    -5800.00
01130             -12.00    -5800.00
01131               2.00    -5600.00
01132             -14.00    -5400.00
01133             -28.00    -5200.00
01134             -10.00    -5000.00
01135              12.00    -4800.00
01136               2.00    -4600.00
01137             -22.00    -4600.00
01138             -28.00    -4400.00
01139              -6.00    -4400.00
01140               6.00    -4400.00
01141              -2.00    -4000.00
01142             -20.00    -4000.00
01143             -20.00    -4000.00
01144              -6.00    -3600.00
01145               6.00    -3400.00
01146             -10.00    -3200.00
01147             -24.00    -3200.00
01148             -10.00    -2800.00
01149              10.00    -2800.00
01150              -2.00    -2600.00
01151             -22.00    -2600.00
01152             -18.00    -2400.00
01153              -2.00    -2200.00
01154               8.00    -2000.00
01155              -4.00    -1800.00
01156             -20.00    -1800.00
01157             -12.00    -1600.00
01158               6.00    -1600.00
01159              10.00    -1200.00
01160             -10.00    -1000.00
01161             -20.00     -800.00
01162              -6.00     -600.00
01163              10.00     -400.00
01164              -2.00     -200.00
01165             -12.00     -200.00
01166              -6.00        0.00
01167              10.00        0.00
01168              28.00      400.00
01169              26.00      400.00
01170             -14.00      600.00
01171             -32.00      800.00
01172              -4.00      800.00
01173              22.00     1000.00
01174              12.00     1200.00
01175              10.00     1400.00
01176             122.00     1800.00
01177             250.00     2000.00
01178               8.00     2000.00
01179            -250.00     2200.00
01180            -250.00     2200.00
01181              36.00     2400.00
01182             250.00     2600.00
01183             250.00     3000.00
01184            -124.00     3000.00
01185            -250.00     2800.00
01186             136.00     3200.00
01187             250.00     3400.00
01188             -78.00     3600.00
01189            -250.00     3600.00
01190            -142.00     3600.00
01191             138.00     4000.00
01192             250.00     4400.00
01193            -140.00     4000.00
01194            -250.00     4600.00
01195             162.00     4800.00
01196             250.00     4400.00
01197               0.00     5200.00
01198            -188.00     5000.00
01199            -202.00     5200.00
01200             126.00     5400.00
01201             250.00     5600.00
01202             -60.00     5800.00
01203            -250.00     5800.00
01204              12.00     6000.00
01205             250.00     6200.00
01206              20.00     6200.00
01207            -156.00     6400.00
01208             -44.00     6400.00
01209              70.00     6400.00
01210             114.00     6600.00
01211               6.00     6600.00
01212            -118.00     6800.00
01213             -42.00     7000.00
01214              90.00     7000.00
01215             110.00     7200.00
01216             -22.00     7200.00
01217            -122.00     7200.00
01218              -4.00     7600.00
01219             108.00     7600.00
01220              36.00     7600.00
01221             -50.00     7800.00
01222             -14.00     7800.00
01223              18.00     8000.00
01224              12.00     8200.00
01225              30.00     8200.00
01226              14.00     8200.00
01227             -36.00     8200.00
01228               0.00     8400.00
01229              52.00     8400.00
01230              22.00     8400.00
01231             -28.00     8400.00
01232              -6.00     8600.00
01233              26.00     8600.00
01234              14.00     8600.00
01235              10.00     8600.00
01236              12.00     8800.00
01237              -4.00     8800.00
01238              -4.00     8800.00
01239              26.00     9000.00
01240              12.00     8800.00
01241             -16.00     8800.00
01242              12.00     9000.00
01243              42.00     9000.00
01244              10.00     9000.00
01245             -28.00     8800.00
01246               0.00     9200.00
01247              36.00     9000.00
01248              18.00     9200.00
01249              -4.00     9200.00
01250              -4.00     9200.00
01251               6.00     8800.00
01252              18.00     9000.00
01253              26.00     9000.00
01254              -2.00     9000.00
01255             -16.00     9000.00
01256              14.00     8800.00
01257              38.00     8800.00
01258               2.00     8800.00
01259             -26.00     9000.00
01260               4.00     8800.00
01261              34.00     8800.00
01262              20.00     8800.00
01263              -2.00     8600.00
01264              -4.00     8600.00
01265               4.00     8600.00
01266              20.00     8600.00
01267              22.00     8400.00
01268              -2.00     8400.00
01269              -6.00     8400.00
01270              20.00     8400.00
01271              26.00     8400.00
01272              -2.00     8200.00
01273             -12.00     8200.00
01274              18.00     8000.00
01275              28.00     8200.00
01276               8.00     7800.00
01277              -6.00     8000.00
01278              -2.00     7800.00
01279              14.00     7600.00
01280              20.00     7600.00
01281              12.00     7600.00
01282              -4.00     7400.00
01283               2.00     7200.00
01284              18.00     7200.00
01285              18.00     7000.00
01286              -2.00     7000.00
01287              -4.00     6800.00
01288              14.00     6800.00
01289              20.00     6800.00
01290              -2.00     6400.00
01291              -6.00     6400.00
01292               4.00     6400.00
01293              18.00     6000.00
01294              16.00     6000.00
01295               0.00     6000.00
01296             -10.00     5800.00
01297              -2.00     5600.00
01298              18.00     5600.00
01299              12.00     5400.00
01300             -10.00     5200.00
01301              -4.00     5000.00
01302              14.00     4800.00
01303              14.00     4800.00
01304              -6.00     4600.00
01305             -12.00     4400.00
01306               4.00     4400.00
01307              14.00     4000.00
01308              12.00     4000.00
01309              -6.00     3800.00
01310             -12.00     3600.00
01311               2.00     3600.00
01312              14.00     3400.00
01313              10.00     3200.00
01314             -12.00     3000.00
01315              -6.00     3000.00
01316              10.00     2800.00
01317               6.00     2600.00
01318              -8.00     2400.00
01319              -8.00     2400.00
01320               4.00     2000.00
01321              12.00     2000.00
01322               2.00     1800.00
01323             -12.00     1600.00
01324             -10.00     1400.00
01325               4.00     1200.00
01326              14.00     1200.00
01327               0.00      800.00
01328             -14.00      800.00
01329              -6.00      600.00
01330               8.00      400.00
01331               4.00      400.00
01332              -6.00        0.00
01333              -6.00        0.00
01334              10.00     -200.00
01335              36.00     -400.00
01336              26.00     -600.00
01337             -18.00     -800.00
01338             -28.00     -800.00
01339              10.00    -1000.00
01340              28.00    -1200.00
01341              18.00    -1200.00
01342             108.00    -1400.00
01343             250.00    -1800.00
01344               2.00    -2000.00
01345            -250.00    -2200.00
01346            -250.00    -2600.00
01347             -66.00    -2400.00
01348             250.00    -2000.00
01349             250.00    -2800.00
01350            -250.00    -3000.00
01351            -250.00    -2800.00
01352             250.00    -3600.00
01353             250.00    -3200.00
01354            -250.00    -2800.00
01355            -220.00    -4000.00
01356            -202.00    -3800.00
01357             186.00    -3600.00
01358             250.00    -4400.00
01359            -250.00    -4200.00
01360            -250.00    -4200.00
01361             250.00    -4800.00
01362               2.00    -4400.00
01363             -50.00    -4800.00
01364             -86.00    -5200.00
01365            -224.00    -4600.00
01366             250.00    -5600.00
01367             164.00    -5600.00
01368            -190.00    -5400.00
01369            -134.00    -6000.00
01370               2.00    -5600.00
01371             172.00    -6000.00
01372             -20.00    -6200.00
01373            -138.00    -6000.00
01374              -4.00    -6600.00
01375               2.00    -6200.00
01376             102.00    -6400.00
01377             -16.00    -6800.00
01378            -150.00    -6600.00
01379              -2.00    -7200.00
01380              34.00    -6800.00
01381              86.00    -7200.00
01382             -24.00    -7400.00
01383            -166.00    -7200.00
01384               6.00    -7800.00
01385              82.00    -7400.00
01386              12.00    -7600.00
01387             -44.00    -8000.00
01388             -60.00    -7600.00
01389             -20.00    -8000.00
01390              -4.00    -8000.00
01391              34.00    -8000.00
01392               4.00    -8200.00
01393             -76.00    -8200.00
01394             -26.00    -8400.00
01395              26.00    -8400.00
01396              12.00    -8400.00
01397             -36.00    -8400.00
01398             -38.00    -8400.00
01399               6.00    -8800.00
01400              -4.00    -8800.00
01401             -28.00    -8600.00
01402             -12.00    -8800.00
01403             -20.00    -8800.00
01404              -4.00    -8800.00
01405               2.00    -9000.00
01406             -30.00    -9000.00
01407             -38.00    -8800.00
01408              -2.00    -9000.00
01409              26.00    -9000.00
01410             -20.00    -9000.00
01411             -54.00    -9000.00
01412             -16.00    -9000.00
01413              20.00    -9000.00
01414               2.00    -9000.00
01415             -32.00    -9000.00
01416             -36.00    -9000.00
01417             -10.00    -9000.00
01418               4.00    -9000.00
01419               2.00    -9000.00
01420             -34.00    -9000.00
01421             -46.00    -8800.00
01422               4.00    -9000.00
01423              20.00    -9000.00
01424             -22.00    -9000.00
01425             -46.00    -9000.00
01426             -22.00    -8800.00
01427              12.00    -9000.00
01428             -10.00    -8800.00
01429             -28.00    -8800.00
01430             -22.00    -8800.00
01431             -14.00    -8800.00
01432              -4.00    -8600.00
01433             -12.00    -8600.00
01434             -28.00    -8400.00
01435             -24.00    -8400.00
01436              -4.00    -8400.00
01437               6.00    -8200.00
01438             -30.00    -8200.00
01439             -36.00    -8200.00
01440              -6.00    -8000.00
01441               4.00    -8000.00
01442             -14.00    -8000.00
01443             -30.00    -8000.00
01444             -22.00    -8000.00
01445              -4.00    -7600.00
01446              -4.00    -7600.00
01447             -14.00    -7400.00
01448             -28.00    -7400.00
01449             -18.00    -7200.00
01450               4.00    -7200.00
01451              -6.00    -7200.00
01452             -28.00    -7000.00
01453             -28.00    -6800.00
01454              -2.00    -6800.00
01455               4.00    -6600.00
01456             -20.00    -6600.00
01457             -28.00    -6400.00
01458             -14.00    -6400.00
01459               2.00    -6000.00
01460              -2.00    -6000.00
01461             -18.00    -5800.00
01462             -26.00    -5800.00
01463             -14.00    -5800.00
01464              -2.00    -5600.00
01465              -6.00    -5200.00
01466             -26.00    -5200.00
01467             -16.00    -5000.00
01468               4.00    -5000.00
01469               0.00    -4600.00
01470             -18.00    -4600.00
01471             -26.00    -4400.00
01472              -6.00    -4400.00
01473               2.00    -4200.00
01474              -6.00    -4000.00
01475             -20.00    -3800.00
01476             -18.00    -4000.00
01477              -2.00    -3600.00
01478               4.00    -3400.00
01479             -10.00    -3400.00
01480             -20.00    -3200.00
01481             -12.00    -3000.00
01482               4.00    -3000.00
01483              -4.00    -2600.00
01484             -18.00    -2400.00
01485             -20.00    -2400.00
01486               2.00    -2000.00
01487              10.00    -2000.00
01488              -4.00    -2000.00
01489             -20.00    -1800.00
01490             -12.00    -1600.00
01491               6.00    -1400.00
01492              10.00    -1200.00
01493             -10.00    -1000.00
01494             -22.00     -800.00
01495              -8.00     -800.00
01496               4.00     -400.00
01497               2.00     -400.00
01498             -12.00     -200.00
01499             -12.00        0.00
01500               6.00        0.00
01501              28.00      200.00
01502              30.00      400.00
01503             -12.00      600.00
01504             -36.00      600.00
01505              -6.00     1000.00
01506              18.00     1200.00
01507              12.00     1200.00
01508               6.00     1200.00
01509             106.00     1600.00
01510             250.00     2000.00
01511              60.00     2000.00
01512            -250.00     2000.00
01513            -250.00     2200.00
01514               4.00     2400.00
01515             250.00     2400.00
01516             250.00     3000.00
01517               6.00     2800.00
01518            -250.00     2800.00
01519              -6.00     3200.00
01520             250.00     3200.00
01521              22.00     3800.00
01522            -250.00     3800.00
01523            -168.00     3600.00
01524             106.00     4000.00
01525             250.00     4400.00
01526             -66.00     4000.00
01527            -250.00     4600.00
01528              98.00     4600.00
01529             250.00     4400.00
01530              30.00     5000.00
01531            -178.00     5000.00
01532            -220.00     5200.00
01533              96.00     5400.00
01534             250.00     5400.00
01535             -14.00     5600.00
01536            -250.00     5800.00
01537             -30.00     6000.00
01538             250.00     6200.00
01539              58.00     6200.00
01540            -156.00     6200.00
01541             -68.00     6400.00
01542              58.00     6800.00
01543             124.00     6600.00
01544              34.00     6800.00
01545            -118.00     7000.00
01546             -66.00     7000.00
01547              76.00     6800.00
01548             122.00     7200.00
01549              -2.00     7200.00
01550            -122.00     7400.00
01551             -24.00     7400.00
01552             102.00     7600.00
01553              48.00     7800.00
01554             -38.00     7600.00
01555             -14.00     8000.00
01556               8.00     8000.00
01557               6.00     8200.00
01558              36.00     8200.00
01559              22.00     8200.00
01560             -36.00     8200.00
01561             -12.00     8200.00
01562              50.00     8400.00
01563              28.00     8400.00
01564             -20.00     8400.00
01565              -6.00     8400.00
01566              22.00     8600.00
01567              10.00     8600.00
01568               2.00     8600.00
01569              12.00     8800.00
01570               4.00     8800.00
01571              -2.00     8800.00
01572              22.00     8800.00
01573              12.00     9000.00
01574             -14.00     8800.00
01575               4.00     9000.00
01576              42.00     9000.00
01577              14.00     9200.00
01578             -28.00     9000.00
01579              -6.00     8800.00
01580              32.00     9000.00
01581              22.00     9000.00
01582               2.00     8800.00
01583              -4.00     9000.00
01584              -2.00     9200.00
01585              18.00     9000.00
01586              28.00     9200.00
01587               4.00     9200.00
01588             -20.00     9000.00
01589              10.00     9200.00
01590              42.00     9000.00
01591              12.00     9000.00
01592             -22.00     8800.00
01593              -2.00     8800.00
01594              26.00     8800.00
01595              20.00     8800.00
01596               4.00     8800.00
01597              -2.00     8800.00
01598               4.00     8600.00
01599              14.00     8600.00
01600              18.00     8600.00
01601               2.00     8600.00
01602              -4.00     8400.00
01603              20.00     8400.00
01604              26.00     8400.00
01605              -4.00     8200.00
01606             -14.00     8200.00
01607              18.00     8000.00
01608              34.00     8000.00
01609              10.00     8000.00
01610             -10.00     7800.00
01611              -6.00     7800.00
01612              12.00     7600.00
01613              24.00     7600.00
01614              14.00     7600.00
01615              -6.00     7400.00
01616              -4.00     7200.00
01617              18.00     7200.00
01618              22.00     7000.00
01619              -6.00     7000.00
01620             -10.00     6800.00
01621              14.00     6800.00
01622              22.00     6800.00
01623               4.00     6400.00
01624             -10.00     6400.00
01625              -4.00     6200.00
01626              12.00     6200.00
01627              18.00     6000.00
01628               6.00     6000.00
01629             -10.00     6000.00
01630              -4.00     5600.00
01631              14.00     5600.00
01632              14.00     5400.00
01633              -4.00     5200.00
01634              -6.00     5000.00
01635              12.00     4800.00
01636              14.00     4800.00
01637              -4.00     4600.00
01638             -10.00     4400.00
01639               2.00     4400.00
01640              14.00     4000.00
01641              10.00     4000.00
01642              -4.00     3800.00
01643             -12.00     3800.00
01644              -2.00     3600.00
01645              14.00     3400.00
01646               4.00     3200.00
01647             -12.00     3200.00
01648              -6.00     2800.00
01649              10.00     2800.00
01650               6.00     2600.00
01651              -6.00     2400.00
01652             -12.00     2200.00
01653               2.00     2200.00
01654              14.00     2000.00
01655               4.00     1800.00
01656             -10.00     1800.00
01657             -12.00     1600.00
01658               4.00     1200.00
01659              14.00     1000.00
01660               0.00      800.00
01661             -14.00      600.00
01662              -6.00      600.00
01663              10.00      400.00
01664               8.00      400.00
01665              -6.00      200.00
01666              -6.00        0.00
01667               4.00     -200.00
01668              40.00     -400.00
01669              30.00     -400.00
01670             -18.00     -800.00
01671             -30.00     -800.00
01672               4.00    -1000.00
01673              30.00    -1000.00
01674              22.00    -1200.00
01675              86.00    -1400.00
01676             250.00    -1600.00
01677              64.00    -2000.00
01678            -250.00    -2200.00
01679            -250.00    -2600.00
01680            -124.00    -2400.00
01681             250.00    -2000.00
01682             250.00    -2600.00
01683            -250.00    -3200.00
01684            -250.00    -2600.00
01685             250.00    -3600.00
01686             250.00    -3200.00
01687            -250.00    -2800.00
01688            -248.00    -4000.00
01689            -196.00    -4000.00
01690             122.00    -3600.00
01691             250.00    -4400.00
01692            -250.00    -4200.00
01693            -250.00    -4000.00
01694             250.00    -4800.00
01695              52.00    -4400.00
01696             -70.00    -4800.00
01697             -58.00    -5200.00
01698            -246.00    -4600.00
01699             212.00    -5600.00
01700             206.00    -5400.00
01701            -176.00    -5200.00
01702            -146.00    -6000.00
01703             -18.00    -5800.00
01704             166.00    -6000.00
01705              12.00    -6400.00
01706            -148.00    -6200.00
01707             -10.00    -6600.00
01708              -4.00    -6400.00
01709              94.00    -6600.00
01710              10.00    -6800.00
01711            -150.00    -6600.00
01712             -12.00    -7200.00
01713              30.00    -7000.00
01714              80.00    -6800.00
01715              -6.00    -7400.00
01716            -164.00    -7200.00
01717             -10.00    -7600.00
01718              84.00    -7400.00
01719              20.00    -7600.00
01720             -38.00    -8000.00
01721             -58.00    -7800.00
01722             -22.00    -8000.00
01723              -8.00    -8000.00
01724              34.00    -8200.00
01725              10.00    -8200.00
01726             -70.00    -8200.00
01727             -30.00    -8200.00
01728              26.00    -8400.00
01729              12.00    -8400.00
01730             -30.00    -8400.00
01731             -42.00    -8400.00
01732               6.00    -8400.00
01733               2.00    -8600.00
01734             -28.00    -8800.00
01735             -18.00    -8800.00
01736             -18.00    -8800.00
01737              -6.00    -9000.00
01738               4.00    -8800.00
01739             -26.00    -8800.00
01740             -40.00    -9000.00
01741              -6.00    -9000.00
01742              26.00    -9000.00
01743             -10.00    -9000.00
01744             -58.00    -9000.00
01745             -22.00    -9200.00
01746              18.00    -9000.00
01747               4.00    -9000.00
01748             -30.00    -9000.00
01749             -34.00    -9000.00
01750             -12.00    -9000.00
01751               2.00    -9000.00
01752               2.00    -9200.00
01753             -28.00    -8800.00
01754             -44.00    -9000.00
01755              -2.00    -9000.00
01756              18.00    -9000.00
01757             -18.00    -9000.00
01758             -46.00    -9000.00
01759             -28.00    -8800.00
01760              10.00    -8800.00
01761              -4.00    -8800.00
01762             -28.00    -8800.00
01763             -26.00    -8800.00
01764             -14.00    -8800.00
01765              -4.00    -8800.00
01766             -10.00    -8400.00
01767             -28.00    -8400.00
01768             -24.00    -8400.00
01769              -4.00    -8400.00
01770               4.00    -8400.00
01771             -28.00    -8400.00
01772             -38.00    -8200.00
01773              -6.00    -8000.00
01774               6.00    -8200.00
01775             -12.00    -8000.00
01776             -36.00    -8000.00
01777             -22.00    -8000.00
01778              -6.00    -7800.00
01779              -6.00    -7600.00
01780             -12.00    -7400.00
01781             -28.00    -7400.00
01782             -20.00    -7200.00
01783               4.00    -7200.00
01784              -2.00    -7200.00
01785             -26.00    -6800.00
01786             -30.00    -6800.00
01787              -2.00    -6800.00
01788               4.00    -6800.00
01789             -20.00    -6600.00
01790             -28.00    -6400.00
01791             -14.00    -6200.00
01792               2.00    -6200.00
01793              -2.00    -6000.00
01794             -20.00    -6000.00
01795             -28.00    -5800.00
01796             -14.00    -5600.00
01797               4.00    -5600.00
01798              -2.00    -5400.00
01799             -26.00    -5200.00
01800             -22.00    -5200.00
01801               4.00    -5000.00
01802               2.00    -4800.00
01803             -18.00    -4600.00
01804             -24.00    -4400.00
01805              -8.00    -4400.00
01806               4.00    -4200.00
01807              -4.00    -4000.00
01808             -22.00    -4000.00
01809             -22.00    -3800.00
01810              -6.00    -3600.00
01811               6.00    -3400.00
01812              -6.00    -3400.00
01813             -22.00    -3200.00
01814             -18.00    -3000.00
01815               4.00    -2800.00
01816               2.00    -2600.00
01817             -18.00    -2600.00
01818             -22.00    -2400.00
01819              -2.00    -2200.00
01820               4.00    -2000.00
01821              -6.00    -2000.00
01822             -22.00    -1800.00
01823             -16.00    -1600.00
01824               4.00    -1400.00
01825              12.00    -1200.00
01826              -4.00    -1000.00
01827             -20.00     -800.00
01828             -18.00     -800.00
01829              -2.00     -400.00
01830              -2.00     -400.00
01831             -12.00     -200.00
01832             -10.00        0.00
01833               2.00        0.00
01834              26.00      400.00
01835              30.00      400.00
01836              -6.00      400.00
01837             -34.00      600.00
01838             -14.00      800.00
01839              18.00     1200.00
01840              14.00     1200.00
01841               6.00     1400.00
01842              86.00     1400.00
01843             250.00     2000.00
01844             116.00     2200.00
01845            -250.00     2000.00
01846            -250.00     2200.00
01847             -38.00     2400.00
01848             250.00     2400.00
01849             250.00     3200.00
01850             142.00     3000.00
01851            -250.00     2800.00
01852            -162.00     3200.00
01853             250.00     3200.00
01854             138.00     3600.00
01855            -250.00     3800.00
01856            -194.00     3600.00
01857              68.00     4000.00
01858             250.00     4400.00
01859              10.00     4000.00
01860            -250.00     4400.00
01861              38.00     4800.00
01862             250.00     4600.00
01863              60.00     4800.00
01864            -164.00     5200.00
01865            -226.00     5200.00
01866              54.00     5400.00
01867             250.00     5600.00
01868              34.00     5600.00
01869            -250.00     5800.00
01870             -70.00     6000.00
01871             250.00     6000.00
01872              90.00     6200.00
01873            -152.00     6200.00
01874             -80.00     6400.00
01875              46.00     6400.00
01876             122.00     6600.00
01877              56.00     6600.00
01878            -108.00     7000.00
01879             -82.00     7000.00
01880              60.00     7000.00
01881             124.00     7200.00
01882              18.00     7200.00
01883            -116.00     7200.00
01884             -42.00     7600.00
01885              98.00     7600.00
01886              60.00     7800.00
01887             -36.00     7800.00
01888             -22.00     7800.00
01889              10.00     8000.00
01890               2.00     8200.00
01891              30.00     8000.00
01892              28.00     8400.00
01893             -30.00     8200.00
01894             -22.00     8000.00
01895              42.00     8400.00
01896              36.00     8400.00
01897             -14.00     8400.00
01898             -12.00     8400.00
01899              18.00     8600.00
01900              12.00     8800.00
01901               4.00     8600.00
01902              18.00     8800.00
01903               4.00     8800.00
01904              -4.00     8800.00
01905              18.00     8800.00
01906              18.00     8800.00
01907             -12.00     9000.00
01908               2.00     8800.00
01909              38.00     9200.00
01910              16.00     8800.00
01911             -28.00     9000.00
01912              -6.00     9000.00
01913              34.00     9000.00
01914              26.00     9200.00
01915              -2.00     9000.00
01916              -4.00     9000.00
01917               2.00     9200.00
01918              14.00     9200.00
01919              28.00     9000.00
01920               6.00     9200.00
01921             -18.00     9000.00
01922               4.00     9000.00
01923              42.00     8800.00
01924              16.00     9000.00
01925             -22.00     8800.00
01926              -4.00     9000.00
01927              30.00     8800.00
01928              26.00     8800.00
01929               4.00     8800.00
01930              -4.00     8800.00
01931               2.00     8600.00
01932              18.00     8600.00
01933              20.00     8400.00
01934               6.00     8600.00
01935              -6.00     8400.00
01936              12.00     8400.00
01937              30.00     8400.00
01938               4.00     8400.00
01939             -12.00     8000.00
01940              10.00     8200.00
01941              30.00     8000.00
01942              12.00     8000.00
01943              -6.00     8000.00
01944              -4.00     7800.00
01945              10.00     7600.00
01946              18.00     7600.00
01947              14.00     7600.00
01948              -2.00     7600.00
01949              -2.00     7200.00
01950              12.00     7000.00
01951              20.00     7000.00
01952              -4.00     7000.00
01953             -10.00     6800.00
01954              12.00     6800.00
01955              26.00     6600.00
01956               4.00     6400.00
01957             -10.00     6400.00
01958              -4.00     6200.00
01959              12.00     6200.00
01960              18.00     6200.00
01961               4.00     6000.00
01962             -10.00     5800.00
01963              -4.00     5600.00
01964              14.00     5400.00
01965              14.00     5400.00
01966              -6.00     5200.00
01967             -10.00     5000.00
01968              10.00     4800.00
01969              18.00     4800.00
01970               0.00     4400.00
01971             -10.00     4400.00
01972              -4.00     4400.00
01973              12.00     4200.00
01974              12.00     4000.00
01975              -2.00     3800.00
01976             -10.00     3800.00
01977              -4.00     3600.00
01978              14.00     3600.00
01979              10.00     3200.00
01980              -6.00     3000.00
01981              -6.00     3000.00
01982              10.00     2800.00
01983              10.00     2600.00
01984              -6.00     2400.00
01985             -10.00     2200.00
01986               4.00     2200.00
01987              12.00     2000.00
01988               4.00     2000.00
01989             -10.00     1600.00
01990             -12.00     1800.00
01991               4.00     1400.00
01992              14.00     1200.00
01993               4.00     1000.00
01994             -12.00      800.00
01995             -10.00      600.00
01996               4.00      400.00
01997               8.00      400.00
01998              -4.00        0.00
01999              -4.00     -200.00
02000               6.00     -200.00
02001              34.00     -200.00
02002              30.00     -400.00
02003             -10.00     -600.00
02004             -28.00     -800.00
02005               2.00    -1000.00
02006              28.00    -1000.00
02007              20.00    -1200.00
02008              68.00    -1200.00
02009             250.00    -1600.00
02010             124.00    -2000.00
02011            -250.00    -2200.00
02012            -250.00    -2400.00
02013            -174.00    -2400.00
02014             250.00    -2000.00
02015             250.00    -2600.00
02016            -250.00    -3200.00
02017            -250.00    -2600.00
02018             250.00    -3600.00
02019             250.00    -3400.00
02020            -250.00    -2800.00
02021            -250.00    -4000.00
02022            -188.00    -4000.00
02023              54.00    -3600.00
02024             250.00    -4400.00
02025            -250.00    -4200.00
02026            -250.00    -4000.00
02027             250.00    -4800.00
02028             108.00    -4400.00
02029             -90.00    -4600.00
02030             -36.00    -5200.00
02031            -250.00    -4800.00
02032             164.00    -5400.00
02033             242.00    -5600.00
02034            -162.00    -5400.00
02035            -154.00    -6000.00
02036             -34.00    -5800.00
02037             160.00    -6000.00
02038              38.00    -6200.00
02039            -150.00    -6000.00
02040             -20.00    -6400.00
02041              -6.00    -6200.00
02042              84.00    -6400.00
02043              30.00    -6800.00
02044            -148.00    -6600.00
02045             -22.00    -7000.00
02046              30.00    -7200.00
02047              72.00    -7200.00
02048              18.00    -7400.00
02049            -162.00    -7200.00
02050             -28.00    -7400.00
02051              84.00    -7400.00
02052              22.00    -7600.00
02053             -36.00    -8000.00
02054             -62.00    -7800.00
02055             -20.00    -8000.00
02056              -6.00    -8000.00
02057              28.00    -8000.00
02058              18.00    -8200.00
02059             -70.00    -8200.00
02060             -40.00    -8200.00
02061              26.00    -8400.00
02062              18.00    -8400.00
02063             -26.00    -8400.00
02064             -44.00    -8400.00
02065               2.00    -8600.00
02066               4.00    -8600.00
02067             -26.00    -8800.00
02068             -14.00    -8800.00
02069             -14.00    -8800.00
02070             -10.00    -8800.00
02071               4.00    -8800.00
02072             -24.00    -8800.00
02073             -40.00    -8800.00
02074             -12.00    -9000.00
02075              26.00    -9000.00
02076              -4.00    -9000.00
02077             -56.00    -9000.00
02078             -28.00    -9000.00
02079              18.00    -9000.00
02080               4.00    -9200.00
02081             -28.00    -9000.00
02082             -34.00    -9000.00
02083             -12.00    -9200.00
02084               2.00    -9000.00
02085               2.00    -9000.00
02086             -26.00    -9000.00
02087             -46.00    -9200.00
02088              -6.00    -9000.00
02089              22.00    -9000.00
02090             -18.00    -9000.00
02091             -48.00    -9000.00
02092             -28.00    -8800.00
02093              12.00    -8800.00
02094              -2.00    -8800.00
02095             -28.00    -8800.00
02096             -28.00    -8800.00
02097             -14.00    -8600.00
02098              -2.00    -8600.00
02099             -10.00    -8400.00
02100             -26.00    -8400.00
02101             -28.00    -8400.00
02102              -6.00    -8400.00
02103               6.00    -8400.00
02104             -28.00    -8200.00
02105             -40.00    -8200.00
02106             -12.00    -8200.00
02107               6.00    -8000.00
02108             -10.00    -8000.00
02109             -30.00    -8000.00
02110             -26.00    -8000.00
02111              -8.00    -7800.00
02112              -4.00    -7600.00
02113             -12.00    -7600.00
02114             -24.00    -7400.00
02115             -22.00    -7400.00
02116               2.00    -7200.00
02117              -2.00    -7200.00
02118             -22.00    -7200.00
02119             -28.00    -6800.00
02120              -6.00    -6600.00
02121               6.00    -6800.00
02122             -20.00    -6600.00
02123             -28.00    -6400.00
02124             -16.00    -6400.00
02125              -2.00    -6400.00
02126               4.00    -6000.00
02127             -18.00    -6000.00
02128             -28.00    -5800.00
02129             -18.00    -5800.00
02130               4.00    -5600.00
02131              -2.00    -5400.00
02132             -28.00    -5200.00
02133             -22.00    -5000.00
02134               4.00    -5000.00
02135               4.00    -4600.00
02136             -14.00    -4400.00
02137             -26.00    -4400.00
02138             -10.00    -4400.00
02139               2.00    -4200.00
02140              -2.00    -4000.00
02141             -16.00    -4000.00
02142             -22.00    -3800.00
02143             -10.00    -3600.00
02144               4.00    -3600.00
02145              -2.00    -3400.00
02146             -20.00    -3200.00
02147             -18.00    -3200.00
02148               2.00    -2800.00
02149               2.00    -2800.00
02150             -14.00    -2600.00
02151             -20.00    -2400.00
02152              -6.00    -2200.00
02153               4.00    -2000.00
02154              -4.00    -1800.00
02155             -16.00    -1800.00
02156             -14.00    -1600.00
02157              -2.00    -1200.00
02158               6.00    -1200.00
02159              -6.00    -1000.00
02160             -20.00     -800.00
02161             -12.00     -800.00
02162               4.00     -600.00
02163               2.00     -400.00
02164             -10.00     -200.00
02165             -12.00        0.00
02166               2.00        0.00
02167              22.00      200.00
02168              28.00      400.00
02169              -2.00      400.00
02170             -32.00      600.00
02171             -14.00      800.00
02172              20.00     1000.00
02173              18.00     1200.00
02174               2.00     1400.00
02175              66.00     1400.00
02176             250.00     1800.00
02177             166.00     2000.00
02178            -250.00     2200.00
02179            -250.00     2200.00
02180             -86.00     2400.00
02181             250.00     2400.00
02182             250.00     3000.00
02183             250.00     3000.00
02184            -250.00     2800.00
02185            -250.00     3200.00
02186             250.00     3200.00
02187             250.00     3600.00
02188            -250.00     3800.00
02189            -232.00     3400.00
02190              30.00     4000.00
02191             250.00     4400.00
02192              76.00     4000.00
02193            -250.00     4600.00
02194             -20.00     4800.00
02195             250.00     4600.00
02196             102.00     4800.00
02197            -142.00     5200.00
02198            -236.00     5200.00
02199               4.00     5400.00
02200             250.00     5400.00
02201              70.00     5800.00
02202            -250.00     5800.00
02203            -108.00     5600.00
02204             250.00     6000.00
02205             126.00     6200.00
02206            -142.00     6200.00
02207             -82.00     6400.00
02208              38.00     6400.00
02209             110.00     6600.00
02210              52.00     6600.00
02211            -110.00     6800.00
02212             -94.00     7000.00
02213              54.00     7000.00
02214             130.00     7200.00
02215              38.00     7200.00
02216            -110.00     7400.00
02217             -54.00     7400.00
02218              94.00     7800.00
02219              68.00     7800.00
02220             -38.00     7800.00
02221             -30.00     8000.00
02222               2.00     7800.00
02223              -2.00     8000.00
02224              28.00     8000.00
02225              42.00     8200.00
02226             -20.00     8400.00
02227             -22.00     8200.00
02228              38.00     8400.00
02229              34.00     8400.00
02230             -20.00     8400.00
02231             -20.00     8600.00
02232              18.00     8600.00
02233              14.00     8600.00
02234               2.00     8600.00
02235              18.00     8800.00
02236              14.00     8800.00
02237              -2.00     8800.00
02238              18.00     8800.00
02239              16.00     8800.00
02240             -18.00     9000.00
02241              -4.00     9000.00
02242              42.00     8800.00
02243              26.00     8800.00
02244             -24.00     8800.00
02245              -8.00     9000.00
02246              36.00     8800.00
02247              30.00     8800.00
02248               4.00     8800.00
02249              -6.00     9200.00
02250              -2.00     9000.00
02251              12.00     9000.00
02252              30.00     8800.00
02253              14.00     9200.00
02254             -20.00     8800.00
02255               2.00     9000.00
02256              44.00     8800.00
02257              24.00     9000.00
02258             -22.00     8800.00
02259             -12.00     8800.00
02260              28.00     8800.00
02261              28.00     8800.00
02262               4.00     8600.00
02263               0.00     8800.00
02264               4.00     8600.00
02265              18.00     8600.00
02266              20.00     8600.00
02267               6.00     8400.00
02268              -6.00     8400.00
02269              12.00     8400.00
02270              26.00     8400.00
02271               4.00     8400.00
02272             -14.00     8200.00
02273              10.00     8200.00
02274              32.00     8000.00
02275              12.00     8000.00
02276             -10.00     8000.00
02277              -6.00     7800.00
02278              10.00     7800.00
02279              18.00     7400.00
02280              18.00     7400.00
02281              -2.00     7200.00
02282              -6.00     7400.00
02283              10.00     7200.00
02284              20.00     7200.00
02285               4.00     7000.00
02286             -10.00     6800.00
02287              10.00     6800.00
02288              20.00     6800.00
02289               6.00     6600.00
02290              -8.00     6400.00
02291               2.00     6200.00
02292              12.00     6200.00
02293              18.00     6000.00
02294               4.00     6000.00
02295              -6.00     5800.00
02296              -6.00     5600.00
02297              10.00     5400.00
02298              14.00     5400.00
02299              -6.00     5200.00
02300              -8.00     5000.00
02301              14.00     4800.00
02302              20.00     4800.00
02303               2.00     4600.00
02304             -14.00     4400.00
02305              -2.00     4400.00
02306              12.00     4200.00
02307              14.00     4000.00
02308               2.00     4000.00
02309             -12.00     3800.00
02310              -2.00     3600.00
02311              14.00     3400.00
02312              12.00     3200.00
02313              -8.00     3200.00
02314             -12.00     3000.00
02315               6.00     2800.00
02316              12.00     2800.00
02317              -2.00     2400.00
02318              -8.00     2400.00
02319               2.00     2200.00
02320              10.00     2000.00
02321               6.00     1800.00
02322              -4.00     1800.00
02323             -10.00     1600.00
02324               2.00     1400.00
02325              14.00     1200.00
02326               4.00     1000.00
02327             -14.00      800.00
02328             -12.00      600.00
02329               6.00      400.00
02330              12.00      400.00
02331               2.00        0.00
02332              -6.00        0.00
02333               2.00     -200.00
02334              28.00     -200.00
02335              34.00     -400.00
02336              -4.00     -800.00
02337             -28.00     -800.00
02338              -6.00    -1000.00
02339              20.00    -1200.00
02340              22.00    -1200.00
02341              60.00    -1200.00
02342             250.00    -1600.00
02343             176.00    -2000.00
02344            -250.00    -2200.00
02345            -250.00    -2400.00
02346            -220.00    -2600.00
02347             250.00    -2000.00
02348             250.00    -2400.00
02349            -206.00    -3200.00
02350            -250.00    -2600.00
02351             250.00    -3400.00
02352             250.00    -3400.00
02353            -246.00    -2800.00
02354            -250.00    -4000.00
02355            -180.00    -4000.00
02356             -10.00    -3600.00
02357             250.00    -4400.00
02358            -202.00    -4200.00
02359            -250.00    -4000.00
02360             250.00    -4800.00
02361             164.00    -4600.00
02362            -108.00    -4400.00
02363             -20.00    -5200.00
02364            -250.00    -4800.00
02365             116.00    -5200.00
02366             250.00    -5600.00
02367            -134.00    -5200.00
02368            -166.00    -5800.00
02369             -46.00    -5800.00
02370             150.00    -5800.00
02371              68.00    -6200.00
02372            -150.00    -6000.00
02373             -28.00    -6400.00
02374              -6.00    -6400.00
02375              74.00    -6400.00
02376              50.00    -7000.00
02377            -148.00    -6600.00
02378             -42.00    -6800.00
02379              36.00    -6800.00
02380              74.00    -7000.00
02381              34.00    -7200.00
02382            -158.00    -7200.00
02383             -52.00    -7400.00
02384              86.00    -7400.00
02385              36.00    -7400.00
02386             -28.00    -8000.00
02387             -66.00    -7600.00
02388             -30.00    -8000.00
02389              -6.00    -8000.00
02390              26.00    -8000.00
02391              26.00    -8200.00
02392             -60.00    -8200.00
02393             -50.00    -8400.00
02394              18.00    -8400.00
02395              18.00    -8400.00
02396             -22.00    -8600.00
02397             -42.00    -8400.00
02398              -2.00    -8600.00
02399               4.00    -8800.00
02400             -28.00    -8800.00
02401             -18.00    -8800.00
02402             -12.00    -8800.00
02403              -8.00    -8800.00
02404               6.00    -8800.00
02405             -20.00    -9000.00
02406             -42.00    -8800.00
02407             -18.00    -9000.00
02408              20.00    -9000.00
02409              -2.00    -9000.00
02410             -54.00    -9000.00
02411             -30.00    -9000.00
02412              14.00    -9000.00
02413              10.00    -9000.00
02414             -26.00    -9000.00
02415             -42.00    -9000.00
02416             -20.00    -9200.00
02417               4.00    -9200.00
02418               6.00    -9000.00
02419             -20.00    -9000.00
02420             -52.00    -9000.00
02421             -12.00    -9000.00
02422              20.00    -9000.00
02423              -6.00    -8800.00
02424             -42.00    -9000.00
02425             -34.00    -8800.00
02426               0.00    -9000.00
02427              -4.00    -8800.00
02428             -20.00    -8800.00
02429             -16.00    -8800.00
02430             -18.00    -8800.00
02431             -14.00    -8800.00
02432             -18.00    -8600.00
02433             -26.00    -8400.00
02434             -14.00    -8400.00
02435               6.00    -8400.00
02436               6.00    -8600.00
02437             -38.00    -8400.00
02438             -46.00    -8200.00
02439              -4.00    -8200.00
02440              20.00    -8000.00
02441              -4.00    -8000.00
02442             -42.00    -8000.00
02443             -36.00    -7800.00
02444              -4.00    -7800.00
02445               6.00    -7600.00
02446              -4.00    -7400.00
02447             -28.00    -7400.00
02448             -30.00    -7200.00
02449               0.00    -7400.00
02450               6.00    -7000.00
02451             -18.00    -7000.00
02452             -36.00    -7000.00
02453             -18.00    -6800.00
02454               4.00    -6600.00
02455              -6.00    -6600.00
02456             -20.00    -6400.00
02457             -16.00    -6400.00
02458             -10.00    -6200.00
02459              -6.00    -6200.00
02460             -12.00    -6000.00
02461             -20.00    -5800.00
02462             -10.00    -5800.00
02463               0.00    -5600.00
02464              -6.00    -5600.00
02465             -24.00    -5200.00
02466             -20.00    -5000.00
02467               4.00    -5000.00
02468               4.00    -4800.00
02469             -18.00    -4600.00
02470             -28.00    -4600.00
02471             -12.00    -4400.00
02472               4.00    -4200.00
02473               2.00    -4000.00
02474             -20.00    -4000.00
02475             -28.00    -4000.00
02476             -12.00    -3600.00
02477               4.00    -3600.00
02478               2.00    -3400.00
02479             -20.00    -3200.00
02480             -22.00    -3000.00
02481              -4.00    -2800.00
02482               6.00    -2800.00
02483             -12.00    -2600.00
02484             -20.00    -2400.00
02485             -10.00    -2200.00
02486               4.00    -2000.00
02487               0.00    -2000.00
02488             -14.00    -1800.00
02489             -20.00    -1600.00
02490              -4.00    -1400.00
02491               6.00    -1200.00
02492              -4.00    -1000.00
02493             -20.00     -800.00
02494             -12.00     -800.00
02495               4.00     -400.00
02496               2.00     -400.00
02497             -12.00     -200.00
02498             -12.00        0.00
02499               4.00        0.00
02500              22.00      400.00
02501              34.00      400.00
02502               2.00      600.00
02503             -30.00      800.00
02504             -14.00      800.00
02505              16.00     1000.00
02506              18.00     1200.00
02507               2.00     1200.00
02508              54.00     1400.00
02509             250.00     2000.00
02510             204.00     2200.00
02511            -250.00     2200.00
02512            -250.00     2200.00
02513            -122.00     2200.00
02514             250.00     2400.00
02515             250.00     2800.00
02516             250.00     3000.00
02517            -250.00     2800.00
02518            -250.00     3200.00
02519             250.00     3200.00
02520             250.00     3600.00
02521            -250.00     4000.00
02522            -244.00     3600.00
02523              16.00     3800.00
02524             250.00     4200.00
02525             146.00     4000.00
02526            -250.00     4400.00
02527             -94.00     4800.00
02528             250.00     4400.00
02529             128.00     4800.00
02530            -134.00     5200.00
02531            -236.00     5400.00
02532             -24.00     5200.00
02533             250.00     5400.00
02534             124.00     5600.00
02535            -250.00     5600.00
02536            -150.00     5800.00
02537             232.00     6000.00
02538             148.00     6000.00
02539            -134.00     6200.00
02540            -106.00     6400.00
02541              26.00     6600.00
02542             114.00     6800.00
02543              78.00     6600.00
02544             -92.00     6800.00
02545            -102.00     7000.00
02546              40.00     6800.00
02547             124.00     7200.00
02548              44.00     7400.00
02549            -106.00     7200.00
02550             -72.00     7400.00
02551              82.00     7600.00
02552              82.00     7800.00
02553             -22.00     7800.00
02554             -36.00     7800.00
02555               2.00     7800.00
02556               2.00     7800.00
02557              26.00     8200.00
02558              42.00     8400.00
02559             -22.00     8200.00
02560             -30.00     8400.00
02561              34.00     8400.00
02562              44.00     8400.00
02563              -6.00     8400.00
02564             -14.00     8400.00
02565              14.00     8600.00
02566              10.00     8800.00
02567              -4.00     8600.00
02568              18.00     8800.00
02569              16.00     8600.00
02570               2.00     8800.00
02571              14.00     8800.00
02572              18.00     8800.00
02573             -14.00     8800.00
02574              -6.00     8800.00
02575              38.00     9000.00
02576              28.00     9200.00
02577             -28.00     9000.00
02578             -18.00     9000.00
02579              34.00     9200.00
02580              38.00     9000.00
02581               6.00     9200.00
02582              -2.00     9200.00
02583               2.00     9000.00
02584               6.00     9200.00
02585              26.00     8800.00
02586              14.00     9200.00
02587             -18.00     9000.00
02588              -2.00     8800.00
02589              42.00     8800.00
02590              28.00     9000.00
02591             -14.00     8800.00
02592             -10.00     8800.00
02593              28.00     8800.00
02594              28.00     8800.00
02595               4.00     8800.00
02596              -8.00     8800.00
02597               2.00     8600.00
02598              14.00     8600.00
02599              22.00     8600.00
02600               6.00     8600.00
02601              -6.00     8400.00
02602              10.00     8400.00
02603              28.00     8400.00
02604               6.00     8200.00
02605             -14.00     8200.00
02606               4.00     8200.00
02607              28.00     8000.00
02608              10.00     8200.00
02609              -4.00     7800.00
02610               2.00     7800.00
02611              10.00     7800.00
02612              18.00     7600.00
02613              14.00     7600.00
02614              -2.00     7400.00
02615              -4.00     7200.00
02616              14.00     7000.00
02617              18.00     7200.00
02618             -10.00     6800.00
02619              -6.00     6800.00
02620              18.00     6800.00
02621              32.00     6800.00
02622               4.00     6400.00
02623             -20.00     6400.00
02624              -6.00     6200.00
02625              14.00     6000.00
02626              20.00     6000.00
02627               4.00     6000.00
02628             -10.00     6000.00
02629              -2.00     5600.00
02630              18.00     5600.00
02631              14.00     5400.00
02632              -2.00     5200.00
02633              -6.00     5000.00
02634               6.00     4800.00
02635              14.00     4600.00
02636               2.00     4600.00
02637              -6.00     4600.00
02638               0.00     4400.00
02639              14.00     4400.00
02640              12.00     4000.00
02641              -6.00     3800.00
02642             -12.00     3600.00
02643               2.00     3600.00
02644              20.00     3400.00
02645              12.00     3200.00
02646             -14.00     3200.00
02647             -14.00     3000.00
02648              12.00     2800.00
02649              22.00     2800.00
02650               2.00     2400.00
02651             -18.00     2400.00
02652              -6.00     2200.00
02653              14.00     2000.00
02654              18.00     1600.00
02655              -6.00     1800.00
02656             -20.00     1600.00
02657              -8.00     1200.00
02658              14.00     1200.00
02659              14.00     1000.00
02660              -4.00      800.00
02661             -14.00      600.00
02662              -4.00      400.00
02663               6.00      400.00
02664               2.00        0.00
02665              -2.00        0.00
02666               2.00     -200.00
02667              22.00     -200.00
02668              30.00     -400.00
02669              -2.00     -800.00
02670             -26.00     -800.00
02671              -4.00     -800.00
02672              22.00    -1200.00
02673              14.00    -1200.00
02674              36.00    -1600.00
02675             250.00    -1800.00
02676             228.00    -2200.00
02677            -250.00    -2000.00
02678            -250.00    -2400.00
02679            -250.00    -2400.00
02680             250.00    -2000.00
02681             250.00    -2600.00
02682              14.00    -3200.00
02683            -250.00    -2600.00
02684              98.00    -3400.00
02685             250.00    -3600.00
02686            -134.00    -2800.00
02687            -250.00    -3600.00
02688            -166.00    -4000.00
02689             -70.00    -3600.00
02690             250.00    -4200.00
02691             -92.00    -4400.00
02692            -250.00    -4000.00
02693             250.00    -4800.00
02694             212.00    -4600.00
02695            -126.00    -4600.00
02696               2.00    -5200.00
02697            -238.00    -4800.00
02698              72.00    -5200.00
02699             250.00    -5600.00
02700            -118.00    -5000.00
02701            -178.00    -5800.00
02702             -54.00    -5800.00
02703             138.00    -5800.00
02704              90.00    -6400.00
02705            -154.00    -6000.00
02706             -38.00    -6400.00
02707               4.00    -6400.00
02708              62.00    -6400.00
02709              66.00    -7000.00
02710            -140.00    -6600.00
02711             -50.00    -6800.00
02712              36.00    -7200.00
02713              58.00    -6800.00
02714              42.00    -7400.00
02715            -150.00    -7200.00
02716             -60.00    -7200.00
02717              94.00    -7600.00
02718              34.00    -7400.00
02719             -30.00    -8000.00
02720             -62.00    -7800.00
02721             -22.00    -7800.00
02722              -2.00    -8000.00
02723              18.00    -8000.00
02724              26.00    -8200.00
02725             -62.00    -8200.00
02726             -52.00    -8400.00
02727              26.00    -8400.00
02728              22.00    -8400.00
02729             -22.00    -8600.00
02730             -50.00    -8400.00
02731              -6.00    -8800.00
02732              14.00    -8600.00
02733             -26.00    -8800.00
02734             -22.00    -8800.00
02735             -22.00    -8800.00
02736             -18.00    -8800.00
02737              10.00    -9000.00
02738             -14.00    -8800.00
02739             -42.00    -9000.00
02740             -22.00    -9000.00
02741              22.00    -9000.00
02742               4.00    -9000.00
02743             -54.00    -8800.00
02744             -38.00    -9200.00
02745              10.00    -9000.00
02746               8.00    -9000.00
02747             -20.00    -9000.00
02748             -38.00    -9000.00
02749             -20.00    -9000.00
02750              -2.00    -9000.00
02751               6.00    -9000.00
02752             -14.00    -9000.00
02753             -48.00    -9000.00
02754             -20.00    -9000.00
02755              20.00    -9000.00
02756              -6.00    -8800.00
02757             -44.00    -9000.00
02758             -36.00    -9000.00
02759              10.00    -8800.00
02760               6.00    -8800.00
02761             -24.00    -8800.00
02762             -26.00    -8800.00
02763             -18.00    -8800.00
02764              -4.00    -8800.00
02765              -6.00    -8600.00
02766             -22.00    -8400.00
02767             -30.00    -8600.00
02768             -12.00    -8400.00
02769              10.00    -8400.00
02770             -14.00    -8200.00
02771             -40.00    -8200.00
02772             -14.00    -8200.00
02773               4.00    -8200.00
02774              -6.00    -8000.00
02775             -28.00    -8000.00
02776             -26.00    -7800.00
02777              -6.00    -7800.00
02778              -4.00    -7600.00
02779              -6.00    -7600.00
02780             -22.00    -7400.00
02781             -24.00    -7200.00
02782               2.00    -7200.00
02783               4.00    -7200.00
02784             -20.00    -6800.00
02785             -30.00    -6800.00
02786             -10.00    -6800.00
02787              10.00    -6600.00
02788             -10.00    -6600.00
02789             -30.00    -6400.00
02790             -20.00    -6400.00
02791              -4.00    -6400.00
02792               2.00    -6000.00
02793             -10.00    -6000.00
02794             -24.00    -6000.00
02795             -18.00    -5800.00
02796              -2.00    -5600.00
02797               0.00    -5400.00
02798             -22.00    -5200.00
02799             -26.00    -5200.00
02800              -2.00    -5000.00
02801               4.00    -5000.00
02802             -14.00    -4600.00
02803             -26.00    -4400.00
02804             -12.00    -4400.00
02805               2.00    -4200.00
02806              -2.00    -4200.00
02807             -12.00    -4000.00
02808             -26.00    -3600.00
02809             -16.00    -3600.00
02810               2.00    -3600.00
02811               2.00    -3400.00
02812             -20.00    -3200.00
02813             -22.00    -3200.00
02814               2.00    -2800.00
02815              10.00    -2800.00
02816             -12.00    -2600.00
02817             -26.00    -2400.00
02818             -12.00    -2400.00
02819               4.00    -2000.00
02820               2.00    -1800.00
02821             -14.00    -2000.00
02822             -22.00    -1600.00
02823              -6.00    -1400.00
02824               6.00    -1200.00
02825               2.00    -1200.00
02826             -14.00     -800.00
02827             -14.00     -800.00
02828               4.00     -400.00
02829               0.00     -400.00
02830             -10.00     -200.00
02831             -10.00     -200.00
02832               0.00        0.00
02833              14.00      400.00
02834              34.00      400.00
02835              10.00      600.00
02836             -26.00      600.00
02837             -18.00     1000.00
02838              14.00     1000.00
02839              18.00     1200.00
02840               4.00     1400.00
02841              42.00     1600.00
02842             250.00     1800.00
02843             242.00     2200.00
02844            -250.00     2200.00
02845            -250.00     2400.00
02846            -166.00     2200.00
02847             226.00     2400.00
02848             250.00     2800.00
02849             250.00     3200.00
02850            -250.00     2800.00
02851            -250.00     3200.00
02852             250.00     3200.00
02853             250.00     3400.00
02854            -250.00     3800.00
02855            -250.00     3600.00
02856             -10.00     4000.00
02857             250.00     4400.00
02858             208.00     4200.00
02859            -250.00     4400.00
02860            -162.00     4800.00
02861             250.00     4400.00
02862             162.00     4800.00
02863            -116.00     5200.00
02864            -238.00     5200.00
02865             -66.00     5400.00
02866             250.00     5400.00
02867             172.00     5600.00
02868            -250.00     5800.00
02869            -196.00     5800.00
02870             210.00     6000.00
02871             180.00     6000.00
02872            -122.00     6200.00
02873            -118.00     6400.00
02874              20.00     6400.00
02875             106.00     6600.00
02876              82.00     6800.00
02877             -76.00     6800.00
02878            -108.00     7000.00
02879              26.00     7000.00
02880             126.00     7200.00
02881              62.00     7200.00
02882            -106.00     7200.00
02883             -92.00     7600.00
02884              76.00     7600.00
02885              98.00     7800.00
02886             -20.00     7600.00
02887             -42.00     7800.00
02888               2.00     8200.00
02889               4.00     8000.00
02890              28.00     8200.00
02891              44.00     8200.00
02892             -22.00     8200.00
02893             -42.00     8200.00
02894              28.00     8400.00
02895              54.00     8600.00
02896              -2.00     8600.00
02897             -22.00     8400.00
02898              10.00     8600.00
02899              20.00     8600.00
02900              10.00     8600.00
02901              18.00     8800.00
02902              10.00     8800.00
02903              -6.00     8800.00
02904              14.00     8800.00
02905              28.00     9000.00
02906             -10.00     8800.00
02907             -12.00     8800.00
02908              36.00     8800.00
02909              38.00     9000.00
02910             -18.00     9000.00
02911             -20.00     9200.00
02912              26.00     9000.00
02913              34.00     9000.00
02914              10.00     9000.00
02915              -2.00     9200.00
02916              -2.00     9000.00
02917               6.00     9200.00
02918              30.00     9000.00
02919              26.00     9200.00
02920             -18.00     9000.00
02921             -12.00     9000.00
02922              36.00     9000.00
02923              36.00     9000.00
02924             -12.00     9000.00
02925             -12.00     8800.00
02926              22.00     8800.00
02927              26.00     8800.00
02928               6.00     8800.00
02929               0.00     8800.00
02930               4.00     8600.00
02931              10.00     8400.00
02932              20.00     8600.00
02933              10.00     8600.00
02934              -4.00     8400.00
02935               4.00     8400.00
02936              26.00     8400.00
02937              10.00     8400.00
02938             -14.00     8200.00
02939               2.00     8000.00
02940              30.00     8200.00
02941              22.00     8000.00
02942              -6.00     8000.00
02943             -10.00     7800.00
02944               4.00     7600.00
02945              20.00     7800.00
02946              20.00     7600.00
02947               2.00     7400.00
02948             -10.00     7400.00
02949               4.00     7200.00
02950              22.00     7200.00
02951               6.00     7000.00
02952              -8.00     6800.00
02953               4.00     6800.00
02954              24.00     6600.00
02955              10.00     6400.00
02956              -6.00     6400.00
02957              -6.00     6400.00
02958              10.00     6200.00
02959              18.00     6000.00
02960              10.00     6000.00
02961              -2.00     6000.00
02962              -6.00     5600.00
02963              10.00     5600.00
02964              20.00     5400.00
02965              -2.00     5200.00
02966             -10.00     5000.00
02967              10.00     5200.00
02968              20.00     4800.00
02969               4.00     4600.00
02970             -10.00     4600.00
02971              -4.00     4400.00
02972              12.00     4400.00
02973              16.00     4000.00
02974               4.00     4000.00
02975             -10.00     3800.00
02976              -6.00     3600.00
02977              14.00     3600.00
02978              14.00     3200.00
02979              -4.00     3200.00
02980             -10.00     3000.00
02981               4.00     3000.00
02982              12.00     2600.00
02983               2.00     2400.00
02984             -10.00     2400.00
02985               2.00     2200.00
02986              16.00     2000.00
02987               6.00     1800.00
02988             -14.00     1800.00
02989             -16.00     1600.00
02990               2.00     1400.00
02991              26.00     1200.00
02992              10.00     1000.00
02993             -20.00      800.00
02994             -22.00      600.00
02995              14.00      600.00
02996              22.00      400.00
02997             -12.00      200.00
02998             -30.00        0.00
02999             -12.00     -200.00
03000              44.00     -200.00
03001              58.00     -400.00
03002              -6.00     -600.00
03003             -46.00    -1000.00
03004             -24.00    -1000.00
03005              30.00    -1000.00
03006              40.00    -1200.00
03007              36.00    -1200.00
03008             250.00    -1600.00
03009             250.00    -2000.00
03010            -250.00    -2200.00
03011            -250.00    -2400.00
03012            -250.00    -2600.00
03013             250.00    -2000.00
03014             250.00    -2400.00
03015             204.00    -3200.00
03016            -250.00    -2800.00
03017             -96.00    -3200.00
03018             250.00    -3600.00
03019             -12.00    -2600.00
03020            -250.00    -3600.00
03021            -162.00    -4000.00
03022            -108.00    -3400.00
03023             250.00    -4200.00
03024              14.00    -4400.00
03025            -250.00    -4000.00
03026             230.00    -4400.00
03027             250.00    -4600.00
03028            -124.00    -4400.00
03029               6.00    -5200.00
03030            -242.00    -4600.00
03031               6.00    -5000.00
03032             250.00    -5600.00
03033             -72.00    -5200.00
03034            -178.00    -5800.00
03035             -70.00    -5800.00
03036             116.00    -5600.00
03037             114.00    -6200.00
03038            -142.00    -6000.00
03039             -54.00    -6400.00
03040               2.00    -6400.00
03041              52.00    -6400.00
03042              84.00    -6800.00
03043            -130.00    -6600.00
03044             -76.00    -6800.00
03045              34.00    -7000.00
03046              58.00    -6800.00
03047              66.00    -7200.00
03048            -134.00    -7200.00
03049             -92.00    -7200.00
03050              74.00    -7600.00
03051              42.00    -7400.00
03052             -14.00    -7800.00
03053             -52.00    -7600.00
03054             -34.00    -8000.00
03055             -12.00    -8000.00
03056              10.00    -8000.00
03057              30.00    -8200.00
03058             -46.00    -8000.00
03059             -58.00    -8200.00
03060              14.00    -8400.00
03061              22.00    -8200.00
03062             -18.00    -8400.00
03063             -50.00    -8600.00
03064             -12.00    -8400.00
03065              12.00    -8600.00
03066             -26.00    -8600.00
03067             -22.00    -8800.00
03068             -12.00    -8800.00
03069             -14.00    -8800.00
03070               2.00    -8800.00
03071             -18.00    -8800.00
03072             -42.00    -9000.00
03073             -24.00    -9000.00
03074              20.00    -9000.00
03075              10.00    -9000.00
03076             -50.00    -9000.00
03077             -44.00    -9000.00
03078              10.00    -9000.00
03079              10.00    -9000.00
03080             -18.00    -9000.00
03081             -40.00    -9200.00
03082             -22.00    -9000.00
03083               2.00    -9000.00
03084               6.00    -9000.00
03085             -10.00    -9000.00
03086             -48.00    -9000.00
03087             -22.00    -9000.00
03088              18.00    -9000.00
03089               2.00    -8800.00
03090             -40.00    -9000.00
03091             -36.00    -8800.00
03092               4.00    -8800.00
03093               4.00    -8800.00
03094             -22.00    -8800.00
03095             -28.00    -8800.00
03096             -18.00    -8600.00
03097              -4.00    -8800.00
03098              -2.00    -8800.00
03099             -20.00    -8400.00
03100             -28.00    -8400.00
03101             -10.00    -8400.00
03102               8.00    -8400.00
03103             -14.00    -8400.00
03104             -40.00    -8200.00
03105             -18.00    -8200.00
03106               6.00    -8200.00
03107              -4.00    -8000.00
03108             -26.00    -8000.00
03109             -26.00    -7600.00
03110             -10.00    -8000.00
03111              -8.00    -7600.00
03112             -10.00    -7400.00
03113             -18.00    -7400.00
03114             -18.00    -7400.00
03115              -4.00    -7200.00
03116              -4.00    -7200.00
03117             -20.00    -7000.00
03118             -26.00    -6800.00
03119             -10.00    -6800.00
03120               6.00    -6800.00
03121             -10.00    -6600.00
03122             -30.00    -6600.00
03123             -20.00    -6400.00
03124              -2.00    -6200.00
03125               4.00    -6000.00
03126             -18.00    -6000.00
03127             -28.00    -5800.00
03128             -18.00    -5800.00
03129               2.00    -5600.00
03130              -2.00    -5600.00
03131             -28.00    -5400.00
03132             -26.00    -5200.00
03133               2.00    -5000.00
03134               6.00    -5000.00
03135             -14.00    -4600.00
03136             -28.00    -4600.00
03137             -14.00    -4400.00
03138               6.00    -4200.00
03139               4.00    -4200.00
03140             -22.00    -4000.00
03141             -34.00    -4000.00
03142             -10.00    -3800.00
03143              12.00    -3400.00
03144               4.00    -3400.00
03145             -22.00    -3200.00
03146             -28.00    -3000.00
03147              -2.00    -2800.00
03148              10.00    -2800.00
03149              -6.00    -2600.00
03150             -28.00    -2600.00
03151             -18.00    -2200.00
03152               6.00    -2000.00
03153              10.00    -2000.00
03154             -10.00    -1800.00
03155             -22.00    -1800.00
03156             -10.00    -1600.00
03157               6.00    -1200.00
03158               2.00    -1000.00
03159             -18.00     -800.00
03160             -14.00     -800.00
03161              -2.00     -800.00
03162               2.00     -400.00
03163             -10.00     -200.00
03164              -6.00        0.00
03165               4.00        0.00
03166              14.00      200.00
03167              28.00      400.00
03168               4.00      400.00
03169             -28.00      600.00
03170             -18.00      800.00
03171              16.00     1000.00
03172              22.00     1000.00
03173               4.00     1200.00
03174              34.00     1400.00
03175             236.00     1800.00
03176             250.00     2200.00
03177            -250.00     2400.00
03178            -250.00     2200.00
03179            -226.00     2400.00
03180             192.00     2400.00
03181             250.00     2800.00
03182             250.00     3000.00
03183            -250.00     2800.00
03184            -250.00     3000.00
03185             250.00     3200.00
03186             250.00     3400.00
03187            -250.00     4000.00
03188            -250.00     3600.00
03189             -36.00     3800.00
03190             250.00     4400.00
03191             250.00     4200.00
03192            -250.00     4200.00
03193            -230.00     4800.00
03194             250.00     4600.00
03195             196.00     4600.00
03196            -102.00     5000.00
03197            -234.00     5200.00
03198             -94.00     5400.00
03199             250.00     5400.00
03200             208.00     5600.00
03201            -250.00     5600.00
03202            -220.00     5600.00
03203             182.00     6000.00
03204             202.00     6200.00
03205            -102.00     6200.00
03206            -128.00     6400.00
03207               6.00     6400.00
03208             102.00     6400.00
03209             100.00     6800.00
03210             -60.00     6800.00
03211            -122.00     6800.00
03212              10.00     7000.00
03213             116.00     7200.00
03214              74.00     7200.00
03215             -86.00     7400.00
03216             -96.00     7400.00
03217              62.00     7600.00
03218              90.00     7800.00
03219             -12.00     7800.00
03220             -38.00     7800.00
03221               4.00     8200.00
03222               4.00     8000.00
03223              18.00     8200.00
03224              42.00     8400.00
03225             -12.00     8400.00
03226             -36.00     8200.00
03227              26.00     8400.00
03228              50.00     8400.00
03229               2.00     8600.00
03230             -20.00     8600.00
03231              14.00     8600.00
03232              20.00     8800.00
03233               4.00     8600.00
03234               8.00     8600.00
03235              12.00     8800.00
03236               0.00     8800.00
03237              12.00     8800.00
03238              26.00     8800.00
03239              -6.00     8800.00
03240             -14.00     8800.00
03241              34.00     9000.00
03242              38.00     9000.00
03243             -12.00     9200.00
03244             -26.00     9000.00
03245              22.00     9000.00
03246              34.00     9200.00
03247              12.00     9000.00
03248              -4.00     9000.00
03249               2.00     9200.00
03250              10.00     9000.00
03251              26.00     9200.00
03252              22.00     9200.00
03253             -12.00     8800.00
03254             -12.00     8800.00
03255              30.00     8800.00
03256              30.00     8800.00
03257             -12.00     8800.00
03258             -14.00     8800.00
03259              20.00     8800.00
03260              28.00     8800.00
03261               6.00     8600.00
03262               0.00     8600.00
03263               2.00     8600.00
03264              10.00     8600.00
03265              20.00     8600.00
03266              10.00     8600.00
03267              -6.00     8400.00
03268               4.00     8400.00
03269              28.00     8400.00
03270              14.00     8200.00
03271             -14.00     8000.00
03272              -4.00     8200.00
03273              28.00     8000.00
03274              20.00     8000.00
03275              -2.00     7800.00
03276              -6.00     7800.00
03277               4.00     7800.00
03278              18.00     7800.00
03279              20.00     7600.00
03280               4.00     7400.00
03281              -8.00     7200.00
03282              10.00     7200.00
03283              22.00     7200.00
03284               6.00     7000.00
03285             -12.00     7000.00
03286               2.00     6800.00
03287              22.00     6600.00
03288              14.00     6400.00
03289              -8.00     6400.00
03290              -6.00     6400.00
03291              10.00     6200.00
03292              18.00     6200.00
03293              12.00     6000.00
03294              -4.00     6000.00
03295              -6.00     5600.00
03296               6.00     5600.00
03297              18.00     5400.00
03298               4.00     5200.00
03299              -6.00     5200.00
03300               6.00     5000.00
03301              20.00     4800.00
03302               4.00     4600.00
03303             -10.00     4600.00
03304              -2.00     4400.00
03305              12.00     4400.00
03306              18.00     4000.00
03307               6.00     4000.00
03308             -10.00     3800.00
03309              -8.00     3800.00
03310              10.00     3400.00
03311              18.00     3200.00
03312              -2.00     3200.00
03313             -10.00     3000.00
03314               6.00     2800.00
03315              14.00     2800.00
03316               2.00     2600.00
03317             -10.00     2400.00
03318              -4.00     2200.00
03319              10.00     2000.00
03320              10.00     2000.00
03321              -2.00     1600.00
03322             -12.00     1600.00
03323              -6.00     1400.00
03324              12.00     1200.00
03325              12.00     1200.00
03326              -6.00      800.00
03327             -14.00      600.00
03328               2.00      600.00
03329              10.00      400.00
03330               2.00      200.00
03331             -10.00        0.00
03332              -2.00     -200.00
03333              22.00     -400.00
03334              40.00     -400.00
03335               4.00     -600.00
03336             -30.00     -800.00
03337             -18.00    -1000.00
03338              20.00    -1000.00
03339              26.00    -1200.00
03340              22.00    -1200.00
03341             244.00    -1600.00
03342             250.00    -2000.00
03343            -250.00    -2200.00
03344            -250.00    -2400.00
03345            -250.00    -2600.00
03346             250.00    -2000.00
03347             250.00    -2200.00
03348             250.00    -3200.00
03349            -250.00    -2600.00
03350            -250.00    -3000.00
03351             250.00    -3800.00
03352             134.00    -2800.00
03353            -250.00    -3400.00
03354            -156.00    -4200.00
03355            -146.00    -3400.00
03356             250.00    -4000.00
03357             116.00    -4400.00
03358            -250.00    -4000.00
03359             160.00    -4400.00
03360             250.00    -4800.00
03361            -126.00    -4400.00
03362               4.00    -5200.00
03363            -220.00    -4800.00
03364             -38.00    -5000.00
03365             250.00    -5600.00
03366             -34.00    -5200.00
03367            -194.00    -5800.00
03368             -88.00    -5800.00
03369              98.00    -5600.00
03370             138.00    -6200.00
03371            -124.00    -6000.00
03372             -70.00    -6400.00
03373               2.00    -6400.00
03374              36.00    -6200.00
03375             100.00    -6800.00
03376            -114.00    -6600.00
03377             -90.00    -6600.00
03378              30.00    -7200.00
03379              52.00    -6800.00
03380              74.00    -7200.00
03381            -118.00    -7200.00
03382            -108.00    -7400.00
03383              70.00    -7600.00
03384              52.00    -7400.00
03385             -12.00    -7800.00
03386             -60.00    -8000.00
03387             -42.00    -7800.00
03388             -12.00    -8000.00
03389              10.00    -8000.00
03390              36.00    -8200.00
03391             -42.00    -8200.00
03392             -68.00    -8200.00
03393               6.00    -8400.00
03394              26.00    -8400.00
03395             -10.00    -8400.00
03396             -46.00    -8600.00
03397             -18.00    -8400.00
03398              10.00    -8600.00
03399             -26.00    -8600.00
03400             -26.00    -8800.00
03401             -16.00    -8800.00
03402             -18.00    -8800.00
03403               4.00    -9000.00
03404             -10.00    -8800.00
03405             -38.00    -9000.00
03406             -30.00    -9000.00
03407              14.00    -9000.00
03408              14.00    -8800.00
03409             -46.00    -9000.00
03410             -50.00    -9000.00
03411               6.00    -9000.00
03412              18.00    -9000.00
03413             -14.00    -8800.00
03414             -38.00    -9000.00
03415             -24.00    -9000.00
03416              -4.00    -9000.00
03417               6.00    -9000.00
03418             -12.00    -9000.00
03419             -50.00    -9200.00
03420             -28.00    -9000.00
03421              18.00    -9000.00
03422               6.00    -9000.00
03423             -36.00    -8800.00
03424             -44.00    -8800.00
03425               0.00    -8800.00
03426               8.00    -8800.00
03427             -20.00    -8800.00
03428             -28.00    -8800.00
03429             -18.00    -8800.00
03430              -4.00    -8600.00
03431              -4.00    -8600.00
03432             -20.00    -8400.00
03433             -28.00    -8400.00
03434             -14.00    -8400.00
03435              10.00    -8400.00
03436             -10.00    -8400.00
03437             -38.00    -8200.00
03438             -22.00    -8000.00
03439               4.00    -8000.00
03440               0.00    -8200.00
03441             -22.00    -8000.00
03442             -28.00    -8000.00
03443             -10.00    -8000.00
03444              -2.00    -7600.00
03445              -6.00    -7400.00
03446             -20.00    -7400.00
03447             -28.00    -7200.00
03448              -6.00    -7400.00
03449               4.00    -7200.00
03450             -14.00    -7000.00
03451             -30.00    -6800.00
03452             -18.00    -6800.00
03453              10.00    -6600.00
03454              -6.00    -6600.00
03455             -28.00    -6400.00
03456             -26.00    -6400.00
03457              -6.00    -6200.00
03458               2.00    -6000.00
03459             -12.00    -6000.00
03460             -26.00    -5800.00
03461             -20.00    -5600.00
03462              -4.00    -5800.00
03463              -2.00    -5600.00
03464             -18.00    -5400.00
03465             -26.00    -5200.00
03466              -6.00    -5200.00
03467               4.00    -4800.00
03468             -10.00    -4600.00
03469             -24.00    -4800.00
03470             -20.00    -4400.00
03471               2.00    -4400.00
03472               2.00    -4200.00
03473             -14.00    -4000.00
03474             -22.00    -3800.00
03475             -14.00    -3600.00
03476               2.00    -3600.00
03477              -2.00    -3400.00
03478             -18.00    -3200.00
03479             -22.00    -3200.00
03480              -2.00    -2800.00
03481               8.00    -2800.00
03482             -10.00    -2600.00
03483             -22.00    -2600.00
03484             -12.00    -2400.00
03485              10.00    -2200.00
03486               4.00    -2000.00
03487             -14.00    -1800.00
03488             -22.00    -1600.00
03489              -6.00    -1600.00
03490              12.00    -1200.00
03491               4.00    -1200.00
03492             -16.00     -800.00
03493             -20.00     -800.00
03494               2.00     -400.00
03495               8.00     -400.00
03496              -6.00     -200.00
03497             -12.00        0.00
03498              -4.00        0.00
03499              14.00      200.00
03500              34.00      400.00
03501              14.00      600.00
03502             -22.00      600.00
03503             -22.00      800.00
03504               8.00     1200.00
03505              20.00     1200.00
03506               6.00     1200.00
03507              26.00     1400.00
03508             212.00     1800.00
03509             250.00     2000.00
03510            -214.00     2200.00
03511            -250.00     2200.00
03512            -250.00     2400.00
03513             164.00     2400.00
03514             250.00     2800.00
03515             250.00     3000.00
03516            -250.00     2800.00
03517            -250.00     3000.00
03518             250.00     3200.00
03519             250.00     3400.00
03520            -250.00     3800.00
03521            -250.00     3600.00
03522             -60.00     3800.00
03523             250.00     4200.00
03524             250.00     4000.00
03525            -250.00     4200.00
03526            -250.00     4800.00
03527             250.00     4400.00
03528             236.00     4800.00
03529             -84.00     5200.00
03530            -228.00     5200.00
03531            -126.00     5200.00
03532             250.00     5400.00
03533             242.00     5600.00
03534            -220.00     5600.00
03535            -250.00     5800.00
03536             148.00     6000.00
03537             226.00     6200.00
03538             -78.00     6200.00
03539            -140.00     6200.00
03540              -6.00     6400.00
03541              98.00     6400.00
03542             108.00     6600.00
03543             -44.00     6800.00
03544            -126.00     7000.00
03545              -2.00     7000.00
03546             114.00     7000.00
03547              84.00     7200.00
03548             -74.00     7200.00
03549            -108.00     7400.00
03550              50.00     7600.00
03551             100.00     7600.00
03552              -2.00     7800.00
03553             -44.00     7800.00
03554               4.00     7800.00
03555               4.00     8200.00
03556              14.00     8200.00
03557              42.00     8200.00
03558              -4.00     8400.00
03559             -38.00     8400.00
03560              18.00     8400.00
03561              52.00     8400.00
03562               4.00     8400.00
03563             -20.00     8600.00
03564              10.00     8600.00
03565              22.00     8600.00
03566               4.00     8800.00
03567              10.00     8800.00
03568              14.00     8800.00
03569              -2.00     8800.00
03570              10.00     8800.00
03571              26.00     8800.00
03572              -2.00     9000.00
03573             -16.00     9000.00
03574              26.00     9000.00
03575              44.00     9000.00
03576             -10.00     9000.00
03577             -26.00     8800.00
03578              18.00     9000.00
03579              36.00     9200.00
03580              12.00     9000.00
03581              -4.00     9200.00
03582              -4.00     9000.00
03583               4.00     9000.00
03584              26.00     9200.00
03585              22.00     8800.00
03586             -10.00     9000.00
03587             -14.00     8800.00
03588              28.00     9000.00
03589              34.00     8800.00
03590             -10.00     8800.00
03591             -20.00     8800.00
03592              18.00     8800.00
03593              30.00     8800.00
03594              10.00     8600.00
03595              -4.00     8800.00
03596               2.00     8600.00
03597              10.00     8600.00
03598              20.00     8600.00
03599              12.00     8600.00
03600              -6.00     8400.00
03601               2.00     8400.00
03602              26.00     8400.00
03603              18.00     8200.00
03604             -16.00     8000.00
03605              -6.00     8200.00
03606              26.00     8000.00
03607              22.00     7800.00
03608              -4.00     7800.00
03609              -8.00     7800.00
03610               2.00     7800.00
03611              16.00     7600.00
03612              20.00     7600.00
03613               8.00     7600.00
03614              -8.00     7400.00
03615               4.00     7200.00
03616              22.00     7000.00
03617              14.00     7200.00
03618             -10.00     7000.00
03619               2.00     6800.00
03620              22.00     6800.00
03621              18.00     6600.00
03622              -6.00     6400.00
03623              -6.00     6400.00
03624              12.00     6200.00
03625              20.00     6000.00
03626              14.00     6000.00
03627              -2.00     6000.00
03628             -10.00     5800.00
03629               4.00     5600.00
03630              20.00     5400.00
03631              10.00     5400.00
03632              -8.00     5200.00
03633               4.00     5000.00
03634              20.00     4800.00
03635               6.00     4600.00
03636             -10.00     4400.00
03637              -4.00     4400.00
03638              14.00     4400.00
03639              18.00     4000.00
03640               4.00     4000.00
03641              -6.00     4000.00
03642              -6.00     3600.00
03643              10.00     3600.00
03644              16.00     3200.00
03645              -2.00     3200.00
03646             -12.00     3000.00
03647               2.00     2800.00
03648              14.00     2800.00
03649               2.00     2600.00
03650             -12.00     2400.00
03651              -2.00     2200.00
03652              12.00     2000.00
03653              12.00     2000.00
03654              -6.00     1600.00
03655             -14.00     1800.00
03656              -6.00     1400.00
03657              10.00     1200.00
03658              14.00     1200.00
03659              -6.00      800.00
03660             -20.00      600.00
03661              -2.00      600.00
03662              10.00      400.00
03663               2.00      200.00
03664              -6.00        0.00
03665              -4.00        0.00
03666              18.00     -200.00
03667              38.00     -400.00
03668              10.00     -400.00
03669             -28.00     -800.00
03670             -20.00     -800.00
03671              20.00    -1000.00
03672              28.00    -1200.00
03673              20.00    -1200.00
03674             212.00    -1200.00
03675             250.00    -1800.00
03676            -250.00    -2000.00
03677            -250.00    -2400.00
03678            -250.00    -2400.00
03679             194.00    -2000.00
03680             250.00    -2200.00
03681             250.00    -3200.00
03682            -250.00    -2800.00
03683            -250.00    -2800.00
03684             250.00    -3800.00
03685             250.00    -2800.00
03686            -250.00    -3400.00
03687            -158.00    -4000.00
03688            -170.00    -3600.00
03689             250.00    -4000.00
03690             214.00    -4400.00
03691            -250.00    -4000.00
03692              70.00    -4400.00
03693             250.00    -4800.00
03694            -110.00    -4400.00
03695               2.00    -5000.00
03696            -194.00    -4800.00
03697             -94.00    -5000.00
03698             250.00    -5600.00
03699              10.00    -5200.00
03700            -198.00    -5600.00
03701            -100.00    -5800.00
03702              74.00    -5600.00
03703             154.00    -6200.00
03704            -104.00    -6000.00
03705             -86.00    -6400.00
03706               2.00    -6400.00
03707              24.00    -6000.00
03708             102.00    -6800.00
03709             -96.00    -6600.00
03710            -102.00    -6800.00
03711              28.00    -7200.00
03712              46.00    -6800.00
03713              78.00    -7200.00
03714            -102.00    -7400.00
03715            -130.00    -7200.00
03716              60.00    -7400.00
03717              60.00    -7600.00
03718              -6.00    -7800.00
03719             -54.00    -7800.00
03720             -44.00    -7800.00
03721             -12.00    -8000.00
03722               4.00    -8000.00
03723              36.00    -8200.00
03724             -34.00    -8200.00
03725             -68.00    -8200.00
03726               4.00    -8400.00
03727              28.00    -8200.00
03728              -6.00    -8400.00
03729             -46.00    -8600.00
03730             -30.00    -8400.00
03731               6.00    -8800.00
03732             -18.00    -8400.00
03733             -22.00    -8800.00
03734             -12.00    -8800.00
03735             -14.00    -8800.00
03736               2.00    -8800.00
03737             -10.00    -9000.00
03738             -46.00    -8800.00
03739             -34.00    -9000.00
03740              12.00    -9000.00
03741              20.00    -9000.00
03742             -40.00    -9000.00
03743             -50.00    -9000.00
03744               2.00    -9000.00
03745              18.00    -9000.00
03746             -12.00    -9000.00
03747             -42.00    -9000.00
03748             -28.00    -9000.00
03749              -2.00    -9000.00
03750              10.00    -9000.00
03751              -2.00    -9000.00
03752             -46.00    -9000.00
03753             -36.00    -9000.00
03754              18.00    -9000.00
03755              10.00    -9000.00
03756             -30.00    -8800.00
03757             -44.00    -9000.00
03758              -6.00    -8800.00
03759               8.00    -8800.00
03760             -18.00    -9000.00
03761             -22.00    -8800.00
03762             -20.00    -8800.00
03763              -4.00    -8600.00
03764              -4.00    -8600.00
03765             -20.00    -8400.00
03766             -26.00    -8400.00
03767             -16.00    -8400.00
03768               6.00    -8400.00
03769              -6.00    -8400.00
03770             -38.00    -8200.00
03771             -22.00    -8200.00
03772               4.00    -8200.00
03773               0.00    -8000.00
03774             -22.00    -8000.00
03775             -30.00    -8000.00
03776             -14.00    -7800.00
03777              -2.00    -7800.00
03778              -6.00    -7600.00
03779             -22.00    -7400.00
03780             -28.00    -7400.00
03781              -6.00    -7200.00
03782               6.00    -7200.00
03783             -14.00    -7000.00
03784             -34.00    -6800.00
03785             -20.00    -6800.00
03786               6.00    -6800.00
03787              -2.00    -6600.00
03788             -26.00    -6600.00
03789             -26.00    -6400.00
03790             -12.00    -6200.00
03791               2.00    -6000.00
03792              -6.00    -6000.00
03793             -22.00    -6000.00
03794             -22.00    -5800.00
03795              -6.00    -5600.00
03796               2.00    -5600.00
03797             -12.00    -5400.00
03798             -26.00    -5200.00
03799             -10.00    -5000.00
03800               4.00    -5000.00
03801              -6.00    -4600.00
03802             -24.00    -4600.00
03803             -20.00    -4400.00
03804               2.00    -4400.00
03805               4.00    -4200.00
03806             -10.00    -4000.00
03807             -22.00    -4000.00
03808             -14.00    -3800.00
03809              -2.00    -3600.00
03810               2.00    -3600.00
03811             -20.00    -3200.00
03812             -20.00    -3200.00
03813              -4.00    -2800.00
03814              10.00    -2600.00
03815              -8.00    -2800.00
03816             -22.00    -2600.00
03817             -12.00    -2400.00
03818               2.00    -2000.00
03819               4.00    -2000.00
03820              -8.00    -1800.00
03821             -20.00    -1800.00
03822             -10.00    -1600.00
03823              10.00    -1400.00
03824               6.00    -1200.00
03825             -14.00    -1000.00
03826             -16.00     -800.00
03827              -2.00     -600.00
03828               6.00     -400.00
03829              -4.00     -200.00
03830             -12.00     -200.00
03831              -4.00        0.00
03832              10.00      400.00
03833              34.00      400.00
03834              20.00      400.00
03835             -20.00      800.00
03836             -26.00      800.00
03837               6.00     1000.00
03838              20.00     1200.00
03839               6.00     1200.00
03840              20.00     1400.00
03841             186.00     1800.00
03842             250.00     2000.00
03843            -154.00     2200.00
03844            -250.00     2200.00
03845            -250.00     2200.00
03846             130.00     2400.00
03847             250.00     2800.00
03848             250.00     3200.00
03849            -250.00     2800.00
03850            -250.00     2800.00
03851             250.00     3200.00
03852             250.00     3200.00
03853            -250.00     3800.00
03854            -250.00     3600.00
03855             -82.00     3800.00
03856             236.00     4400.00
03857             250.00     4000.00
03858            -250.00     4400.00
03859            -250.00     4600.00
03860             250.00     4600.00
03861             250.00     4600.00
03862             -60.00     5000.00
03863            -220.00     5200.00
03864            -154.00     5200.00
03865             228.00     5400.00
03866             250.00     5600.00
03867            -180.00     5800.00
03868            -250.00     5800.00
03869             114.00     6000.00
03870             244.00     6200.00
03871             -52.00     6200.00
03872            -146.00     6400.00
03873             -20.00     6400.00
03874              86.00     6600.00
03875             116.00     6600.00
03876             -26.00     6800.00
03877            -126.00     7000.00
03878             -22.00     7000.00
03879             106.00     7000.00
03880              96.00     7200.00
03881             -58.00     7200.00
03882            -112.00     7200.00
03883              34.00     7600.00
03884             102.00     7600.00
03885              10.00     7800.00
03886             -42.00     7600.00
03887              -4.00     8000.00
03888               4.00     8000.00
03889              10.00     8200.00
03890              44.00     8400.00
03891               4.00     8200.00
03892             -42.00     8400.00
03893              12.00     8400.00
03894              52.00     8400.00
03895              10.00     8400.00
03896             -22.00     8400.00
03897               6.00     8600.00
03898              22.00     8600.00
03899               4.00     8600.00
03900               6.00     8800.00
03901              14.00     8800.00
03902              -2.00     8800.00
03903               6.00     8800.00
03904              26.00     8800.00
03905               2.00     8800.00
03906             -20.00     8800.00
03907              22.00     9000.00
03908              44.00     9000.00
03909              -4.00     8800.00
03910             -30.00     9200.00
03911              10.00     9000.00
03912              36.00     9200.00
03913              18.00     9200.00
03914               0.00     9200.00
03915              -2.00     9200.00
03916               2.00     9200.00
03917              20.00     9000.00
03918              26.00     9000.00
03919              -6.00     9000.00
03920             -16.00     9200.00
03921              22.00     9000.00
03922              36.00     9000.00
03923              -6.00     8800.00
03924             -20.00     8800.00
03925              14.00     8800.00
03926              30.00     8800.00
03927              10.00     8800.00
03928              -4.00     8800.00
03929               4.00     8600.00
03930              10.00     8600.00
03931              18.00     8600.00
03932              14.00     8400.00
03933              -4.00     8600.00
03934              -2.00     8400.00
03935              26.00     8400.00
03936              22.00     8400.00
03937             -12.00     8200.00
03938              -6.00     8200.00
03939              26.00     8000.00
03940              26.00     8200.00
03941               2.00     8000.00
03942              -6.00     7800.00
03943               2.00     7800.00
03944              18.00     7600.00
03945              20.00     7600.00
03946               6.00     7400.00
03947              -6.00     7200.00
03948               2.00     7200.00
03949              26.00     7200.00
03950              14.00     7000.00
03951              -6.00     6800.00
03952               0.00     6800.00
03953              20.00     6800.00
03954              20.00     6600.00
03955              -4.00     6400.00
03956              -6.00     6200.00
03957               4.00     6200.00
03958              20.00     6200.00
03959              18.00     6000.00
03960               0.00     6000.00
03961              -6.00     5600.00
03962               6.00     5600.00
03963              22.00     5600.00
03964               4.00     5400.00
03965             -10.00     5200.00
03966               2.00     5200.00
03967              20.00     4800.00
03968              10.00     4600.00
03969             -10.00     4600.00
03970              -6.00     4400.00
03971              10.00     4200.00
03972              16.00     4200.00
03973               6.00     4000.00
03974              -6.00     3800.00
03975             -10.00     3600.00
03976               2.00     3600.00
03977              16.00     3200.00
03978               2.00     3200.00
03979             -10.00     3000.00
03980              -2.00     2800.00
03981              12.00     2800.00
03982               4.00     2600.00
03983             -10.00     2400.00
03984              -6.00     2200.00
03985               6.00     2000.00
03986              10.00     2000.00
03987              -2.00     1600.00
03988             -12.00     1600.00
03989              -8.00     1400.00
03990               6.00     1200.00
03991              12.00     1000.00
03992              -6.00      800.00
03993             -14.00      800.00
03994              -2.00      400.00
03995              10.00      400.00
03996               0.00      400.00
03997              -6.00        0.00
03998              -4.00     -200.00
03999              16.00     -400.00
04000              42.00     -400.00
04001              14.00     -600.00
04002             -22.00     -800.00
04003             -24.00     -800.00
04004              18.00    -1000.00
04005              28.00    -1200.00
04006              18.00    -1400.00
04007             180.00    -1400.00
04008             250.00    -1800.00
04009            -182.00    -2200.00
04010            -250.00    -2400.00
04011            -250.00    -2400.00
04012             114.00    -2000.00
04013             250.00    -2000.00
04014             250.00    -3200.00
04015            -250.00    -2800.00
04016            -250.00    -2800.00
04017             250.00    -3600.00
04018             250.00    -2800.00
04019            -250.00    -3200.00
04020            -166.00    -4200.00
04021            -188.00    -3600.00
04022             250.00    -3800.00
04023             250.00    -4400.00
04024            -250.00    -4000.00
04025             -20.00    -4200.00
04026             250.00    -4800.00
04027             -92.00    -4400.00
04028             -10.00    -5000.00
04029            -166.00    -5000.00
04030            -140.00    -4800.00
04031             250.00    -5800.00
04032              52.00    -5200.00
04033            -200.00    -5600.00
04034            -110.00    -5800.00
04035              52.00    -5600.00
04036             164.00    -6000.00
04037             -86.00    -6000.00
04038            -102.00    -6200.00
04039               2.00    -6400.00
04040              14.00    -6200.00
04041             108.00    -6800.00
04042             -72.00    -6800.00
04043            -118.00    -6600.00
04044              22.00    -7200.00
04045              38.00    -6800.00
04046              82.00    -7200.00
04047             -82.00    -7400.00
04048            -142.00    -7200.00
04049              50.00    -7600.00
04050              66.00    -7400.00
04051              -2.00    -7600.00
04052             -52.00    -8000.00
04053             -52.00    -7800.00
04054             -14.00    -8000.00
04055              -2.00    -8000.00
04056              42.00    -8200.00
04057             -22.00    -8200.00
04058             -76.00    -8200.00
04059             -10.00    -8400.00
04060              26.00    -8400.00
04061               2.00    -8400.00
04062             -42.00    -8600.00
04063             -30.00    -8400.00
04064              12.00    -8800.00
04065             -14.00    -8800.00
04066             -26.00    -8800.00
04067             -14.00    -8800.00
04068             -18.00    -8800.00
04069               2.00    -8800.00
04070              -6.00    -8800.00
04071             -38.00    -8800.00
04072             -36.00    -9000.00
04073               6.00    -9000.00
04074              22.00    -9000.00
04075             -36.00    -9000.00
04076             -54.00    -9000.00
04077              -4.00    -9000.00
04078              18.00    -9000.00
04079             -12.00    -8800.00
04080             -34.00    -9000.00
04081             -28.00    -9000.00
04082              -6.00    -9200.00
04083               6.00    -9000.00
04084              -2.00    -9000.00
04085             -38.00    -9000.00
04086             -38.00    -9200.00
04087              14.00    -9000.00
04088              10.00    -9000.00
04089             -30.00    -9000.00
04090             -46.00    -9000.00
04091             -10.00    -8800.00
04092              12.00    -8800.00
04093             -12.00    -8800.00
04094             -26.00    -8800.00
04095             -20.00    -8600.00
04096              -6.00    -8800.00
04097              -2.00    -8600.00
04098             -18.00    -8400.00
04099             -30.00    -8400.00
04100             -20.00    -8400.00
04101               6.00    -8400.00
04102              -2.00    -8400.00
04103             -36.00    -8200.00
04104             -28.00    -8200.00
04105               2.00    -8000.00
04106               2.00    -8200.00
04107             -22.00    -8000.00
04108             -32.00    -8000.00
04109             -14.00    -8000.00
04110              -4.00    -7600.00
04111              -8.00    -7600.00
04112             -20.00    -7400.00
04113             -28.00    -7400.00
04114              -6.00    -7200.00
04115               4.00    -7200.00
04116             -14.00    -7200.00
04117             -30.00    -7000.00
04118             -26.00    -6800.00
04119               6.00    -6600.00
04120              -2.00    -6600.00
04121             -26.00    -6600.00
04122             -28.00    -6400.00
04123             -12.00    -6200.00
04124               4.00    -6000.00
04125              -4.00    -6000.00
04126             -24.00    -6000.00
04127             -26.00    -5800.00
04128             -10.00    -5600.00
04129               4.00    -5600.00
04130             -10.00    -5400.00
04131             -28.00    -5000.00
04132             -14.00    -5000.00
04133               4.00    -5000.00
04134              -4.00    -4800.00
04135             -20.00    -4600.00
04136             -18.00    -4400.00
04137              -4.00    -4400.00
04138               4.00    -4200.00
04139             -10.00    -4000.00
04140             -20.00    -4000.00
04141             -16.00    -3600.00
04142              -2.00    -3600.00
04143               2.00    -3400.00
04144             -14.00    -3400.00
04145             -22.00    -3200.00
04146              -6.00    -3000.00
04147              10.00    -2800.00
04148              -6.00    -2600.00
04149             -20.00    -2400.00
04150             -16.00    -2400.00
04151               4.00    -2000.00
04152               4.00    -2000.00
04153             -12.00    -1800.00
04154             -22.00    -1600.00
04155              -6.00    -1400.00
04156              14.00    -1200.00
04157              10.00    -1000.00
04158             -14.00    -1000.00
04159             -22.00     -800.00
04160              -2.00     -600.00
04161               8.00     -400.00
04162              -2.00     -400.00
04163             -12.00     -200.00
04164             -10.00        0.00
04165              12.00      200.00
04166              36.00      400.00
04167              26.00      400.00
04168             -20.00      600.00
04169             -28.00      800.00
04170               2.00      800.00
04171              20.00     1000.00
04172              10.00     1200.00
04173              14.00     1400.00
04174             160.00     1800.00
04175             250.00     2000.00
04176             -90.00     2000.00
04177            -250.00     2200.00
04178            -250.00     2400.00
04179             100.00     2400.00
04180             250.00     2800.00
04181             250.00     3000.00
04182            -250.00     3000.00
04183            -250.00     2800.00
04184             250.00     3200.00
04185             250.00     3200.00
04186            -230.00     4000.00
04187            -250.00     3600.00
04188            -102.00     3600.00
04189             196.00     4000.00
04190             250.00     4200.00
04191            -250.00     4000.00
04192            -250.00     4600.00
04193             244.00     4600.00
04194             250.00     4600.00
04195             -36.00     5200.00
04196            -210.00     5000.00
04197            -174.00     5400.00
04198             194.00     5400.00
04199             250.00     5600.00
04200            -138.00     5600.00
04201            -250.00     5600.00
04202              76.00     6000.00
04203             250.00     6200.00
04204             -22.00     6200.00
04205            -152.00     6400.00
04206             -34.00     6400.00
04207              78.00     6400.00
04208             122.00     6600.00
04209              -4.00     6600.00
04210            -124.00     7000.00
04211             -38.00     7000.00
04212              92.00     7000.00
04213             106.00     7200.00
04214             -36.00     7200.00
04215            -110.00     7200.00
04216              20.00     7600.00
04217             100.00     7600.00
04218              14.00     7800.00
04219             -44.00     7800.00
04220               2.00     8000.00
04221              14.00     8200.00
04222               6.00     8000.00
04223              34.00     8200.00
04224              10.00     8400.00
04225             -36.00     8400.00
04226               4.00     8200.00
04227              52.00     8400.00
04228              14.00     8600.00
04229             -22.00     8600.00
04230               4.00     8600.00
04231              28.00     8600.00
04232               6.00     8600.00
04233               4.00     8800.00
04234              10.00     8600.00
04235              -2.00     8800.00
04236               4.00     8800.00
04237              26.00     9000.00
04238               2.00     8800.00
04239             -22.00     9000.00
04240              14.00     9000.00
04241              44.00     8800.00
04242               4.00     9000.00
04243             -28.00     9200.00
04244               2.00     9000.00
04245              34.00     9000.00
04246              18.00     9200.00
04247              -2.00     9200.00
04248              -4.00     9000.00
04249               2.00     9000.00
04250              18.00     9200.00
04251              26.00     9200.00
04252              -2.00     9200.00
04253             -20.00     9200.00
04254              22.00     8800.00
04255              36.00     9000.00
04256              -4.00     8800.00
04257             -22.00     8800.00
04258              12.00     8800.00
04259              30.00     8800.00
04260              12.00     8800.00
04261              -4.00     8600.00
04262              -2.00     8600.00
04263              10.00     8600.00
04264              20.00     8600.00
04265              18.00     8600.00
04266              -2.00     8400.00
04267              -4.00     8400.00
04268              22.00     8400.00
04269              22.00     8400.00
04270              -6.00     8400.00
04271              -8.00     8200.00
04272              20.00     8000.00
04273              28.00     8000.00
04274               6.00     8000.00
04275              -6.00     7800.00
04276               0.00     7800.00
04277              14.00     7600.00
04278              20.00     7600.00
04279              10.00     7600.00
04280              -6.00     7400.00
04281               4.00     7200.00
04282              20.00     7200.00
04283              12.00     7000.00
04284              -6.00     7000.00
04285              -2.00     6800.00
04286              22.00     6800.00
04287              22.00     6600.00
04288              -6.00     6600.00
04289              -8.00     6200.00
04290               4.00     6200.00
04291              18.00     6200.00
04292              18.00     6000.00
04293               2.00     6000.00
04294              -6.00     5800.00
04295               2.00     5600.00
04296              20.00     5400.00
04297              10.00     5400.00
04298             -10.00     5200.00
04299              -4.00     5000.00
04300              20.00     4800.00
04301              18.00     4800.00
04302              -6.00     4600.00
04303             -12.00     4400.00
04304               4.00     4200.00
04305              10.00     4000.00
04306              10.00     4000.00
04307              -2.00     3800.00
04308              -6.00     3600.00
04309               4.00     3600.00
04310              10.00     3400.00
04311              -2.00     3200.00
04312              -6.00     3000.00
04313               2.00     2800.00
04314              12.00     2800.00
04315               4.00     2600.00
04316             -12.00     2400.00
04317              -6.00     2200.00
04318              10.00     2000.00
04319              14.00     2000.00
04320              -2.00     1800.00
04321             -14.00     1600.00
04322             -10.00     1400.00
04323              10.00     1400.00
04324              16.00     1200.00
04325              -4.00     1000.00
04326             -18.00      800.00
04327              -6.00      600.00
04328              12.00      400.00
04329              10.00      400.00
04330              -6.00        0.00
04331             -10.00     -200.00
04332               8.00     -400.00
04333              42.00     -400.00
04334              22.00     -400.00
04335             -20.00     -800.00
04336             -28.00     -800.00
04337              10.00    -1000.00
04338              28.00    -1000.00
04339              20.00    -1400.00
04340             156.00    -1600.00
04341             250.00    -1800.00
04342            -114.00    -2000.00
04343            -250.00    -2400.00
04344            -250.00    -2400.00
04345              42.00    -2400.00
04346             250.00    -2000.00
04347             250.00    -3000.00
04348            -250.00    -2800.00
04349            -250.00    -2800.00
04350             250.00    -3800.00
04351             250.00    -3000.00
04352            -250.00    -3200.00
04353            -182.00    -4000.00
04354            -198.00    -3600.00
04355             250.00    -3800.00
04356             250.00    -4600.00
04357            -250.00    -4000.00
04358            -118.00    -4200.00
04359             250.00    -5000.00
04360             -62.00    -4400.00
04361             -20.00    -5000.00
04362            -132.00    -5000.00
04363            -178.00    -4800.00
04364             250.00    -5600.00
04365              94.00    -5200.00
04366            -202.00    -5600.00
04367            -118.00    -5800.00
04368              30.00    -5600.00
04369             170.00    -6200.00
04370             -62.00    -6000.00
04371            -118.00    -6000.00
04372               2.00    -6400.00
04373               6.00    -6200.00
04374             108.00    -6800.00
04375             -54.00    -6800.00
04376            -134.00    -6800.00
04377              14.00    -7200.00
04378              36.00    -6800.00
04379              84.00    -7000.00
04380             -62.00    -7400.00
04381            -150.00    -7200.00
04382              34.00    -7400.00
04383              70.00    -7400.00
04384               4.00    -7800.00
04385             -46.00    -8000.00
04386             -54.00    -7600.00
04387             -18.00    -8000.00
04388               0.00    -8000.00
04389              38.00    -8000.00
04390             -14.00    -8200.00
04391             -78.00    -8200.00
04392             -12.00    -8400.00
04393              30.00    -8200.00
04394               4.00    -8400.00
04395             -42.00    -8400.00
04396             -36.00    -8400.00
04397              12.00    -8600.00
04398             -10.00    -8800.00
04399             -28.00    -8800.00
04400             -10.00    -8800.00
04401             -14.00    -8800.00
04402              -6.00    -8800.00
04403             -10.00    -8800.00
04404             -34.00    -8800.00
04405             -30.00    -8800.00
04406               4.00    -9000.00
04407              26.00    -8800.00
04408             -28.00    -9000.00
04409             -60.00    -9000.00
04410             -12.00    -9000.00
04411              22.00    -9000.00
04412               2.00    -9000.00
04413             -34.00    -9000.00
04414             -38.00    -9000.00
04415              -6.00    -9000.00
04416               6.00    -9000.00
04417               4.00    -9000.00
04418             -38.00    -9000.00
04419             -46.00    -9000.00
04420               4.00    -9000.00
04421              20.00    -9000.00
04422             -14.00    -9000.00
04423             -44.00    -9000.00
04424             -26.00    -8800.00
04425               4.00    -8800.00
04426              -4.00    -8800.00
04427             -14.00    -8800.00
04428             -22.00    -8800.00
04429             -22.00    -8600.00
04430             -12.00    -8600.00
04431             -14.00    -8400.00
04432             -20.00    -8600.00
04433             -18.00    -8400.00
04434              -2.00    -8400.00
04435              -6.00    -8200.00
04436             -36.00    -8200.00
04437             -24.00    -8200.00
04438               4.00    -8200.00
04439              -4.00    -8000.00
04440             -30.00    -8000.00
04441             -34.00    -8000.00
04442              -8.00    -7600.00
04443               6.00    -7600.00
04444              -6.00    -7600.00
04445             -26.00    -7400.00
04446             -36.00    -7400.00
04447             -12.00    -7200.00
04448              10.00    -7200.00
04449              -6.00    -7200.00
04450             -30.00    -7000.00
04451             -30.00    -6800.00
04452               4.00    -6800.00
04453               6.00    -6600.00
04454             -20.00    -6400.00
04455             -28.00    -6400.00
04456             -18.00    -6400.00
04457              -2.00    -6000.00
04458               4.00    -6000.00
04459             -14.00    -6000.00
04460             -26.00    -5800.00
04461             -18.00    -5600.00
04462              -2.00    -5600.00
04463              -6.00    -5400.00
04464             -20.00    -5200.00
04465             -10.00    -5000.00
04466               2.00    -5000.00
04467              -6.00    -4600.00
04468             -24.00    -4600.00
04469             -18.00    -4600.00
04470               4.00    -4400.00
04471               2.00    -4400.00
04472             -12.00    -4000.00
04473             -22.00    -3800.00
04474             -14.00    -3800.00
04475               2.00    -3600.00
04476               4.00    -3600.00
04477             -12.00    -3200.00
04478             -22.00    -3200.00
04479             -10.00    -3000.00
04480              10.00    -2800.00
04481              -2.00    -2600.00
04482             -22.00    -2400.00
04483             -18.00    -2400.00
04484               2.00    -2400.00
04485              10.00    -2000.00
04486              -4.00    -1800.00
04487             -20.00    -1600.00
04488             -12.00    -1600.00
04489               2.00    -1400.00
04490               6.00    -1200.00
04491             -12.00    -1000.00
04492             -14.00     -800.00
04493              -6.00     -600.00
04494               8.00     -400.00
04495              -4.00     -400.00
04496             -18.00     -200.00
04497              -6.00        0.00
04498              10.00      200.00
04499              30.00      400.00
04500              24.00      400.00
04501             -14.00      600.00
04502             -30.00      600.00
04503              -2.00     1000.00
04504              18.00     1200.00
04505               8.00     1200.00
04506               6.00     1600.00
04507             138.00     1600.00
04508             250.00     2000.00
04509             -26.00     2000.00
04510            -250.00     2400.00
04511            -250.00     2200.00
04512              66.00     2400.00
04513             250.00     2800.00
04514             250.00     3000.00
04515            -218.00     2800.00
04516            -250.00     3000.00
04517             228.00     3200.00
04518             250.00     3200.00
04519            -134.00     3800.00
04520            -250.00     3600.00
04521            -134.00     3600.00
04522             162.00     4000.00
04523             250.00     4400.00
04524            -182.00     4200.00
04525            -250.00     4800.00
04526             188.00     4600.00
04527             250.00     4600.00
04528             -12.00     5000.00
04529            -190.00     5200.00
04530            -196.00     5200.00
04531             150.00     5400.00
04532             250.00     5600.00
04533             -86.00     5600.00
04534            -250.00     5600.00
04535              32.00     6000.00
04536             250.00     6200.00
04537              10.00     6000.00
04538            -154.00     6200.00
04539             -44.00     6600.00
04540              70.00     6600.00
04541             126.00     6600.00
04542              18.00     6800.00
04543            -124.00     6800.00
04544             -58.00     7000.00
04545              84.00     7000.00
04546             114.00     7200.00
04547             -26.00     7200.00
04548            -124.00     7200.00
04549               4.00     7600.00
04550             108.00     7600.00
04551              36.00     7800.00
04552             -40.00     7800.00
04553             -12.00     8000.00
04554               4.00     8200.00
04555               2.00     8000.00
04556              42.00     8200.00
04557              22.00     8200.00
04558             -42.00     8400.00
04559             -12.00     8400.00
04560              52.00     8400.00
04561              28.00     8400.00
04562             -18.00     8600.00
04563              -2.00     8400.00
04564              18.00     8600.00
04565               4.00     8600.00
04566               4.00     8800.00
04567              20.00     8800.00
04568               2.00     8800.00
04569              -6.00     8800.00
04570              18.00     8800.00
04571              12.00     8800.00
04572             -12.00     9000.00
04573              18.00     9000.00
04574              42.00     9000.00
04575               2.00     9200.00
04576             -38.00     8800.00
04577               8.00     9000.00
04578              44.00     9000.00
04579              20.00     8800.00
04580              -6.00     9200.00
04581             -10.00     9000.00
04582              -2.00     9000.00
04583              22.00     9000.00
04584              30.00     8800.00
04585               4.00     9000.00
04586             -22.00     8800.00
04587              12.00     9200.00
04588              42.00     9000.00
04589               6.00     9000.00
04590             -18.00     8800.00
04591              10.00     8800.00
04592              20.00     8800.00
04593              10.00     8800.00
04594               2.00     8600.00
04595              14.00     8800.00
04596              12.00     8600.00
04597               6.00     8600.00
04598              10.00     8400.00
04599               2.00     8600.00
04600               6.00     8400.00
04601              20.00     8400.00
04602              14.00     8400.00
04603              -6.00     8200.00
04604              -6.00     8000.00
04605              28.00     8200.00
04606              26.00     8000.00
04607              -6.00     7800.00
04608             -10.00     7800.00
04609              10.00     7800.00
04610              22.00     7800.00
04611              12.00     7400.00
04612              -2.00     7600.00
04613              -6.00     7400.00
04614              10.00     7200.00
04615              30.00     7200.00
04616              18.00     7000.00
04617             -20.00     7000.00
04618             -10.00     6800.00
04619              28.00     6800.00
04620              34.00     6600.00
04621              -4.00     6400.00
04622             -16.00     6400.00
04623               2.00     6200.00
04624              20.00     6000.00
04625              20.00     6000.00
04626               2.00     6000.00
04627             -14.00     5600.00
04628              -2.00     5400.00
04629              22.00     5600.00
04630              18.00     5400.00
04631              -6.00     5200.00
04632              -8.00     5000.00
04633              10.00     4800.00
04634              12.00     4600.00
04635              -4.00     4600.00
04636              -6.00     4400.00
04637               6.00     4200.00
04638              12.00     4200.00
04639              10.00     4000.00
04640              -4.00     3800.00
04641              -8.00     3600.00
04642               4.00     3600.00
04643              14.00     3200.00
04644               2.00     3200.00
04645             -12.00     3000.00
04646              -4.00     3000.00
04647              14.00     2800.00
04648              10.00     2600.00
04649              -6.00     2400.00
04650             -10.00     2200.00
04651               6.00     2000.00
04652              14.00     2000.00
04653               2.00     1800.00
04654             -12.00     1600.00
04655             -10.00     1400.00
04656              10.00     1200.00
04657              18.00     1200.00
04658               2.00      800.00
04659             -14.00      800.00
04660              -6.00      600.00
04661              12.00      400.00
04662               6.00      400.00
04663              -6.00        0.00
04664             -10.00     -200.00
04665              10.00     -400.00
04666              38.00     -400.00
04667              26.00     -400.00
04668             -16.00     -800.00
04669             -28.00     -800.00
04670              10.00    -1000.00
04671              30.00    -1200.00
04672              18.00    -1400.00
04673             126.00    -1400.00
04674             250.00    -1800.00
04675             -42.00    -2200.00
04676            -250.00    -2400.00
04677            -250.00    -2600.00
04678             -28.00    -2400.00
04679             250.00    -2000.00
04680             250.00    -2800.00
04681            -250.00    -3000.00
04682            -250.00    -2800.00
04683             250.00    -3800.00
04684             250.00    -3200.00
04685            -250.00    -3000.00
04686            -204.00    -4200.00
04687            -202.00    -3800.00
04688             228.00    -3800.00
04689             250.00    -4400.00
04690            -250.00    -4000.00
04691            -216.00    -4400.00
04692             250.00    -4800.00
04693             -22.00    -4600.00
04694             -44.00    -5000.00
04695            -102.00    -5000.00
04696            -210.00    -4800.00
04697             250.00    -5600.00
04698             142.00    -5600.00
04699            -194.00    -5400.00
04700            -132.00    -6000.00
04701              10.00    -5600.00
04702             172.00    -6000.00
04703             -28.00    -6200.00
04704            -132.00    -6000.00
04705              -4.00    -6600.00
04706               2.00    -6200.00
04707             108.00    -6600.00
04708             -28.00    -6800.00
04709            -146.00    -6600.00
04710               4.00    -7200.00
04711              34.00    -7000.00
04712              84.00    -7000.00
04713             -38.00    -7400.00
04714            -158.00    -7200.00
04715              18.00    -7600.00
04716              78.00    -7400.00
04717              10.00    -7600.00
04718             -44.00    -8000.00
04719             -58.00    -7800.00
04720             -18.00    -8000.00
04721              -4.00    -8000.00
04722              36.00    -8000.00
04723              -2.00    -8200.00
04724             -74.00    -8000.00
04725             -20.00    -8400.00
04726              28.00    -8400.00
04727               6.00    -8400.00
04728             -36.00    -8400.00
04729             -38.00    -8400.00
04730              10.00    -8600.00
04731              -6.00    -8600.00
04732             -30.00    -8800.00
04733             -14.00    -8800.00
04734             -16.00    -8800.00
04735              -2.00    -8800.00
04736               2.00    -8800.00
04737             -32.00    -8800.00
04738             -38.00    -9000.00
04739              -2.00    -9000.00
04740              26.00    -9000.00
04741             -22.00    -9000.00
04742             -60.00    -9000.00
04743             -12.00    -9000.00
04744              20.00    -9000.00
04745               2.00    -9200.00
04746             -34.00    -9000.00
04747             -36.00    -9000.00
04748             -10.00    -9000.00
04749               4.00    -9000.00
04750               2.00    -9000.00
04751             -34.00    -9000.00
04752             -46.00    -9000.00
04753               2.00    -9000.00
04754              18.00    -9000.00
04755             -22.00    -9000.00
04756             -44.00    -9000.00
04757             -18.00    -9000.00
04758              10.00    -8800.00
04759             -12.00    -8800.00
04760             -28.00    -8800.00
04761             -26.00    -8800.00
04762             -10.00    -8800.00
04763               2.00    -8800.00
04764             -12.00    -8400.00
04765             -28.00    -8400.00
04766             -26.00    -8400.00
04767              -2.00    -8400.00
04768               4.00    -8400.00
04769             -32.00    -8200.00
04770             -38.00    -8200.00
04771              -6.00    -8200.00
04772               4.00    -8200.00
04773             -12.00    -8000.00
04774             -32.00    -8000.00
04775             -20.00    -7800.00
04776              -6.00    -8000.00
04777              -6.00    -7600.00
04778             -18.00    -7400.00
04779             -30.00    -7400.00
04780             -14.00    -7400.00
04781               2.00    -7200.00
04782             -12.00    -7200.00
04783             -30.00    -7000.00
04784             -24.00    -6800.00
04785               6.00    -6600.00
04786               4.00    -6800.00
04787             -22.00    -6600.00
04788             -28.00    -6400.00
04789             -14.00    -6400.00
04790              -2.00    -6000.00
04791              -2.00    -6000.00
04792             -20.00    -6000.00
04793             -26.00    -5800.00
04794             -10.00    -5800.00
04795               4.00    -5600.00
04796              -6.00    -5400.00
04797             -28.00    -5200.00
04798             -18.00    -5000.00
04799               4.00    -4800.00
04800              -2.00    -4600.00
04801             -18.00    -4600.00
04802             -22.00    -4400.00
04803              -4.00    -4400.00
04804               4.00    -4200.00
04805              -6.00    -4200.00
04806             -22.00    -4000.00
04807             -18.00    -4000.00
04808              -2.00    -3600.00
04809               4.00    -3400.00
04810             -10.00    -3400.00
04811             -22.00    -3200.00
04812             -10.00    -3000.00
04813              10.00    -2800.00
04814              -2.00    -2800.00
04815             -20.00    -2600.00
04816             -20.00    -2400.00
04817              -2.00    -2000.00
04818               4.00    -2200.00
04819              -4.00    -1800.00
04820             -20.00    -1800.00
04821             -12.00    -1800.00
04822               6.00    -1600.00
04823               4.00    -1200.00
04824             -14.00    -1000.00
04825             -22.00    -1000.00
04826              -6.00     -600.00
04827              10.00     -400.00
04828              -2.00     -200.00
04829             -14.00     -200.00
04830             -12.00        0.00
04831               6.00        0.00
04832              30.00      400.00
04833              30.00      600.00
04834             -14.00      600.00
04835             -32.00      800.00
04836              -4.00      800.00
04837              20.00     1200.00
04838              10.00     1200.00
04839               6.00     1400.00
04840             118.00     1600.00
04841             250.00     2000.00
04842              28.00     2200.00
04843            -250.00     2200.00
04844            -250.00     2200.00
04845              28.00     2200.00
04846             250.00     2600.00
04847             250.00     3000.00
04848             -70.00     3000.00
04849            -250.00     3000.00
04850              76.00     3200.00
04851             250.00     3200.00
04852             -30.00     3800.00
04853            -250.00     3800.00
04854            -162.00     3600.00
04855             124.00     4000.00
04856             250.00     4200.00
04857            -106.00     4000.00
04858            -250.00     4600.00
04859             130.00     4600.00
04860             250.00     4400.00
04861              16.00     4800.00
04862            -174.00     5000.00
04863            -210.00     5400.00
04864             110.00     5400.00
04865             250.00     5600.00
04866             -42.00     5600.00
04867            -250.00     5800.00
04868              -8.00     5800.00
04869             250.00     6000.00
04870              38.00     6200.00
04871            -154.00     6200.00
04872             -54.00     6400.00
04873              64.00     6400.00
04874             120.00     6600.00
04875              22.00     6600.00
04876            -122.00     7000.00
04877             -60.00     7000.00
04878              84.00     7200.00
04879             124.00     7200.00
04880             -14.00     7200.00
04881            -126.00     7200.00
04882             -16.00     7600.00
04883             110.00     7600.00
04884              46.00     7800.00
04885             -44.00     7800.00
04886             -18.00     8000.00
04887              10.00     8200.00
04888               2.00     8000.00
04889              36.00     8200.00
04890              22.00     8400.00
04891             -42.00     8200.00
04892              -8.00     8200.00
04893              54.00     8400.00
04894              26.00     8400.00
04895             -18.00     8400.00
04896              -6.00     8600.00
04897              12.00     8600.00
04898              -2.00     8600.00
04899               2.00     8600.00
04900              28.00     8600.00
04901              12.00     8800.00
04902              -8.00     8800.00
04903               6.00     8800.00
04904              12.00     9000.00
04905               2.00     8800.00
04906              12.00     9000.00
04907              26.00     8800.00
04908             -10.00     9000.00
04909             -24.00     8800.00
04910              20.00     8800.00
04911              42.00     9200.00
04912              14.00     8800.00
04913             -18.00     9000.00
04914             -10.00     9200.00
04915              18.00     9200.00
04916              30.00     9000.00
04917              28.00     9000.00
04918             -12.00     9000.00
04919             -30.00     8800.00
04920              18.00     9000.00
04921              52.00     9200.00
04922              14.00     9000.00
04923             -28.00     9000.00
04924              -6.00     8800.00
04925              26.00     9000.00
04926              24.00     8800.00
04927               6.00     8800.00
04928              -2.00     8600.00
04929               6.00     8600.00
04930              18.00     8600.00
04931              18.00     8400.00
04932              -2.00     8600.00
04933              -2.00     8400.00
04934              20.00     8400.00
04935              22.00     8400.00
04936              -6.00     8400.00
04937             -10.00     8200.00
04938              22.00     8200.00
04939              32.00     8000.00
04940               2.00     8000.00
04941             -14.00     7800.00
04942              -4.00     7800.00
04943              20.00     7600.00
04944              26.00     7600.00
04945              18.00     7600.00
04946             -10.00     7200.00
04947             -10.00     7200.00
04948              18.00     7200.00
04949              24.00     7000.00
04950              -2.00     7000.00
04951             -10.00     7000.00
04952              10.00     6800.00
04953              20.00     6800.00
04954               4.00     6400.00
04955             -10.00     6400.00
04956               2.00     6200.00
04957              18.00     6200.00
04958              14.00     6000.00
04959              -4.00     5800.00
04960             -14.00     5800.00
04961              -2.00     5600.00
04962              20.00     5400.00
04963              16.00     5400.00
04964              -6.00     5000.00
04965              -6.00     4800.00
04966              10.00     4800.00
04967              12.00     4800.00
04968              -2.00     4600.00
04969              -6.00     4400.00
04970               4.00     4400.00
04971              14.00     4000.00
04972              10.00     4000.00
04973              -6.00     3800.00
04974             -10.00     3800.00
04975               2.00     3600.00
04976              18.00     3600.00
04977               6.00     3200.00
04978              -6.00     3000.00
04979              -6.00     2800.00
04980              10.00     2800.00
04981              10.00     2600.00
04982              -6.00     2400.00
04983             -10.00     2400.00
04984               2.00     2000.00
04985              12.00     2000.00
04986               6.00     1800.00
04987             -10.00     1800.00
04988              -8.00     1400.00
04989               4.00     1200.00
04990              16.00     1000.00
04991               2.00      800.00
04992             -12.00      800.00
04993              -4.00      600.00
04994              10.00      400.00
04995               6.00      200.00
04996              -6.00        0.00
04997              -6.00        0.00
04998              10.00     -200.00
04999              42.00     -400.00
05000              34.00     -400.00
