Unit:(mV)
                     CH1         CH2
Frequency              ? 300.729 kHz
00001              -2.00      800.00
00002              -2.00      400.00
00003               2.00      200.00
00004               4.00     -200.00
00005              12.00     -200.00
00006              34.00     -400.00
00007              40.00     -800.00
00008              -6.00    -1000.00
00009             -36.00    -1000.00
00010              -6.00    -1600.00
00011              30.00    -1600.00
00012              50.00    -1800.00
00013             180.00    -2000.00
00014             250.00    -2400.00
00015            -150.00    -3200.00
00016            -250.00    -3200.00
00017            -250.00    -3400.00
00018             250.00    -3600.00
00019             250.00    -3400.00
00020             204.00    -3600.00
00021             178.00    -4400.00
00022            -250.00    -4400.00
00023            -100.00    -4400.00
00024             250.00    -5400.00
00025             -44.00    -4400.00
00026              44.00    -5400.00
00027            -200.00    -6000.00
00028            -146.00    -5400.00
00029             250.00    -6600.00
00030            -198.00    -5800.00
00031             -80.00    -6400.00
00032             116.00    -7200.00
00033             -70.00    -6400.00
00034              68.00    -7600.00
00035            -132.00    -7400.00
00036             -58.00    -7400.00
00037              58.00    -8200.00
00038             -20.00    -7400.00
00039              26.00    -8600.00
00040            -156.00    -8200.00
00041             -34.00    -8400.00
00042              54.00    -9200.00
00043             -46.00    -8800.00
00044             -36.00    -9600.00
00045            -102.00    -9200.00
00046              10.00    -9600.00
00047              36.00    -9800.00
00048             -76.00    -9800.00
00049             -74.00   -10200.00
00050             -54.00   -10000.00
00051             -16.00   -10400.00
00052               4.00   -10600.00
00053             -50.00   -10600.00
00054             -90.00   -11000.00
00055             -86.00   -11000.00
00056             -20.00   -11200.00
00057              22.00   -11400.00
00058             -70.00   -11400.00
00059             -94.00   -11600.00
00060             -60.00   -11600.00
00061             -44.00   -11800.00
00062             -38.00   -12000.00
00063             -62.00   -12200.00
00064             -52.00   -12000.00
00065             -74.00   -12400.00
00066             -74.00   -12400.00
00067             -40.00   -12400.00
00068             -62.00   -12400.00
00069             -74.00   -12600.00
00070             -62.00   -12800.00
00071             -62.00   -12800.00
00072             -80.00   -13000.00
00073             -86.00   -12800.00
00074             -54.00   -13000.00
00075             -60.00   -13000.00
00076             -92.00   -13200.00
00077             -82.00   -13200.00
00078             -80.00   -13200.00
00079             -70.00   -13400.00
00080             -68.00   -13400.00
00081             -82.00   -13200.00
00082             -90.00   -13600.00
00083             -92.00   -13400.00
00084             -62.00   -13200.00
00085             -66.00   -13400.00
00086            -100.00   -13400.00
00087             -92.00   -13400.00
00088             -74.00   -13400.00
00089             -70.00   -13400.00
00090             -90.00   -13600.00
00091             -94.00   -13200.00
00092             -86.00   -13400.00
00093             -86.00   -13400.00
00094             -74.00   -13400.00
00095             -78.00   -13200.00
00096             -94.00   -13200.00
00097             -92.00   -13000.00
00098             -82.00   -13000.00
00099             -76.00   -13000.00
00100            -102.00   -13000.00
00101            -112.00   -12800.00
00102             -92.00   -12800.00
00103             -76.00   -12800.00
00104             -62.00   -12800.00
00105             -66.00   -12800.00
00106             -76.00   -12600.00
00107             -70.00   -12400.00
00108             -62.00   -12200.00
00109             -58.00   -12400.00
00110             -70.00   -12000.00
00111             -70.00   -12000.00
00112             -54.00   -12000.00
00113             -54.00   -11800.00
00114             -62.00   -11600.00
00115             -62.00   -11600.00
00116             -58.00   -11400.00
00117             -52.00   -11400.00
00118             -54.00   -11200.00
00119             -52.00   -11000.00
00120             -52.00   -10800.00
00121             -54.00   -10800.00
00122             -50.00   -10600.00
00123             -46.00   -10400.00
00124             -44.00   -10200.00
00125             -42.00   -10000.00
00126             -44.00   -10000.00
00127             -46.00    -9600.00
00128             -52.00    -9400.00
00129             -42.00    -9200.00
00130             -34.00    -9200.00
00131             -38.00    -9000.00
00132             -38.00    -8800.00
00133             -42.00    -8600.00
00134             -38.00    -8400.00
00135             -34.00    -8200.00
00136             -34.00    -8200.00
00137             -38.00    -7800.00
00138             -36.00    -7600.00
00139             -26.00    -7400.00
00140             -26.00    -7200.00
00141             -36.00    -6800.00
00142             -36.00    -6800.00
00143             -30.00    -6400.00
00144             -22.00    -6400.00
00145             -24.00    -6200.00
00146             -28.00    -6000.00
00147             -22.00    -5600.00
00148             -26.00    -5600.00
00149             -22.00    -5200.00
00150             -24.00    -5000.00
00151             -28.00    -4600.00
00152             -20.00    -4400.00
00153             -14.00    -4200.00
00154             -20.00    -4000.00
00155             -22.00    -3600.00
00156             -22.00    -3400.00
00157             -10.00    -3400.00
00158             -10.00    -3000.00
00159             -18.00    -2800.00
00160             -18.00    -2400.00
00161             -14.00    -2400.00
00162             -10.00    -2000.00
00163              -6.00    -1800.00
00164              -6.00    -1400.00
00165             -12.00    -1200.00
00166             -12.00     -800.00
00167              -6.00     -800.00
00168              -6.00     -600.00
00169              -6.00     -200.00
00170              -6.00        0.00
00171               4.00      200.00
00172              28.00      400.00
00173              40.00      600.00
00174              -2.00     1000.00
00175             -34.00     1200.00
00176             -12.00     1400.00
00177              28.00     1800.00
00178              30.00     1800.00
00179              46.00     2000.00
00180             226.00     2400.00
00181             250.00     2800.00
00182            -246.00     3000.00
00183            -250.00     3000.00
00184            -208.00     3200.00
00185             250.00     3600.00
00186             222.00     4000.00
00187            -250.00     3800.00
00188             190.00     4200.00
00189             130.00     4600.00
00190            -178.00     4800.00
00191              76.00     5200.00
00192              20.00     5000.00
00193              50.00     5800.00
00194             108.00     5600.00
00195            -110.00     5800.00
00196             -36.00     6400.00
00197               4.00     6400.00
00198              36.00     6600.00
00199             138.00     6800.00
00200             -50.00     7000.00
00201             -66.00     7200.00
00202              74.00     7200.00
00203              92.00     8000.00
00204             -30.00     8000.00
00205             -36.00     8200.00
00206              92.00     8600.00
00207              30.00     8400.00
00208             -22.00     8800.00
00209              30.00     9000.00
00210              34.00     9200.00
00211              16.00     9400.00
00212              38.00     9400.00
00213              68.00     9600.00
00214              34.00     9800.00
00215             -12.00    10000.00
00216              42.00    10000.00
00217              70.00    10400.00
00218              18.00    10400.00
00219              26.00    10800.00
00220              72.00    11000.00
00221              30.00    11200.00
00222              -6.00    11000.00
00223              52.00    11200.00
00224              90.00    11400.00
00225              30.00    11600.00
00226              18.00    11800.00
00227              66.00    12000.00
00228              54.00    11800.00
00229              36.00    12000.00
00230              58.00    12000.00
00231              68.00    12400.00
00232              44.00    12400.00
00233              52.00    12400.00
00234              82.00    12600.00
00235              56.00    12600.00
00236              38.00    12800.00
00237              68.00    12800.00
00238              76.00    12800.00
00239              46.00    13000.00
00240              60.00    13000.00
00241              92.00    13000.00
00242              66.00    13200.00
00243              42.00    13200.00
00244              74.00    13200.00
00245              90.00    13200.00
00246              68.00    13400.00
00247              68.00    13200.00
00248              74.00    13400.00
00249              66.00    13400.00
00250              66.00    13400.00
00251              84.00    13400.00
00252              84.00    13400.00
00253              60.00    13400.00
00254              74.00    13400.00
00255              92.00    13400.00
00256              74.00    13400.00
00257              64.00    13200.00
00258              84.00    13200.00
00259              92.00    13400.00
00260              72.00    13200.00
00261              70.00    13400.00
00262              80.00    13200.00
00263              74.00    13200.00
00264              74.00    13200.00
00265              86.00    13200.00
00266              90.00    13000.00
00267              90.00    13200.00
00268              98.00    12800.00
00269              84.00    12800.00
00270              46.00    12800.00
00271              44.00    12600.00
00272              74.00    12600.00
00273              80.00    12400.00
00274              58.00    12400.00
00275              46.00    12400.00
00276              54.00    12200.00
00277              58.00    12200.00
00278              58.00    12000.00
00279              58.00    12000.00
00280              46.00    11800.00
00281              38.00    11600.00
00282              50.00    11600.00
00283              54.00    11200.00
00284              42.00    11200.00
00285              42.00    11200.00
00286              52.00    11000.00
00287              50.00    10800.00
00288              34.00    10600.00
00289              36.00    10400.00
00290              42.00    10200.00
00291              42.00    10200.00
00292              36.00    10000.00
00293              36.00     9800.00
00294              34.00     9600.00
00295              28.00     9400.00
00296              36.00     9200.00
00297              36.00     9000.00
00298              28.00     8800.00
00299              28.00     8600.00
00300              36.00     8600.00
00301              28.00     8400.00
00302              20.00     8000.00
00303              26.00     8000.00
00304              30.00     7600.00
00305              28.00     7400.00
00306              22.00     7200.00
00307              20.00     7000.00
00308              18.00     7000.00
00309              20.00     6600.00
00310              28.00     6400.00
00311              26.00     6200.00
00312              14.00     6000.00
00313              12.00     5600.00
00314              18.00     5600.00
00315              14.00     5200.00
00316              10.00     5200.00
00317              16.00     4800.00
00318              12.00     4400.00
00319              12.00     4400.00
00320               8.00     4000.00
00321              10.00     3800.00
00322               8.00     3600.00
00323              10.00     3200.00
00324              12.00     3000.00
00325              12.00     3000.00
00326               2.00     2600.00
00327               2.00     2400.00
00328               6.00     2000.00
00329               4.00     2000.00
00330               4.00     1600.00
00331               4.00     1400.00
00332               4.00     1200.00
00333              -2.00      800.00
00334               0.00      400.00
00335               2.00      400.00
00336               2.00        0.00
00337               6.00     -200.00
00338              18.00     -400.00
00339              44.00     -800.00
00340              22.00     -800.00
00341             -26.00    -1200.00
00342             -26.00    -1200.00
00343              12.00    -1600.00
00344              34.00    -1800.00
00345              82.00    -2000.00
00346             250.00    -2000.00
00347             250.00    -2800.00
00348            -250.00    -3000.00
00349            -250.00    -3400.00
00350              22.00    -3400.00
00351             250.00    -3400.00
00352             132.00    -3400.00
00353             250.00    -3800.00
00354            -242.00    -4400.00
00355            -250.00    -4000.00
00356             250.00    -5000.00
00357             230.00    -5000.00
00358             -68.00    -4600.00
00359               6.00    -6000.00
00360            -250.00    -5400.00
00361             168.00    -5800.00
00362             132.00    -6600.00
00363            -250.00    -5600.00
00364             106.00    -7200.00
00365              -4.00    -6600.00
00366               4.00    -6800.00
00367              10.00    -7800.00
00368            -174.00    -6800.00
00369              38.00    -8000.00
00370              -2.00    -8000.00
00371              34.00    -8000.00
00372             -46.00    -8800.00
00373            -158.00    -8000.00
00374              50.00    -9000.00
00375              -6.00    -9000.00
00376             -30.00    -9000.00
00377             -66.00    -9600.00
00378             -74.00    -9200.00
00379              52.00    -9800.00
00380             -28.00    -9800.00
00381             -88.00   -10000.00
00382             -54.00   -10400.00
00383             -38.00   -10000.00
00384              -2.00   -10600.00
00385             -18.00   -10600.00
00386             -70.00   -10800.00
00387             -92.00   -10800.00
00388             -62.00   -11000.00
00389              14.00   -11400.00
00390             -18.00   -11400.00
00391            -100.00   -11600.00
00392             -76.00   -11600.00
00393             -52.00   -11600.00
00394             -30.00   -12000.00
00395             -50.00   -12000.00
00396             -66.00   -12200.00
00397             -60.00   -12200.00
00398             -82.00   -12400.00
00399             -44.00   -12400.00
00400             -44.00   -12600.00
00401             -76.00   -12600.00
00402             -76.00   -12800.00
00403             -62.00   -12800.00
00404             -62.00   -12800.00
00405             -82.00   -13000.00
00406             -70.00   -13000.00
00407             -54.00   -13000.00
00408             -78.00   -13000.00
00409             -86.00   -13200.00
00410             -76.00   -13200.00
00411             -76.00   -13200.00
00412             -70.00   -13200.00
00413             -76.00   -13200.00
00414             -82.00   -13200.00
00415             -92.00   -13400.00
00416             -82.00   -13400.00
00417             -54.00   -13400.00
00418             -82.00   -13400.00
00419             -98.00   -13400.00
00420             -86.00   -13400.00
00421             -74.00   -13200.00
00422             -76.00   -13400.00
00423             -94.00   -13200.00
00424             -86.00   -13400.00
00425             -84.00   -13400.00
00426             -84.00   -13200.00
00427             -76.00   -13200.00
00428             -88.00   -13400.00
00429             -92.00   -13200.00
00430             -86.00   -13200.00
00431             -74.00   -13000.00
00432             -86.00   -13200.00
00433            -114.00   -13000.00
00434            -106.00   -12800.00
00435             -82.00   -12800.00
00436             -66.00   -12800.00
00437             -60.00   -12800.00
00438             -74.00   -12800.00
00439             -76.00   -12600.00
00440             -68.00   -12400.00
00441             -58.00   -12200.00
00442             -60.00   -12200.00
00443             -74.00   -12000.00
00444             -62.00   -12000.00
00445             -52.00   -12000.00
00446             -60.00   -11600.00
00447             -64.00   -11800.00
00448             -62.00   -11400.00
00449             -50.00   -11400.00
00450             -54.00   -11000.00
00451             -54.00   -11000.00
00452             -50.00   -10800.00
00453             -52.00   -10800.00
00454             -50.00   -10800.00
00455             -48.00   -10400.00
00456             -50.00   -10200.00
00457             -46.00   -10200.00
00458             -40.00   -10000.00
00459             -38.00    -9800.00
00460             -52.00    -9800.00
00461             -50.00    -9400.00
00462             -38.00    -9200.00
00463             -38.00    -9200.00
00464             -42.00    -9000.00
00465             -44.00    -8800.00
00466             -38.00    -8600.00
00467             -36.00    -8400.00
00468             -36.00    -8000.00
00469             -32.00    -8000.00
00470             -36.00    -7800.00
00471             -34.00    -7400.00
00472             -28.00    -7200.00
00473             -30.00    -7200.00
00474             -34.00    -6800.00
00475             -30.00    -6600.00
00476             -26.00    -6600.00
00477             -22.00    -6200.00
00478             -30.00    -6000.00
00479             -28.00    -5800.00
00480             -22.00    -5600.00
00481             -22.00    -5400.00
00482             -26.00    -5000.00
00483             -22.00    -4800.00
00484             -20.00    -4600.00
00485             -14.00    -4400.00
00486             -18.00    -4200.00
00487             -22.00    -4000.00
00488             -24.00    -3600.00
00489             -20.00    -3400.00
00490             -10.00    -3200.00
00491             -12.00    -2800.00
00492             -20.00    -2600.00
00493             -18.00    -2400.00
00494             -10.00    -2000.00
00495              -6.00    -2000.00
00496             -10.00    -1600.00
00497             -12.00    -1600.00
00498             -12.00    -1200.00
00499             -10.00    -1000.00
00500              -4.00     -600.00
00501             -10.00     -400.00
00502             -10.00        0.00
00503              -2.00        0.00
00504              16.00      400.00
00505              44.00      600.00
00506              22.00      800.00
00507             -26.00     1000.00
00508             -30.00     1200.00
00509              10.00     1400.00
00510              30.00     1800.00
00511              28.00     2000.00
00512              96.00     2200.00
00513             250.00     2400.00
00514             144.00     2800.00
00515            -250.00     2800.00
00516            -250.00     3200.00
00517             216.00     3400.00
00518             250.00     3600.00
00519            -140.00     3800.00
00520            -134.00     4200.00
00521             250.00     4400.00
00522             -98.00     4400.00
00523             -76.00     5000.00
00524             102.00     5000.00
00525             -20.00     5400.00
00526             132.00     5800.00
00527              -6.00     5400.00
00528            -110.00     6200.00
00529              10.00     6400.00
00530              -4.00     6200.00
00531             116.00     6800.00
00532              60.00     7000.00
00533            -100.00     7200.00
00534               4.00     7200.00
00535             106.00     7600.00
00536              42.00     8000.00
00537             -62.00     7800.00
00538              28.00     8400.00
00539              92.00     8600.00
00540             -14.00     8600.00
00541               4.00     8800.00
00542              36.00     8800.00
00543              18.00     9200.00
00544              20.00     9400.00
00545              52.00     9600.00
00546              64.00     9800.00
00547               4.00    10000.00
00548               4.00    10000.00
00549              66.00    10200.00
00550              52.00    10400.00
00551              10.00    10400.00
00552              58.00    10800.00
00553              62.00    11000.00
00554               6.00    11000.00
00555              18.00    11200.00
00556              82.00    11400.00
00557              68.00    11400.00
00558              10.00    11600.00
00559              42.00    11800.00
00560              68.00    11800.00
00561              44.00    12000.00
00562              44.00    12000.00
00563              66.00    12000.00
00564              58.00    12400.00
00565              42.00    12400.00
00566              68.00    12600.00
00567              78.00    12600.00
00568              38.00    12600.00
00569              48.00    12600.00
00570              82.00    12800.00
00571              60.00    12800.00
00572              50.00    13000.00
00573              76.00    13200.00
00574              84.00    13200.00
00575              46.00    13200.00
00576              52.00    13200.00
00577              88.00    13200.00
00578              82.00    13200.00
00579              60.00    13200.00
00580              68.00    13400.00
00581              76.00    13200.00
00582              62.00    13400.00
00583              74.00    13400.00
00584              90.00    13400.00
00585              70.00    13400.00
00586              62.00    13400.00
00587              84.00    13400.00
00588              90.00    13200.00
00589              66.00    13200.00
00590              70.00    13200.00
00591              94.00    13400.00
00592              84.00    13200.00
00593              66.00    13200.00
00594              70.00    13200.00
00595              76.00    13200.00
00596              72.00    13200.00
00597              84.00    13000.00
00598              90.00    13000.00
00599              86.00    12800.00
00600              88.00    13000.00
00601              92.00    12800.00
00602              70.00    12800.00
00603              46.00    12600.00
00604              58.00    12600.00
00605              80.00    12600.00
00606              68.00    12400.00
00607              50.00    12400.00
00608              52.00    12400.00
00609              58.00    12000.00
00610              58.00    12000.00
00611              58.00    12000.00
00612              52.00    11800.00
00613              44.00    11800.00
00614              46.00    11600.00
00615              52.00    11600.00
00616              46.00    11200.00
00617              38.00    11200.00
00618              46.00    11000.00
00619              58.00    10800.00
00620              42.00    10600.00
00621              28.00    10400.00
00622              38.00    10400.00
00623              44.00    10200.00
00624              42.00    10200.00
00625              38.00     9800.00
00626              30.00     9600.00
00627              30.00     9400.00
00628              30.00     9400.00
00629              40.00     9200.00
00630              30.00     8800.00
00631              22.00     8800.00
00632              28.00     8600.00
00633              34.00     8600.00
00634              26.00     8200.00
00635              22.00     8000.00
00636              26.00     7800.00
00637              26.00     7600.00
00638              26.00     7400.00
00639              22.00     7200.00
00640              20.00     6800.00
00641              18.00     6800.00
00642              18.00     6400.00
00643              26.00     6200.00
00644              20.00     6000.00
00645              14.00     5800.00
00646              14.00     5600.00
00647              14.00     5400.00
00648              12.00     5200.00
00649              12.00     4800.00
00650              18.00     4600.00
00651              14.00     4400.00
00652               6.00     4200.00
00653               6.00     4000.00
00654               8.00     3600.00
00655              10.00     3600.00
00656              10.00     3200.00
00657              10.00     3000.00
00658               4.00     2800.00
00659               2.00     2600.00
00660               4.00     2200.00
00661              10.00     2000.00
00662               4.00     1800.00
00663               4.00     1600.00
00664               2.00     1200.00
00665               2.00      800.00
00666               2.00      800.00
00667               2.00      400.00
00668              -2.00      400.00
00669               4.00        0.00
00670              12.00     -200.00
00671              32.00     -400.00
00672              44.00     -800.00
00673               0.00     -800.00
00674             -38.00    -1200.00
00675             -12.00    -1200.00
00676              26.00    -1800.00
00677              52.00    -1800.00
00678             166.00    -2000.00
00679             250.00    -2400.00
00680            -100.00    -3000.00
00681            -250.00    -3200.00
00682            -250.00    -3400.00
00683             250.00    -3400.00
00684             250.00    -3400.00
00685             186.00    -3600.00
00686             212.00    -4200.00
00687            -250.00    -4400.00
00688            -156.00    -4200.00
00689             250.00    -5400.00
00690             -28.00    -4400.00
00691              36.00    -5200.00
00692            -174.00    -5800.00
00693            -180.00    -5200.00
00694             250.00    -6600.00
00695            -172.00    -5800.00
00696            -110.00    -6200.00
00697             128.00    -7200.00
00698             -70.00    -6400.00
00699              68.00    -7600.00
00700            -122.00    -7400.00
00701             -82.00    -7200.00
00702              62.00    -8200.00
00703             -14.00    -7600.00
00704              38.00    -8400.00
00705            -150.00    -8400.00
00706             -58.00    -8400.00
00707              58.00    -9200.00
00708             -44.00    -8600.00
00709             -28.00    -9400.00
00710            -100.00    -9400.00
00711              -4.00    -9400.00
00712              36.00    -9800.00
00713             -76.00    -9600.00
00714             -74.00   -10400.00
00715             -52.00   -10400.00
00716             -20.00   -10400.00
00717               0.00   -10600.00
00718             -46.00   -10400.00
00719             -90.00   -10800.00
00720             -86.00   -11000.00
00721             -22.00   -11200.00
00722              20.00   -11400.00
00723             -68.00   -11400.00
00724             -98.00   -11600.00
00725             -62.00   -11600.00
00726             -44.00   -12000.00
00727             -34.00   -12000.00
00728             -66.00   -12000.00
00729             -58.00   -12200.00
00730             -74.00   -12400.00
00731             -70.00   -12400.00
00732             -32.00   -12600.00
00733             -62.00   -12400.00
00734             -78.00   -12800.00
00735             -68.00   -12800.00
00736             -60.00   -12800.00
00737             -74.00   -13000.00
00738             -86.00   -13000.00
00739             -58.00   -13000.00
00740             -60.00   -13200.00
00741             -90.00   -13200.00
00742             -78.00   -13200.00
00743             -78.00   -13200.00
00744             -70.00   -13200.00
00745             -70.00   -13200.00
00746             -78.00   -13400.00
00747             -86.00   -13600.00
00748             -94.00   -13200.00
00749             -64.00   -13400.00
00750             -62.00   -13400.00
00751             -94.00   -13400.00
00752             -90.00   -13600.00
00753             -76.00   -13400.00
00754             -70.00   -13400.00
00755             -90.00   -13400.00
00756             -98.00   -13600.00
00757             -84.00   -13200.00
00758             -86.00   -13200.00
00759             -76.00   -13400.00
00760             -78.00   -13200.00
00761             -94.00   -13200.00
00762             -90.00   -13200.00
00763             -78.00   -13200.00
00764             -76.00   -13000.00
00765            -102.00   -13000.00
00766            -114.00   -13000.00
00767             -94.00   -12800.00
00768             -78.00   -12800.00
00769             -66.00   -12800.00
00770             -68.00   -12600.00
00771             -74.00   -12600.00
00772             -74.00   -12400.00
00773             -66.00   -12400.00
00774             -58.00   -12200.00
00775             -70.00   -12200.00
00776             -68.00   -12000.00
00777             -54.00   -12000.00
00778             -58.00   -11800.00
00779             -62.00   -11600.00
00780             -64.00   -11600.00
00781             -54.00   -11600.00
00782             -50.00   -11400.00
00783             -60.00   -11000.00
00784             -54.00   -10800.00
00785             -52.00   -10800.00
00786             -50.00   -10600.00
00787             -46.00   -10600.00
00788             -50.00   -10400.00
00789             -50.00   -10000.00
00790             -46.00   -10000.00
00791             -38.00   -10000.00
00792             -42.00    -9800.00
00793             -52.00    -9600.00
00794             -46.00    -9200.00
00795             -36.00    -9200.00
00796             -38.00    -9000.00
00797             -38.00    -8800.00
00798             -42.00    -8600.00
00799             -34.00    -8400.00
00800             -36.00    -8200.00
00801             -36.00    -8000.00
00802             -34.00    -8000.00
00803             -36.00    -7600.00
00804             -30.00    -7400.00
00805             -28.00    -7200.00
00806             -36.00    -7000.00
00807             -34.00    -6600.00
00808             -26.00    -6600.00
00809             -20.00    -6400.00
00810             -28.00    -6000.00
00811             -30.00    -5800.00
00812             -22.00    -5600.00
00813             -22.00    -5400.00
00814             -22.00    -5200.00
00815             -22.00    -5000.00
00816             -22.00    -4600.00
00817             -22.00    -4400.00
00818             -18.00    -4200.00
00819             -18.00    -4000.00
00820             -22.00    -3600.00
00821             -22.00    -3400.00
00822             -14.00    -3400.00
00823             -12.00    -3000.00
00824             -14.00    -2800.00
00825             -20.00    -2600.00
00826             -12.00    -2400.00
00827             -10.00    -2000.00
00828              -6.00    -1800.00
00829             -10.00    -1600.00
00830             -10.00    -1200.00
00831             -12.00    -1000.00
00832              -6.00     -800.00
00833              -6.00     -400.00
00834             -10.00     -400.00
00835              -8.00        0.00
00836               4.00      200.00
00837              26.00      600.00
00838              42.00      600.00
00839              -4.00     1000.00
00840             -36.00     1200.00
00841             -14.00     1200.00
00842              26.00     1800.00
00843              30.00     1800.00
00844              44.00     2000.00
00845             204.00     2200.00
00846             250.00     2800.00
00847            -198.00     3000.00
00848            -250.00     3200.00
00849            -250.00     3400.00
00850             250.00     3600.00
00851             250.00     3800.00
00852            -250.00     4000.00
00853             158.00     4400.00
00854             162.00     4400.00
00855            -180.00     4800.00
00856              60.00     5200.00
00857              30.00     5000.00
00858              42.00     6000.00
00859             118.00     5600.00
00860            -108.00     5600.00
00861             -44.00     6400.00
00862               6.00     6200.00
00863              30.00     6600.00
00864             144.00     7000.00
00865             -42.00     7000.00
00866             -70.00     7400.00
00867              70.00     7400.00
00868             100.00     7800.00
00869             -22.00     8000.00
00870             -44.00     8000.00
00871              90.00     8400.00
00872              40.00     8600.00
00873             -26.00     8600.00
00874              28.00     8800.00
00875              36.00     9200.00
00876              20.00     9400.00
00877              34.00     9400.00
00878              64.00     9600.00
00879              38.00    10000.00
00880             -12.00    10000.00
00881              38.00    10200.00
00882              68.00    10400.00
00883              18.00    10400.00
00884              26.00    10800.00
00885              74.00    10800.00
00886              36.00    11000.00
00887              -4.00    11000.00
00888              50.00    11200.00
00889              90.00    11400.00
00890              36.00    11600.00
00891              14.00    11600.00
00892              62.00    11800.00
00893              58.00    12000.00
00894              38.00    12000.00
00895              58.00    12000.00
00896              68.00    12400.00
00897              42.00    12400.00
00898              46.00    12400.00
00899              82.00    12600.00
00900              58.00    12800.00
00901              36.00    12800.00
00902              68.00    12600.00
00903              76.00    12800.00
00904              46.00    12800.00
00905              52.00    12800.00
00906              90.00    13200.00
00907              74.00    13200.00
00908              42.00    13200.00
00909              66.00    13200.00
00910              86.00    13200.00
00911              66.00    13400.00
00912              66.00    13400.00
00913              82.00    13400.00
00914              68.00    13400.00
00915              58.00    13600.00
00916              84.00    13400.00
00917              84.00    13600.00
00918              62.00    13400.00
00919              72.00    13600.00
00920              90.00    13400.00
00921              76.00    13400.00
00922              64.00    13400.00
00923              82.00    13400.00
00924              90.00    13400.00
00925              74.00    13400.00
00926              70.00    13200.00
00927              82.00    13400.00
00928              74.00    13200.00
00929              70.00    13200.00
00930              82.00    13200.00
00931              90.00    13000.00
00932              92.00    13000.00
00933              98.00    12800.00
00934              84.00    12800.00
00935              46.00    12800.00
00936              42.00    12600.00
00937              78.00    12600.00
00938              86.00    12600.00
00939              58.00    12400.00
00940              42.00    12400.00
00941              52.00    12200.00
00942              62.00    12200.00
00943              58.00    12000.00
00944              56.00    12000.00
00945              46.00    11800.00
00946              42.00    11600.00
00947              54.00    11600.00
00948              58.00    11400.00
00949              42.00    11200.00
00950              40.00    11000.00
00951              50.00    10800.00
00952              50.00    10800.00
00953              36.00    10800.00
00954              36.00    10400.00
00955              44.00    10200.00
00956              42.00    10200.00
00957              38.00    10000.00
00958              38.00     9800.00
00959              34.00     9600.00
00960              30.00     9600.00
00961              36.00     9400.00
00962              36.00     9200.00
00963              26.00     9000.00
00964              22.00     8800.00
00965              34.00     8600.00
00966              32.00     8400.00
00967              20.00     8000.00
00968              20.00     7800.00
00969              30.00     7800.00
00970              30.00     7600.00
00971              24.00     7200.00
00972              20.00     7000.00
00973              14.00     6800.00
00974              18.00     6800.00
00975              22.00     6400.00
00976              22.00     6200.00
00977              18.00     6000.00
00978              12.00     5800.00
00979              14.00     5600.00
00980              12.00     5400.00
00981              12.00     5000.00
00982              18.00     4800.00
00983              18.00     4400.00
00984               8.00     4400.00
00985               6.00     4000.00
00986               8.00     3600.00
00987              10.00     3600.00
00988              12.00     3400.00
00989              10.00     3000.00
00990               6.00     3000.00
00991               4.00     2600.00
00992               4.00     2400.00
00993               4.00     2200.00
00994               4.00     1800.00
00995               4.00     1600.00
00996               6.00     1400.00
00997               4.00     1200.00
00998               4.00      800.00
00999              -2.00      600.00
01000              -2.00      400.00
01001               4.00        0.00
01002              10.00        0.00
01003              18.00     -400.00
01004              50.00     -600.00
01005              24.00     -800.00
01006             -22.00    -1000.00
01007             -28.00    -1200.00
01008              16.00    -1400.00
01009              34.00    -1800.00
01010              78.00    -2000.00
01011             250.00    -2000.00
01012             250.00    -2800.00
01013            -250.00    -3200.00
01014            -250.00    -3200.00
01015             -28.00    -3600.00
01016             250.00    -3400.00
01017             132.00    -3600.00
01018             250.00    -3600.00
01019            -178.00    -4600.00
01020            -250.00    -4000.00
01021             250.00    -5000.00
01022             250.00    -5000.00
01023             -78.00    -4400.00
01024              24.00    -6000.00
01025            -250.00    -5600.00
01026             132.00    -5800.00
01027             162.00    -6600.00
01028            -250.00    -5800.00
01029              98.00    -7000.00
01030              10.00    -6800.00
01031             -18.00    -6800.00
01032              26.00    -7800.00
01033            -172.00    -7000.00
01034              28.00    -8000.00
01035               2.00    -8000.00
01036              26.00    -8000.00
01037             -36.00    -8800.00
01038            -166.00    -8200.00
01039              50.00    -9000.00
01040               2.00    -8800.00
01041             -42.00    -9000.00
01042             -66.00    -9600.00
01043             -78.00    -9200.00
01044              52.00    -9600.00
01045             -26.00    -9800.00
01046             -92.00   -10000.00
01047             -58.00   -10400.00
01048             -42.00   -10000.00
01049               2.00   -10600.00
01050             -12.00   -10600.00
01051             -74.00   -10800.00
01052             -98.00   -11000.00
01053             -62.00   -11000.00
01054              20.00   -11400.00
01055             -10.00   -11200.00
01056            -106.00   -11600.00
01057             -80.00   -11600.00
01058             -50.00   -11600.00
01059             -30.00   -12000.00
01060             -44.00   -12000.00
01061             -62.00   -12000.00
01062             -62.00   -12200.00
01063             -84.00   -12200.00
01064             -50.00   -12400.00
01065             -42.00   -12600.00
01066             -78.00   -12400.00
01067             -70.00   -12800.00
01068             -62.00   -12800.00
01069             -62.00   -12800.00
01070             -84.00   -12800.00
01071             -74.00   -13000.00
01072             -54.00   -13200.00
01073             -78.00   -13200.00
01074             -84.00   -13200.00
01075             -74.00   -13200.00
01076             -78.00   -13200.00
01077             -68.00   -13200.00
01078             -70.00   -13200.00
01079             -80.00   -13400.00
01080             -94.00   -13200.00
01081             -84.00   -13200.00
01082             -56.00   -13400.00
01083             -82.00   -13600.00
01084            -102.00   -13400.00
01085             -84.00   -13400.00
01086             -70.00   -13200.00
01087             -82.00   -13600.00
01088             -94.00   -13400.00
01089             -86.00   -13200.00
01090             -86.00   -13400.00
01091             -86.00   -13200.00
01092             -74.00   -13200.00
01093             -86.00   -13200.00
01094             -96.00   -13200.00
01095             -86.00   -13200.00
01096             -74.00   -13000.00
01097             -86.00   -13000.00
01098            -112.00   -13000.00
01099            -108.00   -13000.00
01100             -86.00   -12800.00
01101             -70.00   -12800.00
01102             -60.00   -12800.00
01103             -70.00   -12600.00
01104             -76.00   -12600.00
01105             -70.00   -12400.00
01106             -60.00   -12200.00
01107             -60.00   -12400.00
01108             -76.00   -12000.00
01109             -62.00   -12000.00
01110             -52.00   -12000.00
01111             -60.00   -11800.00
01112             -66.00   -11600.00
01113             -60.00   -11400.00
01114             -52.00   -11400.00
01115             -56.00   -11000.00
01116             -56.00   -11000.00
01117             -48.00   -11000.00
01118             -52.00   -10800.00
01119             -46.00   -10800.00
01120             -48.00   -10400.00
01121             -52.00   -10200.00
01122             -46.00   -10200.00
01123             -42.00   -10000.00
01124             -38.00    -9800.00
01125             -46.00    -9600.00
01126             -52.00    -9400.00
01127             -36.00    -9200.00
01128             -36.00    -9200.00
01129             -38.00    -9000.00
01130             -42.00    -8800.00
01131             -38.00    -8600.00
01132             -34.00    -8400.00
01133             -34.00    -8200.00
01134             -34.00    -8000.00
01135             -38.00    -7800.00
01136             -34.00    -7400.00
01137             -22.00    -7200.00
01138             -28.00    -7200.00
01139             -36.00    -6800.00
01140             -34.00    -6600.00
01141             -22.00    -6600.00
01142             -20.00    -6200.00
01143             -28.00    -6000.00
01144             -28.00    -5600.00
01145             -26.00    -5600.00
01146             -22.00    -5600.00
01147             -22.00    -5000.00
01148             -26.00    -4800.00
01149             -22.00    -4600.00
01150             -18.00    -4400.00
01151             -14.00    -4200.00
01152             -18.00    -3800.00
01153             -22.00    -3600.00
01154             -22.00    -3600.00
01155             -14.00    -3200.00
01156             -14.00    -2800.00
01157             -18.00    -2600.00
01158             -18.00    -2400.00
01159             -12.00    -2200.00
01160             -12.00    -2000.00
01161             -10.00    -1600.00
01162             -10.00    -1400.00
01163             -12.00    -1200.00
01164             -14.00    -1000.00
01165             -10.00     -800.00
01166              -8.00     -400.00
01167             -10.00     -200.00
01168              -6.00        0.00
01169              12.00      400.00
01170              42.00      600.00
01171              26.00      600.00
01172             -20.00     1200.00
01173             -34.00     1200.00
01174               4.00     1600.00
01175              28.00     1800.00
01176              30.00     2000.00
01177              86.00     2200.00
01178             250.00     2800.00
01179             180.00     2800.00
01180            -250.00     3000.00
01181            -250.00     3200.00
01182             170.00     3600.00
01183             250.00     3800.00
01184            -100.00     4000.00
01185            -170.00     4000.00
01186             250.00     4400.00
01187             -74.00     4400.00
01188             -90.00     5000.00
01189             106.00     5200.00
01190             -20.00     5400.00
01191             130.00     5800.00
01192              12.00     5400.00
01193            -116.00     6000.00
01194               6.00     6400.00
01195              -6.00     6400.00
01196             106.00     6800.00
01197              78.00     6800.00
01198             -98.00     7200.00
01199              -4.00     7200.00
01200             106.00     7600.00
01201              52.00     8200.00
01202             -62.00     7800.00
01203              20.00     8400.00
01204              98.00     8600.00
01205             -12.00     8600.00
01206              -2.00     8800.00
01207              38.00     9000.00
01208              26.00     9200.00
01209              22.00     9400.00
01210              50.00     9600.00
01211              66.00     9800.00
01212               6.00    10000.00
01213               2.00    10000.00
01214              66.00    10200.00
01215              52.00    10400.00
01216               6.00    10400.00
01217              54.00    10800.00
01218              66.00    10800.00
01219               6.00    11000.00
01220              14.00    11000.00
01221              84.00    11200.00
01222              74.00    11600.00
01223              10.00    11600.00
01224              38.00    11600.00
01225              68.00    12000.00
01226              46.00    12000.00
01227              44.00    12000.00
01228              66.00    12200.00
01229              54.00    12400.00
01230              36.00    12400.00
01231              66.00    12400.00
01232              80.00    12600.00
01233              44.00    12600.00
01234              42.00    12800.00
01235              74.00    12800.00
01236              62.00    12800.00
01237              48.00    13000.00
01238              78.00    13000.00
01239              88.00    13200.00
01240              50.00    13200.00
01241              50.00    13200.00
01242              84.00    13200.00
01243              82.00    13400.00
01244              60.00    13200.00
01245              68.00    13200.00
01246              76.00    13200.00
01247              64.00    13200.00
01248              70.00    13400.00
01249              92.00    13400.00
01250              70.00    13400.00
01251              58.00    13400.00
01252              84.00    13400.00
01253              94.00    13400.00
01254              70.00    13400.00
01255              66.00    13400.00
01256              84.00    13400.00
01257              82.00    13400.00
01258              76.00    13400.00
01259              84.00    13400.00
01260              82.00    13200.00
01261              66.00    13200.00
01262              70.00    13200.00
01263              90.00    13000.00
01264              98.00    13000.00
01265              98.00    12800.00
01266              92.00    12800.00
01267              62.00    12800.00
01268              38.00    12800.00
01269              64.00    12600.00
01270              86.00    12600.00
01271              72.00    12600.00
01272              42.00    12400.00
01273              44.00    12400.00
01274              60.00    12200.00
01275              66.00    12000.00
01276              58.00    11800.00
01277              50.00    11800.00
01278              38.00    11600.00
01279              48.00    11800.00
01280              60.00    11400.00
01281              54.00    11200.00
01282              36.00    11000.00
01283              40.00    11000.00
01284              52.00    10800.00
01285              46.00    10800.00
01286              34.00    10600.00
01287              36.00    10400.00
01288              40.00    10200.00
01289              38.00    10000.00
01290              40.00    10000.00
01291              36.00     9600.00
01292              26.00     9600.00
01293              28.00     9400.00
01294              36.00     9200.00
01295              34.00     9200.00
01296              26.00     8800.00
01297              28.00     8600.00
01298              30.00     8400.00
01299              26.00     8200.00
01300              20.00     8000.00
01301              26.00     7800.00
01302              30.00     7800.00
01303              26.00     7200.00
01304              22.00     7200.00
01305              18.00     6800.00
01306              14.00     6800.00
01307              20.00     6400.00
01308              22.00     6200.00
01309              20.00     6200.00
01310              14.00     6000.00
01311              14.00     5600.00
01312              16.00     5400.00
01313              12.00     5200.00
01314              10.00     4800.00
01315              16.00     4600.00
01316              14.00     4400.00
01317              10.00     4400.00
01318               8.00     4000.00
01319              10.00     3800.00
01320              12.00     3600.00
01321              10.00     3200.00
01322               8.00     3000.00
01323               4.00     2800.00
01324               4.00     2600.00
01325               6.00     2200.00
01326               6.00     2000.00
01327               2.00     1800.00
01328               2.00     1400.00
01329               2.00     1200.00
01330               4.00     1000.00
01331               2.00      600.00
01332               0.00      400.00
01333              -2.00      200.00
01334               4.00        0.00
01335              12.00     -200.00
01336              30.00     -400.00
01337              50.00     -800.00
01338               4.00     -800.00
01339             -36.00    -1200.00
01340             -12.00    -1400.00
01341              26.00    -1600.00
01342              46.00    -1800.00
01343             154.00    -2000.00
01344             250.00    -2400.00
01345             -50.00    -3000.00
01346            -250.00    -3200.00
01347            -250.00    -3400.00
01348             250.00    -3400.00
01349             250.00    -3400.00
01350             170.00    -3400.00
01351             244.00    -4200.00
01352            -250.00    -4400.00
01353            -220.00    -4400.00
01354             250.00    -5600.00
01355              -4.00    -4400.00
01356              18.00    -5200.00
01357            -152.00    -6000.00
01358            -210.00    -5200.00
01359             250.00    -6400.00
01360            -142.00    -6000.00
01361            -148.00    -6200.00
01362             132.00    -7200.00
01363             -68.00    -6200.00
01364              66.00    -7400.00
01365            -108.00    -7400.00
01366            -100.00    -7200.00
01367              60.00    -8200.00
01368             -18.00    -7600.00
01369              46.00    -8400.00
01370            -140.00    -8400.00
01371             -76.00    -8400.00
01372              60.00    -9200.00
01373             -40.00    -8400.00
01374             -26.00    -9200.00
01375            -100.00    -9200.00
01376             -12.00    -9200.00
01377              42.00    -9800.00
01378             -74.00    -9800.00
01379             -72.00   -10200.00
01380             -50.00   -10000.00
01381             -26.00   -10400.00
01382               2.00   -10600.00
01383             -42.00   -10400.00
01384             -86.00   -10800.00
01385             -86.00   -11000.00
01386             -28.00   -11200.00
01387              24.00   -11000.00
01388             -62.00   -11200.00
01389            -102.00   -11600.00
01390             -60.00   -11600.00
01391             -42.00   -12000.00
01392             -32.00   -12000.00
01393             -62.00   -12000.00
01394             -58.00   -12200.00
01395             -70.00   -12400.00
01396             -68.00   -12400.00
01397             -30.00   -12400.00
01398             -62.00   -12400.00
01399             -78.00   -12800.00
01400             -68.00   -12800.00
01401             -58.00   -12800.00
01402             -70.00   -12800.00
01403             -84.00   -13000.00
01404             -60.00   -13000.00
01405             -60.00   -13000.00
01406             -84.00   -13200.00
01407             -76.00   -13200.00
01408             -76.00   -13000.00
01409             -74.00   -13200.00
01410             -70.00   -13400.00
01411             -76.00   -13200.00
01412             -84.00   -13200.00
01413             -94.00   -13400.00
01414             -68.00   -13400.00
01415             -60.00   -13200.00
01416             -94.00   -13200.00
01417             -92.00   -13400.00
01418             -76.00   -13200.00
01419             -70.00   -13400.00
01420             -90.00   -13400.00
01421             -94.00   -13600.00
01422             -84.00   -13600.00
01423             -84.00   -13400.00
01424             -78.00   -13400.00
01425             -82.00   -13400.00
01426             -94.00   -13200.00
01427             -90.00   -13200.00
01428             -78.00   -13200.00
01429             -78.00   -13000.00
01430            -100.00   -13200.00
01431            -118.00   -13000.00
01432             -94.00   -12800.00
01433             -74.00   -12800.00
01434             -66.00   -12800.00
01435             -68.00   -12600.00
01436             -76.00   -12800.00
01437             -74.00   -12600.00
01438             -62.00   -12400.00
01439             -56.00   -12400.00
01440             -68.00   -12200.00
01441             -74.00   -12000.00
01442             -58.00   -12000.00
01443             -54.00   -12000.00
01444             -60.00   -11600.00
01445             -66.00   -11600.00
01446             -58.00   -11400.00
01447             -50.00   -11400.00
01448             -54.00   -11200.00
01449             -52.00   -10800.00
01450             -50.00   -10800.00
01451             -50.00   -10800.00
01452             -46.00   -10800.00
01453             -50.00   -10400.00
01454             -50.00   -10200.00
01455             -44.00   -10000.00
01456             -40.00   -10000.00
01457             -38.00    -9600.00
01458             -50.00    -9600.00
01459             -44.00    -9400.00
01460             -34.00    -9200.00
01461             -36.00    -9000.00
01462             -40.00    -8800.00
01463             -38.00    -8800.00
01464             -36.00    -8600.00
01465             -34.00    -8200.00
01466             -36.00    -8000.00
01467             -34.00    -8000.00
01468             -32.00    -7600.00
01469             -28.00    -7400.00
01470             -26.00    -7200.00
01471             -30.00    -7000.00
01472             -34.00    -6800.00
01473             -28.00    -6600.00
01474             -14.00    -6400.00
01475             -22.00    -6200.00
01476             -30.00    -6000.00
01477             -28.00    -5800.00
01478             -22.00    -5400.00
01479             -20.00    -5200.00
01480             -22.00    -5000.00
01481             -26.00    -4600.00
01482             -20.00    -4400.00
01483             -14.00    -4200.00
01484             -22.00    -4200.00
01485             -18.00    -3800.00
01486             -20.00    -3400.00
01487             -14.00    -3400.00
01488             -12.00    -3000.00
01489             -16.00    -2800.00
01490             -22.00    -2600.00
01491             -18.00    -2400.00
01492             -12.00    -2200.00
01493              -8.00    -1800.00
01494             -10.00    -1600.00
01495             -12.00    -1400.00
01496             -10.00    -1000.00
01497             -10.00     -800.00
01498             -12.00     -600.00
01499             -10.00     -200.00
01500              -6.00        0.00
01501               2.00      200.00
01502              22.00      400.00
01503              44.00      600.00
01504              -2.00      800.00
01505             -36.00     1000.00
01506             -18.00     1200.00
01507              24.00     1600.00
01508              26.00     1800.00
01509              40.00     2000.00
01510             192.00     2200.00
01511             250.00     3000.00
01512            -156.00     2800.00
01513            -250.00     3200.00
01514            -250.00     3200.00
01515             250.00     3600.00
01516             250.00     3800.00
01517            -250.00     4000.00
01518             126.00     4200.00
01519             186.00     4400.00
01520            -180.00     4800.00
01521              54.00     5200.00
01522              38.00     4800.00
01523              28.00     5600.00
01524             128.00     5600.00
01525            -102.00     5600.00
01526             -52.00     6400.00
01527              14.00     6200.00
01528              24.00     6600.00
01529             146.00     6800.00
01530             -28.00     7000.00
01531             -80.00     7200.00
01532              66.00     7400.00
01533             102.00     7800.00
01534             -18.00     8200.00
01535             -44.00     8000.00
01536              84.00     8400.00
01537              46.00     8600.00
01538             -28.00     8800.00
01539              26.00     8800.00
01540              36.00     9200.00
01541              20.00     9400.00
01542              34.00     9200.00
01543              60.00     9600.00
01544              42.00     9600.00
01545             -12.00    10000.00
01546              36.00    10000.00
01547              74.00    10400.00
01548              22.00    10600.00
01549              22.00    10600.00
01550              68.00    10800.00
01551              38.00    11000.00
01552              -2.00    11000.00
01553              44.00    11200.00
01554              90.00    11600.00
01555              38.00    11600.00
01556              12.00    11600.00
01557              62.00    11800.00
01558              62.00    12000.00
01559              36.00    12000.00
01560              50.00    12000.00
01561              62.00    12400.00
01562              46.00    12200.00
01563              50.00    12400.00
01564              84.00    12600.00
01565              60.00    12600.00
01566              30.00    12600.00
01567              64.00    12800.00
01568              76.00    12800.00
01569              54.00    12800.00
01570              58.00    13000.00
01571              84.00    13000.00
01572              66.00    13200.00
01573              42.00    13200.00
01574              70.00    13200.00
01575              92.00    13200.00
01576              68.00    13400.00
01577              60.00    13200.00
01578              74.00    13400.00
01579              74.00    13400.00
01580              68.00    13400.00
01581              84.00    13400.00
01582              84.00    13600.00
01583              60.00    13400.00
01584              70.00    13400.00
01585              94.00    13400.00
01586              84.00    13400.00
01587              66.00    13400.00
01588              76.00    13400.00
01589              86.00    13200.00
01590              78.00    13400.00
01591              76.00    13400.00
01592              82.00    13400.00
01593              70.00    13200.00
01594              70.00    13200.00
01595              86.00    13000.00
01596              98.00    13200.00
01597              94.00    12800.00
01598              98.00    13000.00
01599              84.00    12800.00
01600              52.00    12800.00
01601              46.00    12600.00
01602              76.00    12600.00
01603              84.00    12600.00
01604              58.00    12400.00
01605              42.00    12400.00
01606              54.00    12400.00
01607              64.00    12000.00
01608              62.00    12000.00
01609              58.00    12000.00
01610              44.00    11800.00
01611              42.00    11600.00
01612              54.00    11600.00
01613              58.00    11400.00
01614              42.00    11200.00
01615              38.00    11000.00
01616              46.00    10800.00
01617              52.00    10800.00
01618              38.00    10600.00
01619              30.00    10400.00
01620              38.00    10400.00
01621              42.00    10200.00
01622              42.00    10000.00
01623              36.00     9800.00
01624              28.00     9600.00
01625              26.00     9600.00
01626              34.00     9200.00
01627              34.00     9000.00
01628              28.00     9000.00
01629              26.00     8800.00
01630              34.00     8400.00
01631              34.00     8400.00
01632              18.00     8000.00
01633              18.00     8000.00
01634              26.00     7800.00
01635              30.00     7600.00
01636              22.00     7200.00
01637              18.00     7000.00
01638              18.00     6800.00
01639              14.00     6600.00
01640              22.00     6400.00
01641              20.00     6200.00
01642              18.00     6000.00
01643              12.00     5600.00
01644              12.00     5600.00
01645              12.00     5200.00
01646              12.00     5200.00
01647              14.00     4800.00
01648              18.00     4600.00
01649              18.00     4400.00
01650              12.00     4000.00
01651               4.00     3800.00
01652               4.00     3600.00
01653              12.00     3400.00
01654              18.00     3200.00
01655               8.00     3000.00
01656               2.00     2800.00
01657               2.00     2400.00
01658              10.00     2200.00
01659              10.00     2000.00
01660               4.00     1600.00
01661               0.00     1400.00
01662               4.00     1200.00
01663               6.00      800.00
01664               4.00      600.00
01665              -2.00      400.00
01666              -4.00        0.00
01667               4.00     -200.00
01668              18.00     -200.00
01669              48.00     -400.00
01670              30.00     -800.00
01671             -22.00    -1000.00
01672             -30.00    -1200.00
01673              12.00    -1600.00
01674              36.00    -1600.00
01675              68.00    -2000.00
01676             250.00    -2200.00
01677             250.00    -2800.00
01678            -250.00    -3000.00
01679            -250.00    -3200.00
01680             -84.00    -3400.00
01681             250.00    -3400.00
01682             146.00    -3400.00
01683             250.00    -3800.00
01684            -126.00    -4600.00
01685            -250.00    -4200.00
01686             242.00    -5000.00
01687             250.00    -5200.00
01688             -84.00    -4400.00
01689              34.00    -5800.00
01690            -250.00    -5600.00
01691              98.00    -5800.00
01692             194.00    -6400.00
01693            -250.00    -5600.00
01694              70.00    -6800.00
01695              26.00    -6800.00
01696             -22.00    -6600.00
01697              34.00    -8000.00
01698            -182.00    -6800.00
01699              18.00    -7800.00
01700              18.00    -8000.00
01701              20.00    -8000.00
01702             -22.00    -8800.00
01703            -174.00    -8200.00
01704              30.00    -8800.00
01705               6.00    -9000.00
01706             -34.00    -9000.00
01707             -54.00    -9600.00
01708             -90.00    -9000.00
01709              42.00    -9600.00
01710             -12.00    -9800.00
01711             -86.00    -9800.00
01712             -58.00   -10400.00
01713             -42.00   -10000.00
01714              -6.00   -10600.00
01715             -12.00   -10600.00
01716             -68.00   -10800.00
01717             -90.00   -11000.00
01718             -70.00   -10800.00
01719              10.00   -11200.00
01720              -2.00   -11000.00
01721             -98.00   -11400.00
01722             -82.00   -11600.00
01723             -54.00   -11600.00
01724             -28.00   -11800.00
01725             -44.00   -12000.00
01726             -66.00   -12000.00
01727             -58.00   -12200.00
01728             -78.00   -12400.00
01729             -46.00   -12400.00
01730             -38.00   -12600.00
01731             -76.00   -12600.00
01732             -74.00   -12800.00
01733             -62.00   -12800.00
01734             -62.00   -12800.00
01735             -84.00   -13000.00
01736             -76.00   -13000.00
01737             -52.00   -13200.00
01738             -74.00   -13000.00
01739             -88.00   -13200.00
01740             -76.00   -13200.00
01741             -78.00   -13200.00
01742             -70.00   -13200.00
01743             -74.00   -13400.00
01744             -76.00   -13200.00
01745             -94.00   -13400.00
01746             -86.00   -13200.00
01747             -54.00   -13400.00
01748             -78.00   -13400.00
01749             -98.00   -13600.00
01750             -88.00   -13400.00
01751             -74.00   -13400.00
01752             -76.00   -13600.00
01753             -94.00   -13400.00
01754             -92.00   -13200.00
01755             -84.00   -13200.00
01756             -86.00   -13400.00
01757             -74.00   -13200.00
01758             -86.00   -13200.00
01759             -98.00   -13200.00
01760             -86.00   -13200.00
01761             -78.00   -13000.00
01762             -86.00   -13000.00
01763            -110.00   -13000.00
01764            -108.00   -12800.00
01765             -86.00   -12800.00
01766             -70.00   -12800.00
01767             -60.00   -12800.00
01768             -70.00   -12800.00
01769             -76.00   -12600.00
01770             -70.00   -12600.00
01771             -60.00   -12400.00
01772             -60.00   -12400.00
01773             -74.00   -12200.00
01774             -64.00   -12000.00
01775             -54.00   -12000.00
01776             -58.00   -11800.00
01777             -62.00   -11600.00
01778             -62.00   -11600.00
01779             -52.00   -11400.00
01780             -52.00   -11200.00
01781             -54.00   -11000.00
01782             -50.00   -10800.00
01783             -52.00   -10800.00
01784             -50.00   -10600.00
01785             -50.00   -10400.00
01786             -46.00   -10400.00
01787             -46.00   -10400.00
01788             -44.00   -10000.00
01789             -42.00    -9800.00
01790             -46.00    -9800.00
01791             -48.00    -9400.00
01792             -36.00    -9200.00
01793             -36.00    -9000.00
01794             -40.00    -9000.00
01795             -42.00    -8800.00
01796             -36.00    -8400.00
01797             -30.00    -8400.00
01798             -36.00    -8200.00
01799             -36.00    -8000.00
01800             -36.00    -7800.00
01801             -30.00    -7600.00
01802             -22.00    -7400.00
01803             -28.00    -7200.00
01804             -36.00    -6800.00
01805             -30.00    -6600.00
01806             -22.00    -6400.00
01807             -18.00    -6200.00
01808             -28.00    -6000.00
01809             -30.00    -5800.00
01810             -28.00    -5600.00
01811             -22.00    -5400.00
01812             -22.00    -5200.00
01813             -26.00    -4600.00
01814             -22.00    -4600.00
01815             -18.00    -4400.00
01816             -22.00    -4200.00
01817             -22.00    -4000.00
01818             -20.00    -3600.00
01819             -18.00    -3400.00
01820             -12.00    -3000.00
01821             -18.00    -3000.00
01822             -20.00    -2800.00
01823             -18.00    -2400.00
01824              -8.00    -2400.00
01825             -12.00    -2000.00
01826             -12.00    -1800.00
01827             -12.00    -1600.00
01828              -8.00    -1200.00
01829             -10.00    -1000.00
01830             -12.00     -600.00
01831             -16.00     -400.00
01832             -12.00     -200.00
01833               0.00        0.00
01834               6.00      200.00
01835              36.00      600.00
01836              26.00      600.00
01837             -12.00      800.00
01838             -18.00     1200.00
01839              14.00     1600.00
01840              34.00     1600.00
01841              20.00     1800.00
01842              68.00     2000.00
01843             250.00     2600.00
01844             202.00     3000.00
01845            -250.00     3000.00
01846            -250.00     3200.00
01847             122.00     3400.00
01848             250.00     3800.00
01849             -42.00     4000.00
01850            -192.00     4000.00
01851             250.00     4400.00
01852             -58.00     4400.00
01853            -122.00     4800.00
01854              94.00     5000.00
01855             -26.00     5200.00
01856             118.00     5800.00
01857              36.00     5600.00
01858            -102.00     6200.00
01859              18.00     6600.00
01860              -2.00     6400.00
01861              98.00     6800.00
01862              90.00     6800.00
01863            -102.00     7200.00
01864             -22.00     7200.00
01865              94.00     7600.00
01866              52.00     8000.00
01867             -54.00     7800.00
01868              20.00     8200.00
01869             108.00     8600.00
01870              -2.00     8600.00
01871               2.00     8800.00
01872              40.00     9000.00
01873              22.00     9200.00
01874              12.00     9400.00
01875              38.00     9600.00
01876              58.00     9600.00
01877              10.00     9800.00
01878               2.00    10000.00
01879              66.00    10200.00
01880              58.00    10400.00
01881              10.00    10400.00
01882              52.00    10600.00
01883              60.00    10800.00
01884               4.00    10800.00
01885               2.00    11200.00
01886              74.00    11200.00
01887              78.00    11600.00
01888              18.00    11600.00
01889              40.00    11600.00
01890              70.00    12000.00
01891              44.00    12000.00
01892              38.00    12000.00
01893              58.00    12000.00
01894              54.00    12400.00
01895              30.00    12200.00
01896              62.00    12600.00
01897              82.00    12600.00
01898              44.00    12600.00
01899              50.00    12600.00
01900              78.00    12800.00
01901              62.00    12800.00
01902              44.00    12800.00
01903              70.00    13000.00
01904              86.00    13200.00
01905              50.00    13200.00
01906              44.00    13200.00
01907              84.00    13200.00
01908              84.00    13200.00
01909              66.00    13200.00
01910              74.00    13400.00
01911              76.00    13400.00
01912              62.00    13400.00
01913              68.00    13400.00
01914              92.00    13400.00
01915              74.00    13400.00
01916              60.00    13400.00
01917              82.00    13400.00
01918              92.00    13400.00
01919              74.00    13400.00
01920              70.00    13200.00
01921              90.00    13400.00
01922              84.00    13400.00
01923              68.00    13400.00
01924              80.00    13200.00
01925              78.00    13200.00
01926              70.00    13200.00
01927              78.00    13200.00
01928              92.00    13200.00
01929              94.00    13200.00
01930              94.00    12800.00
01931              98.00    12800.00
01932              68.00    12800.00
01933              40.00    12600.00
01934              58.00    12600.00
01935              86.00    12600.00
01936              74.00    12600.00
01937              44.00    12400.00
01938              50.00    12400.00
01939              56.00    12200.00
01940              62.00    12000.00
01941              64.00    12000.00
01942              52.00    11800.00
01943              36.00    11600.00
01944              46.00    11600.00
01945              58.00    11200.00
01946              46.00    11200.00
01947              36.00    11200.00
01948              42.00    11000.00
01949              54.00    10800.00
01950              46.00    10800.00
01951              30.00    10600.00
01952              32.00    10400.00
01953              38.00    10200.00
01954              44.00    10000.00
01955              42.00     9800.00
01956              30.00     9600.00
01957              20.00     9400.00
01958              26.00     9400.00
01959              46.00     9200.00
01960              42.00     9200.00
01961              22.00     8800.00
01962              12.00     8600.00
01963              26.00     8400.00
01964              34.00     8200.00
01965              30.00     8000.00
01966              26.00     7800.00
01967              20.00     7600.00
01968              18.00     7200.00
01969              22.00     7200.00
01970              28.00     6800.00
01971              26.00     6800.00
01972              18.00     6600.00
01973              14.00     6200.00
01974              18.00     6200.00
01975              20.00     6000.00
01976              20.00     5600.00
01977              18.00     5400.00
01978              10.00     5200.00
01979               8.00     4800.00
01980              18.00     4600.00
01981              18.00     4400.00
01982              14.00     4400.00
01983              10.00     4000.00
01984               2.00     3800.00
01985               6.00     3600.00
01986              12.00     3200.00
01987              18.00     3000.00
01988              10.00     2800.00
01989              -4.00     2400.00
01990              -4.00     2400.00
01991              10.00     2000.00
01992              12.00     1800.00
01993              10.00     1600.00
01994               4.00     1200.00
01995              -2.00     1000.00
01996              -4.00      800.00
01997               2.00      400.00
01998               4.00      200.00
01999               6.00        0.00
02000              10.00     -200.00
02001              26.00     -400.00
02002              46.00     -600.00
02003               6.00    -1000.00
02004             -30.00    -1000.00
02005             -14.00    -1200.00
02006              24.00    -1600.00
02007              44.00    -1800.00
02008             136.00    -2000.00
02009             250.00    -2400.00
02010              -6.00    -3000.00
02011            -250.00    -3200.00
02012            -250.00    -3400.00
02013             250.00    -3400.00
02014             250.00    -3600.00
02015             156.00    -3600.00
02016             250.00    -4200.00
02017            -250.00    -4400.00
02018            -250.00    -4200.00
02019             250.00    -5600.00
02020              22.00    -4600.00
02021              10.00    -5200.00
02022            -126.00    -6000.00
02023            -236.00    -5000.00
02024             250.00    -6400.00
02025            -106.00    -6200.00
02026            -174.00    -6000.00
02027             136.00    -7200.00
02028             -68.00    -6400.00
02029              66.00    -7400.00
02030             -90.00    -7600.00
02031            -116.00    -7200.00
02032              60.00    -8200.00
02033             -18.00    -7800.00
02034              46.00    -8400.00
02035            -130.00    -8400.00
02036             -92.00    -8400.00
02037              62.00    -9200.00
02038             -38.00    -8600.00
02039             -22.00    -9200.00
02040             -94.00    -9600.00
02041             -26.00    -9200.00
02042              44.00   -10000.00
02043             -66.00    -9600.00
02044             -74.00   -10200.00
02045             -50.00   -10000.00
02046             -26.00   -10400.00
02047              -2.00   -10600.00
02048             -38.00   -10600.00
02049             -82.00   -10800.00
02050             -86.00   -10800.00
02051             -36.00   -11200.00
02052              26.00   -11400.00
02053             -54.00   -11400.00
02054            -100.00   -11600.00
02055             -62.00   -11600.00
02056             -44.00   -11800.00
02057             -30.00   -11800.00
02058             -60.00   -12000.00
02059             -54.00   -12200.00
02060             -68.00   -12400.00
02061             -76.00   -12400.00
02062             -36.00   -12400.00
02063             -60.00   -12600.00
02064             -76.00   -12600.00
02065             -68.00   -12800.00
02066             -56.00   -12800.00
02067             -70.00   -13000.00
02068             -86.00   -13000.00
02069             -60.00   -13000.00
02070             -58.00   -13200.00
02071             -86.00   -13200.00
02072             -84.00   -13200.00
02073             -80.00   -13200.00
02074             -74.00   -13200.00
02075             -70.00   -13200.00
02076             -76.00   -13200.00
02077             -86.00   -13600.00
02078             -98.00   -13400.00
02079             -72.00   -13600.00
02080             -62.00   -13400.00
02081             -92.00   -13600.00
02082             -92.00   -13400.00
02083             -82.00   -13600.00
02084             -74.00   -13200.00
02085             -86.00   -13400.00
02086             -92.00   -13400.00
02087             -84.00   -13200.00
02088             -88.00   -13200.00
02089             -82.00   -13400.00
02090             -76.00   -13200.00
02091             -92.00   -13200.00
02092             -92.00   -13200.00
02093             -82.00   -13200.00
02094             -76.00   -13200.00
02095            -100.00   -13000.00
02096            -114.00   -13000.00
02097             -98.00   -12800.00
02098             -78.00   -12800.00
02099             -68.00   -12800.00
02100             -66.00   -12800.00
02101             -72.00   -12600.00
02102             -70.00   -12800.00
02103             -66.00   -12400.00
02104             -60.00   -12200.00
02105             -66.00   -12200.00
02106             -74.00   -12000.00
02107             -58.00   -12000.00
02108             -54.00   -12000.00
02109             -62.00   -11800.00
02110             -62.00   -11600.00
02111             -54.00   -11400.00
02112             -46.00   -11200.00
02113             -54.00   -11000.00
02114             -52.00   -10800.00
02115             -46.00   -10800.00
02116             -50.00   -10800.00
02117             -46.00   -10600.00
02118             -46.00   -10400.00
02119             -50.00   -10400.00
02120             -42.00   -10000.00
02121             -38.00   -10000.00
02122             -38.00    -9800.00
02123             -50.00    -9600.00
02124             -42.00    -9600.00
02125             -34.00    -9200.00
02126             -38.00    -9200.00
02127             -42.00    -8800.00
02128             -42.00    -8600.00
02129             -34.00    -8400.00
02130             -32.00    -8400.00
02131             -38.00    -8000.00
02132             -34.00    -8000.00
02133             -36.00    -7800.00
02134             -30.00    -7400.00
02135             -26.00    -7200.00
02136             -32.00    -7000.00
02137             -34.00    -6800.00
02138             -28.00    -6600.00
02139             -20.00    -6400.00
02140             -26.00    -6000.00
02141             -34.00    -5800.00
02142             -28.00    -5600.00
02143             -20.00    -5600.00
02144             -22.00    -5200.00
02145             -26.00    -5000.00
02146             -28.00    -4800.00
02147             -22.00    -4400.00
02148             -16.00    -4400.00
02149             -20.00    -4000.00
02150             -20.00    -3600.00
02151             -24.00    -3600.00
02152             -16.00    -3400.00
02153             -10.00    -3000.00
02154             -18.00    -2800.00
02155             -18.00    -2600.00
02156             -18.00    -2400.00
02157             -12.00    -2000.00
02158             -10.00    -1800.00
02159             -10.00    -1600.00
02160             -10.00    -1400.00
02161             -12.00    -1000.00
02162             -12.00     -800.00
02163             -10.00     -600.00
02164             -10.00     -400.00
02165              -6.00        0.00
02166               4.00        0.00
02167              20.00      400.00
02168              38.00      800.00
02169               4.00      800.00
02170             -30.00     1000.00
02171             -18.00     1400.00
02172              22.00     1600.00
02173              26.00     1800.00
02174              36.00     2000.00
02175             174.00     2200.00
02176             250.00     2800.00
02177            -106.00     3000.00
02178            -250.00     3200.00
02179            -250.00     3400.00
02180             250.00     3600.00
02181             250.00     3800.00
02182            -250.00     4000.00
02183              90.00     4400.00
02184             210.00     4600.00
02185            -178.00     4800.00
02186              36.00     5200.00
02187              54.00     4800.00
02188              20.00     5800.00
02189             132.00     5600.00
02190             -90.00     5600.00
02191             -60.00     6400.00
02192              14.00     6200.00
02193              18.00     6600.00
02194             142.00     6800.00
02195             -18.00     7000.00
02196             -86.00     7400.00
02197              58.00     7400.00
02198             102.00     7800.00
02199             -10.00     8000.00
02200             -50.00     8000.00
02201              78.00     8600.00
02202              58.00     8600.00
02203             -28.00     8600.00
02204              22.00     8800.00
02205              36.00     9200.00
02206              14.00     9400.00
02207              28.00     9600.00
02208              60.00     9600.00
02209              50.00     9800.00
02210             -12.00    10000.00
02211              26.00    10200.00
02212              68.00    10200.00
02213              26.00    10400.00
02214              18.00    10400.00
02215              70.00    10800.00
02216              42.00    11000.00
02217              -6.00    11000.00
02218              38.00    11200.00
02219              90.00    11400.00
02220              44.00    11600.00
02221              10.00    11600.00
02222              54.00    11800.00
02223              60.00    11800.00
02224              38.00    12000.00
02225              52.00    12000.00
02226              66.00    12200.00
02227              44.00    12400.00
02228              44.00    12400.00
02229              78.00    12400.00
02230              66.00    12400.00
02231              34.00    12800.00
02232              58.00    12800.00
02233              78.00    12800.00
02234              54.00    12800.00
02235              58.00    12800.00
02236              84.00    13200.00
02237              70.00    13200.00
02238              42.00    13000.00
02239              66.00    13200.00
02240              90.00    13400.00
02241              70.00    13200.00
02242              66.00    13400.00
02243              78.00    13200.00
02244              74.00    13400.00
02245              66.00    13400.00
02246              82.00    13200.00
02247              86.00    13400.00
02248              66.00    13400.00
02249              70.00    13200.00
02250              90.00    13400.00
02251              78.00    13400.00
02252              68.00    13400.00
02253              78.00    13400.00
02254              94.00    13200.00
02255              78.00    13200.00
02256              68.00    13200.00
02257              82.00    13200.00
02258              76.00    13200.00
02259              72.00    13200.00
02260              82.00    13200.00
02261              92.00    13200.00
02262              96.00    13000.00
02263              98.00    12800.00
02264              84.00    12800.00
02265              52.00    12800.00
02266              42.00    12600.00
02267              76.00    12600.00
02268              84.00    12600.00
02269              60.00    12400.00
02270              42.00    12400.00
02271              52.00    12200.00
02272              62.00    12000.00
02273              62.00    12000.00
02274              58.00    11800.00
02275              44.00    11600.00
02276              38.00    11600.00
02277              52.00    11600.00
02278              58.00    11200.00
02279              44.00    11200.00
02280              34.00    11000.00
02281              44.00    11000.00
02282              52.00    10800.00
02283              38.00    10600.00
02284              30.00    10400.00
02285              36.00    10200.00
02286              42.00    10200.00
02287              38.00    10000.00
02288              36.00    10000.00
02289              30.00     9600.00
02290              26.00     9400.00
02291              34.00     9200.00
02292              36.00     9200.00
02293              30.00     8800.00
02294              26.00     8800.00
02295              28.00     8600.00
02296              28.00     8400.00
02297              22.00     8000.00
02298              22.00     8000.00
02299              30.00     7800.00
02300              26.00     7400.00
02301              26.00     7400.00
02302              22.00     7200.00
02303              18.00     6800.00
02304              20.00     6600.00
02305              22.00     6400.00
02306              22.00     6200.00
02307              18.00     6000.00
02308              14.00     6000.00
02309              18.00     5600.00
02310              18.00     5400.00
02311              10.00     5200.00
02312              14.00     4800.00
02313              18.00     4400.00
02314              12.00     4400.00
02315              10.00     4000.00
02316               6.00     3800.00
02317              10.00     3600.00
02318              10.00     3400.00
02319              12.00     3200.00
02320              12.00     3000.00
02321               4.00     2800.00
02322               4.00     2400.00
02323               6.00     2000.00
02324               6.00     2000.00
02325               2.00     1600.00
02326               4.00     1400.00
02327               6.00     1200.00
02328               2.00      800.00
02329              -2.00      600.00
02330               2.00      400.00
02331               2.00      200.00
02332               6.00     -200.00
02333              16.00     -400.00
02334              42.00     -800.00
02335              28.00    -1000.00
02336             -18.00    -1000.00
02337             -30.00    -1200.00
02338               6.00    -1600.00
02339              34.00    -1600.00
02340              62.00    -2000.00
02341             250.00    -2000.00
02342             250.00    -2800.00
02343            -250.00    -3200.00
02344            -250.00    -3400.00
02345            -138.00    -3600.00
02346             250.00    -3400.00
02347             162.00    -3400.00
02348             250.00    -4000.00
02349             -70.00    -4600.00
02350            -250.00    -4200.00
02351             194.00    -4800.00
02352             250.00    -5400.00
02353             -88.00    -4400.00
02354              42.00    -5800.00
02355            -250.00    -5600.00
02356              58.00    -5600.00
02357             230.00    -6600.00
02358            -250.00    -5600.00
02359              44.00    -6800.00
02360              44.00    -6800.00
02361             -34.00    -6600.00
02362              52.00    -8000.00
02363            -178.00    -7000.00
02364               4.00    -7600.00
02365              20.00    -8000.00
02366              18.00    -8000.00
02367              -6.00    -8800.00
02368            -178.00    -8200.00
02369              18.00    -8800.00
02370              18.00    -9000.00
02371             -36.00    -8800.00
02372             -46.00    -9600.00
02373             -92.00    -9200.00
02374              38.00    -9800.00
02375              -6.00    -9800.00
02376             -86.00    -9800.00
02377             -58.00   -10400.00
02378             -44.00   -10000.00
02379              -6.00   -10600.00
02380             -12.00   -10400.00
02381             -62.00   -10600.00
02382             -90.00   -11000.00
02383             -74.00   -11000.00
02384               4.00   -11200.00
02385               4.00   -11400.00
02386             -94.00   -11400.00
02387             -84.00   -11600.00
02388             -54.00   -11800.00
02389             -36.00   -11800.00
02390             -42.00   -12000.00
02391             -62.00   -12200.00
02392             -60.00   -12200.00
02393             -82.00   -12200.00
02394             -50.00   -12400.00
02395             -38.00   -12400.00
02396             -74.00   -12600.00
02397             -76.00   -12800.00
02398             -62.00   -12600.00
02399             -60.00   -12800.00
02400             -82.00   -13000.00
02401             -78.00   -13000.00
02402             -52.00   -13000.00
02403             -76.00   -13000.00
02404             -88.00   -13200.00
02405             -76.00   -13200.00
02406             -76.00   -13200.00
02407             -70.00   -13400.00
02408             -76.00   -13200.00
02409             -80.00   -13400.00
02410             -92.00   -13400.00
02411             -90.00   -13200.00
02412             -58.00   -13200.00
02413             -76.00   -13600.00
02414            -100.00   -13400.00
02415             -86.00   -13400.00
02416             -74.00   -13400.00
02417             -74.00   -13600.00
02418             -94.00   -13600.00
02419             -90.00   -13400.00
02420             -86.00   -13400.00
02421             -86.00   -13200.00
02422             -76.00   -13200.00
02423             -86.00   -13200.00
02424             -94.00   -13200.00
02425             -88.00   -13200.00
02426             -76.00   -13000.00
02427             -84.00   -13000.00
02428            -110.00   -13000.00
02429            -108.00   -13000.00
02430             -88.00   -12800.00
02431             -70.00   -12800.00
02432             -60.00   -12800.00
02433             -68.00   -12600.00
02434             -76.00   -12800.00
02435             -74.00   -12600.00
02436             -60.00   -12400.00
02437             -56.00   -12200.00
02438             -70.00   -12200.00
02439             -66.00   -12000.00
02440             -54.00   -12000.00
02441             -58.00   -11600.00
02442             -60.00   -11800.00
02443             -58.00   -11600.00
02444             -50.00   -11400.00
02445             -54.00   -11200.00
02446             -58.00   -11000.00
02447             -46.00   -10800.00
02448             -46.00   -10800.00
02449             -46.00   -10600.00
02450             -50.00   -10600.00
02451             -50.00   -10200.00
02452             -44.00   -10000.00
02453             -38.00   -10000.00
02454             -36.00    -9800.00
02455             -46.00    -9600.00
02456             -52.00    -9600.00
02457             -36.00    -9200.00
02458             -34.00    -9200.00
02459             -38.00    -9000.00
02460             -44.00    -8800.00
02461             -38.00    -8400.00
02462             -34.00    -8400.00
02463             -34.00    -8200.00
02464             -38.00    -8000.00
02465             -34.00    -7800.00
02466             -34.00    -7600.00
02467             -26.00    -7400.00
02468             -28.00    -7200.00
02469             -34.00    -7000.00
02470             -34.00    -6800.00
02471             -22.00    -6600.00
02472             -20.00    -6400.00
02473             -30.00    -6000.00
02474             -32.00    -5800.00
02475             -26.00    -5600.00
02476             -22.00    -5400.00
02477             -22.00    -5200.00
02478             -26.00    -4800.00
02479             -26.00    -4600.00
02480             -20.00    -4400.00
02481             -18.00    -4200.00
02482             -20.00    -4000.00
02483             -20.00    -3600.00
02484             -22.00    -3400.00
02485             -12.00    -3200.00
02486             -12.00    -3000.00
02487             -18.00    -2800.00
02488             -18.00    -2600.00
02489             -14.00    -2400.00
02490             -12.00    -2000.00
02491             -10.00    -1600.00
02492             -10.00    -1600.00
02493             -12.00    -1200.00
02494             -12.00    -1000.00
02495             -10.00     -600.00
02496             -10.00     -400.00
02497              -6.00     -200.00
02498              -2.00        0.00
02499               6.00      200.00
02500              36.00      400.00
02501              30.00      800.00
02502             -18.00     1000.00
02503             -34.00     1200.00
02504               4.00     1400.00
02505              28.00     1800.00
02506              26.00     2000.00
02507              74.00     2000.00
02508             250.00     2400.00
02509             242.00     2800.00
02510            -250.00     3000.00
02511            -250.00     3200.00
02512              64.00     3600.00
02513             250.00     3800.00
02514             -12.00     4000.00
02515            -230.00     4200.00
02516             250.00     4400.00
02517             -18.00     4400.00
02518            -124.00     4800.00
02519             108.00     5000.00
02520             -20.00     5400.00
02521             108.00     5800.00
02522              44.00     5600.00
02523            -118.00     6000.00
02524               4.00     6400.00
02525              -6.00     6400.00
02526              84.00     6800.00
02527             100.00     6800.00
02528             -90.00     7200.00
02529             -20.00     7400.00
02530             100.00     7600.00
02531              62.00     8000.00
02532             -62.00     7800.00
02533               4.00     8200.00
02534             102.00     8600.00
02535              -2.00     8600.00
02536             -10.00     8800.00
02537              34.00     8800.00
02538              26.00     9200.00
02539              18.00     9400.00
02540              44.00     9400.00
02541              62.00     9800.00
02542              14.00    10000.00
02543              -6.00    10000.00
02544              60.00    10200.00
02545              58.00    10400.00
02546               4.00    10400.00
02547              44.00    10400.00
02548              66.00    10800.00
02549              12.00    10800.00
02550               6.00    11200.00
02551              74.00    11200.00
02552              82.00    11600.00
02553              12.00    11600.00
02554              28.00    11800.00
02555              68.00    11800.00
02556              50.00    11800.00
02557              42.00    12000.00
02558              60.00    12200.00
02559              58.00    12400.00
02560              40.00    12400.00
02561              66.00    12400.00
02562              84.00    12600.00
02563              46.00    12600.00
02564              42.00    12800.00
02565              74.00    12800.00
02566              68.00    12800.00
02567              50.00    12800.00
02568              70.00    13000.00
02569              86.00    13000.00
02570              52.00    13200.00
02571              50.00    13200.00
02572              86.00    13200.00
02573              86.00    13200.00
02574              66.00    13200.00
02575              68.00    13400.00
02576              76.00    13400.00
02577              66.00    13400.00
02578              74.00    13400.00
02579              90.00    13400.00
02580              74.00    13400.00
02581              60.00    13400.00
02582              84.00    13600.00
02583              94.00    13400.00
02584              70.00    13600.00
02585              68.00    13400.00
02586              88.00    13400.00
02587              90.00    13400.00
02588              74.00    13400.00
02589              78.00    13200.00
02590              80.00    13200.00
02591              70.00    13200.00
02592              76.00    13200.00
02593              90.00    13000.00
02594              92.00    12800.00
02595             100.00    12800.00
02596              98.00    12800.00
02597              66.00    12600.00
02598              36.00    12800.00
02599              62.00    12600.00
02600              86.00    12600.00
02601              74.00    12400.00
02602              44.00    12400.00
02603              42.00    12200.00
02604              54.00    12200.00
02605              62.00    12000.00
02606              60.00    12000.00
02607              54.00    11800.00
02608              36.00    11800.00
02609              42.00    11600.00
02610              58.00    11400.00
02611              54.00    11200.00
02612              36.00    11200.00
02613              38.00    11000.00
02614              52.00    10800.00
02615              44.00    10800.00
02616              34.00    10600.00
02617              38.00    10400.00
02618              42.00    10400.00
02619              38.00    10200.00
02620              38.00    10000.00
02621              38.00     9600.00
02622              26.00     9600.00
02623              28.00     9400.00
02624              42.00     9200.00
02625              36.00     8800.00
02626              26.00     8800.00
02627              28.00     8800.00
02628              30.00     8400.00
02629              26.00     8400.00
02630              20.00     8000.00
02631              26.00     7800.00
02632              30.00     7600.00
02633              24.00     7400.00
02634              24.00     7200.00
02635              26.00     7000.00
02636              16.00     6800.00
02637              18.00     6400.00
02638              26.00     6200.00
02639              22.00     6000.00
02640              20.00     6000.00
02641              14.00     5600.00
02642              18.00     5400.00
02643              14.00     5200.00
02644              14.00     4800.00
02645              18.00     4600.00
02646              18.00     4400.00
02647              12.00     4400.00
02648               6.00     4000.00
02649              10.00     3800.00
02650              10.00     3400.00
02651              16.00     3200.00
02652              14.00     2800.00
02653               6.00     2800.00
02654               2.00     2600.00
02655               6.00     2200.00
02656               8.00     2000.00
02657               4.00     1800.00
02658               2.00     1600.00
02659               4.00     1200.00
02660               6.00     1000.00
02661              -2.00      800.00
02662              -2.00      400.00
02663              -2.00      200.00
02664               2.00        0.00
02665               6.00     -200.00
02666              26.00     -400.00
02667              50.00     -600.00
02668               6.00    -1000.00
02669             -36.00    -1000.00
02670             -14.00    -1200.00
02671              22.00    -1600.00
02672              42.00    -1800.00
02673             122.00    -2000.00
02674             250.00    -2400.00
02675              46.00    -3000.00
02676            -250.00    -3200.00
02677            -250.00    -3400.00
02678             250.00    -3600.00
02679             250.00    -3600.00
02680             146.00    -3400.00
02681             250.00    -4200.00
02682            -250.00    -4600.00
02683            -250.00    -4000.00
02684             250.00    -5600.00
02685              54.00    -4600.00
02686              -6.00    -5000.00
02687            -100.00    -6000.00
02688            -250.00    -5000.00
02689             250.00    -6400.00
02690             -66.00    -6200.00
02691            -198.00    -6000.00
02692             140.00    -7200.00
02693             -58.00    -6400.00
02694              54.00    -7400.00
02695             -74.00    -7600.00
02696            -130.00    -7000.00
02697              60.00    -8200.00
02698             -18.00    -7600.00
02699              50.00    -8400.00
02700            -116.00    -8600.00
02701            -106.00    -8200.00
02702              66.00    -9200.00
02703             -34.00    -8800.00
02704             -22.00    -9200.00
02705             -92.00    -9400.00
02706             -30.00    -9200.00
02707              50.00    -9800.00
02708             -64.00    -9600.00
02709             -78.00   -10200.00
02710             -48.00   -10000.00
02711             -26.00   -10200.00
02712               2.00   -10600.00
02713             -36.00   -10600.00
02714             -82.00   -10800.00
02715             -88.00   -10800.00
02716             -38.00   -11000.00
02717              24.00   -11200.00
02718             -46.00   -11400.00
02719            -102.00   -11600.00
02720             -62.00   -11600.00
02721             -44.00   -12000.00
02722             -30.00   -12000.00
02723             -60.00   -12000.00
02724             -58.00   -12200.00
02725             -68.00   -12200.00
02726             -76.00   -12200.00
02727             -38.00   -12400.00
02728             -58.00   -12400.00
02729             -82.00   -12400.00
02730             -70.00   -12800.00
02731             -60.00   -12800.00
02732             -70.00   -12800.00
02733             -86.00   -13000.00
02734             -62.00   -13000.00
02735             -58.00   -13200.00
02736             -86.00   -13000.00
02737             -84.00   -13200.00
02738             -76.00   -13200.00
02739             -76.00   -13200.00
02740             -70.00   -13400.00
02741             -78.00   -13200.00
02742             -86.00   -13200.00
02743            -100.00   -13200.00
02744             -70.00   -13400.00
02745             -58.00   -13400.00
02746             -92.00   -13600.00
02747             -98.00   -13600.00
02748             -76.00   -13400.00
02749             -70.00   -13400.00
02750             -84.00   -13400.00
02751             -94.00   -13200.00
02752             -86.00   -13200.00
02753             -86.00   -13200.00
02754             -76.00   -13200.00
02755             -76.00   -13200.00
02756             -94.00   -13200.00
02757             -92.00   -13200.00
02758             -84.00   -13200.00
02759             -74.00   -13000.00
02760             -94.00   -13000.00
02761            -114.00   -12800.00
02762            -100.00   -12800.00
02763             -78.00   -12800.00
02764             -66.00   -12800.00
02765             -60.00   -12800.00
02766             -72.00   -12600.00
02767             -76.00   -12400.00
02768             -70.00   -12400.00
02769             -58.00   -12200.00
02770             -62.00   -12200.00
02771             -70.00   -12000.00
02772             -58.00   -12000.00
02773             -54.00   -11800.00
02774             -60.00   -11600.00
02775             -62.00   -11600.00
02776             -52.00   -11400.00
02777             -46.00   -11200.00
02778             -58.00   -11200.00
02779             -52.00   -11000.00
02780             -46.00   -10800.00
02781             -48.00   -10600.00
02782             -44.00   -10600.00
02783             -48.00   -10400.00
02784             -50.00   -10200.00
02785             -46.00   -10000.00
02786             -38.00   -10000.00
02787             -38.00    -9600.00
02788             -52.00    -9600.00
02789             -44.00    -9200.00
02790             -30.00    -9200.00
02791             -32.00    -9200.00
02792             -44.00    -9000.00
02793             -44.00    -8800.00
02794             -38.00    -8400.00
02795             -32.00    -8400.00
02796             -34.00    -8200.00
02797             -34.00    -8000.00
02798             -36.00    -7600.00
02799             -30.00    -7600.00
02800             -24.00    -7400.00
02801             -30.00    -7200.00
02802             -36.00    -6800.00
02803             -30.00    -6600.00
02804             -20.00    -6400.00
02805             -22.00    -6000.00
02806             -30.00    -6000.00
02807             -26.00    -5800.00
02808             -22.00    -5600.00
02809             -24.00    -5400.00
02810             -22.00    -5000.00
02811             -24.00    -4800.00
02812             -20.00    -4600.00
02813             -18.00    -4400.00
02814             -20.00    -4000.00
02815             -22.00    -4000.00
02816             -22.00    -3600.00
02817             -14.00    -3400.00
02818              -8.00    -3200.00
02819             -18.00    -2800.00
02820             -22.00    -2600.00
02821             -14.00    -2400.00
02822             -12.00    -2000.00
02823              -4.00    -2000.00
02824             -10.00    -1600.00
02825             -10.00    -1400.00
02826             -10.00    -1000.00
02827             -10.00     -800.00
02828              -6.00     -400.00
02829              -6.00     -400.00
02830             -10.00        0.00
02831               2.00        0.00
02832              22.00      400.00
02833              46.00      600.00
02834               6.00      800.00
02835             -34.00     1200.00
02836             -20.00     1400.00
02837              24.00     1600.00
02838              30.00     1800.00
02839              36.00     2000.00
02840             158.00     2400.00
02841             250.00     2800.00
02842             -62.00     3000.00
02843            -250.00     3200.00
02844            -250.00     3200.00
02845             250.00     3600.00
02846             250.00     3800.00
02847            -250.00     3800.00
02848              52.00     4400.00
02849             242.00     4400.00
02850            -166.00     4600.00
02851              14.00     5200.00
02852              62.00     5000.00
02853              12.00     5600.00
02854             142.00     5600.00
02855             -76.00     5600.00
02856             -74.00     6400.00
02857              14.00     6200.00
02858              10.00     6400.00
02859             146.00     6800.00
02860              -2.00     7000.00
02861             -94.00     7200.00
02862              44.00     7400.00
02863             106.00     7600.00
02864               0.00     8000.00
02865             -52.00     8000.00
02866              70.00     8400.00
02867              62.00     8400.00
02868             -28.00     8600.00
02869              22.00     8800.00
02870              38.00     9200.00
02871              20.00     9400.00
02872              26.00     9200.00
02873              56.00     9400.00
02874              50.00    10000.00
02875              -6.00    10000.00
02876              26.00    10000.00
02877              68.00    10200.00
02878              28.00    10400.00
02879              16.00    10600.00
02880              72.00    10800.00
02881              44.00    10800.00
02882              -6.00    11000.00
02883              30.00    11200.00
02884              90.00    11400.00
02885              52.00    11600.00
02886              14.00    11600.00
02887              58.00    11800.00
02888              58.00    11800.00
02889              36.00    12000.00
02890              52.00    12000.00
02891              70.00    12200.00
02892              50.00    12200.00
02893              36.00    12400.00
02894              74.00    12400.00
02895              68.00    12600.00
02896              42.00    12800.00
02897              60.00    12800.00
02898              82.00    12800.00
02899              52.00    13000.00
02900              52.00    12800.00
02901              86.00    13200.00
02902              78.00    13200.00
02903              42.00    13200.00
02904              60.00    13200.00
02905              86.00    13400.00
02906              76.00    13200.00
02907              68.00    13200.00
02908              76.00    13400.00
02909              74.00    13400.00
02910              62.00    13200.00
02911              84.00    13400.00
02912              90.00    13400.00
02913              64.00    13400.00
02914              66.00    13400.00
02915              92.00    13400.00
02916              82.00    13400.00
02917              66.00    13400.00
02918              80.00    13200.00
02919              94.00    13400.00
02920              82.00    13200.00
02921              70.00    13400.00
02922              76.00    13200.00
02923              74.00    13200.00
02924              74.00    13200.00
02925              82.00    13200.00
02926              94.00    13200.00
02927              92.00    13200.00
02928              92.00    12800.00
02929              84.00    12800.00
02930              58.00    12600.00
02931              46.00    12800.00
02932              66.00    12400.00
02933              78.00    12600.00
02934              68.00    12400.00
02935              50.00    12400.00
02936              50.00    12200.00
02937              58.00    12200.00
02938              60.00    12000.00
02939              54.00    11800.00
02940              50.00    11800.00
02941              44.00    11600.00
02942              50.00    11600.00
02943              46.00    11200.00
02944              44.00    11200.00
02945              46.00    11000.00
02946              50.00    11000.00
02947              42.00    10800.00
02948              36.00    10600.00
02949              36.00    10400.00
02950              42.00    10400.00
02951              42.00    10200.00
02952              38.00    10000.00
02953              36.00    10000.00
02954              28.00     9600.00
02955              36.00     9400.00
02956              42.00     9400.00
02957              34.00     9200.00
02958              22.00     9000.00
02959              28.00     8800.00
02960              36.00     8600.00
02961              30.00     8400.00
02962              20.00     8200.00
02963              24.00     8000.00
02964              28.00     7800.00
02965              30.00     7600.00
02966              28.00     7200.00
02967              20.00     7200.00
02968              12.00     6800.00
02969              18.00     6800.00
02970              30.00     6400.00
02971              26.00     6200.00
02972              12.00     6000.00
02973              10.00     5600.00
02974              20.00     5600.00
02975              20.00     5400.00
02976              18.00     5200.00
02977              14.00     4600.00
02978              16.00     4400.00
02979              12.00     4400.00
02980              10.00     4000.00
02981              10.00     3800.00
02982              14.00     3600.00
02983              12.00     3200.00
02984              10.00     3200.00
02985              10.00     3000.00
02986               6.00     2800.00
02987               4.00     2400.00
02988               4.00     2000.00
02989               4.00     2000.00
02990               4.00     1600.00
02991               4.00     1400.00
02992               4.00     1200.00
02993               2.00      800.00
02994              -2.00      600.00
02995              -2.00      400.00
02996              -2.00      200.00
02997               6.00     -200.00
02998              18.00     -400.00
02999              38.00     -400.00
03000              28.00     -800.00
03001             -14.00    -1000.00
03002             -30.00    -1000.00
03003               6.00    -1200.00
03004              32.00    -1800.00
03005              58.00    -2000.00
03006             250.00    -2000.00
03007             250.00    -2600.00
03008            -250.00    -3200.00
03009            -250.00    -3200.00
03010            -198.00    -3600.00
03011             250.00    -3400.00
03012             180.00    -3600.00
03013             250.00    -3600.00
03014             -10.00    -4600.00
03015            -250.00    -4000.00
03016             134.00    -4800.00
03017             250.00    -5200.00
03018             -84.00    -4400.00
03019              50.00    -5800.00
03020            -250.00    -5600.00
03021              12.00    -5600.00
03022             250.00    -6600.00
03023            -250.00    -5600.00
03024              22.00    -6800.00
03025              60.00    -6800.00
03026             -42.00    -6400.00
03027              60.00    -7800.00
03028            -172.00    -7200.00
03029              -6.00    -7600.00
03030              26.00    -8200.00
03031               6.00    -7800.00
03032               4.00    -8600.00
03033            -174.00    -8200.00
03034              10.00    -8800.00
03035              26.00    -9000.00
03036             -38.00    -8800.00
03037             -42.00    -9600.00
03038             -94.00    -9200.00
03039              34.00    -9600.00
03040               4.00    -9800.00
03041             -86.00    -9800.00
03042             -60.00   -10200.00
03043             -44.00   -10000.00
03044             -10.00   -10400.00
03045              -6.00   -10600.00
03046             -60.00   -10600.00
03047             -92.00   -11000.00
03048             -74.00   -11000.00
03049               2.00   -11200.00
03050               8.00   -11200.00
03051             -92.00   -11400.00
03052             -86.00   -11600.00
03053             -54.00   -12000.00
03054             -34.00   -11800.00
03055             -42.00   -12000.00
03056             -68.00   -12000.00
03057             -54.00   -12400.00
03058             -78.00   -12400.00
03059             -58.00   -12400.00
03060             -38.00   -12400.00
03061             -74.00   -12600.00
03062             -76.00   -12800.00
03063             -66.00   -12800.00
03064             -60.00   -13000.00
03065             -82.00   -13000.00
03066             -82.00   -13000.00
03067             -50.00   -13200.00
03068             -70.00   -13200.00
03069             -92.00   -13200.00
03070             -78.00   -13200.00
03071             -78.00   -13200.00
03072             -72.00   -13200.00
03073             -74.00   -13400.00
03074             -82.00   -13200.00
03075             -92.00   -13400.00
03076             -94.00   -13200.00
03077             -60.00   -13400.00
03078             -70.00   -13600.00
03079            -100.00   -13600.00
03080             -92.00   -13400.00
03081             -76.00   -13400.00
03082             -76.00   -13400.00
03083             -92.00   -13200.00
03084             -90.00   -13200.00
03085             -84.00   -13200.00
03086             -92.00   -13400.00
03087             -76.00   -13400.00
03088             -82.00   -13200.00
03089             -94.00   -13200.00
03090             -90.00   -13200.00
03091             -78.00   -13000.00
03092             -82.00   -13000.00
03093            -108.00   -13000.00
03094            -106.00   -13000.00
03095             -88.00   -12800.00
03096             -76.00   -12800.00
03097             -62.00   -12800.00
03098             -66.00   -12600.00
03099             -74.00   -12400.00
03100             -72.00   -12400.00
03101             -60.00   -12400.00
03102             -60.00   -12200.00
03103             -74.00   -12200.00
03104             -70.00   -12000.00
03105             -52.00   -12000.00
03106             -54.00   -11600.00
03107             -62.00   -11800.00
03108             -62.00   -11600.00
03109             -52.00   -11400.00
03110             -52.00   -11200.00
03111             -54.00   -11000.00
03112             -46.00   -11000.00
03113             -50.00   -10800.00
03114             -52.00   -10600.00
03115             -48.00   -10400.00
03116             -46.00   -10400.00
03117             -46.00   -10000.00
03118             -42.00   -10000.00
03119             -38.00    -9800.00
03120             -46.00    -9600.00
03121             -50.00    -9600.00
03122             -38.00    -9400.00
03123             -30.00    -9200.00
03124             -36.00    -9000.00
03125             -46.00    -8800.00
03126             -42.00    -8400.00
03127             -34.00    -8400.00
03128             -34.00    -8200.00
03129             -32.00    -8000.00
03130             -34.00    -7800.00
03131             -34.00    -7600.00
03132             -26.00    -7400.00
03133             -28.00    -7200.00
03134             -30.00    -6800.00
03135             -30.00    -6800.00
03136             -30.00    -6400.00
03137             -22.00    -6200.00
03138             -28.00    -6000.00
03139             -32.00    -5800.00
03140             -22.00    -5600.00
03141             -28.00    -5400.00
03142             -22.00    -5000.00
03143             -22.00    -5000.00
03144             -22.00    -4600.00
03145             -18.00    -4400.00
03146             -18.00    -4400.00
03147             -20.00    -4000.00
03148             -20.00    -3800.00
03149             -20.00    -3400.00
03150             -12.00    -3200.00
03151             -12.00    -2800.00
03152             -20.00    -2800.00
03153             -18.00    -2600.00
03154             -12.00    -2200.00
03155             -12.00    -2000.00
03156             -12.00    -1800.00
03157             -12.00    -1600.00
03158              -6.00    -1200.00
03159             -10.00    -1000.00
03160              -4.00     -800.00
03161             -10.00     -400.00
03162             -12.00     -200.00
03163              -2.00        0.00
03164              12.00      200.00
03165              40.00      400.00
03166              34.00      600.00
03167             -14.00     1000.00
03168             -36.00     1200.00
03169              -4.00     1400.00
03170              28.00     1800.00
03171              34.00     1800.00
03172              68.00     2200.00
03173             250.00     2400.00
03174             250.00     2800.00
03175            -250.00     3200.00
03176            -250.00     3000.00
03177              12.00     3400.00
03178             250.00     3600.00
03179              36.00     4000.00
03180            -250.00     4000.00
03181             250.00     4400.00
03182              20.00     4400.00
03183            -138.00     5000.00
03184             104.00     5000.00
03185             -10.00     5200.00
03186              96.00     5800.00
03187              60.00     5600.00
03188            -122.00     6000.00
03189             -10.00     6400.00
03190              -6.00     6200.00
03191              76.00     6800.00
03192             114.00     6800.00
03193             -82.00     7200.00
03194             -30.00     7200.00
03195              92.00     7600.00
03196              68.00     7800.00
03197             -54.00     8000.00
03198              -6.00     8200.00
03199             100.00     8400.00
03200               4.00     8600.00
03201             -14.00     8800.00
03202              34.00     8800.00
03203              28.00     9200.00
03204              20.00     9200.00
03205              42.00     9400.00
03206              62.00     9800.00
03207              18.00    10000.00
03208              -8.00    10000.00
03209              58.00    10200.00
03210              62.00    10400.00
03211               4.00    10400.00
03212              42.00    10600.00
03213              68.00    11000.00
03214              20.00    11000.00
03215               6.00    11200.00
03216              68.00    11200.00
03217              78.00    11600.00
03218              18.00    11600.00
03219              28.00    11800.00
03220              68.00    11800.00
03221              50.00    12000.00
03222              40.00    12000.00
03223              62.00    12000.00
03224              66.00    12200.00
03225              42.00    12200.00
03226              60.00    12600.00
03227              82.00    12600.00
03228              46.00    12800.00
03229              40.00    12600.00
03230              74.00    12800.00
03231              70.00    12800.00
03232              50.00    12800.00
03233              68.00    12800.00
03234              90.00    13200.00
03235              56.00    13200.00
03236              46.00    13200.00
03237              82.00    13200.00
03238              86.00    13200.00
03239              64.00    13200.00
03240              70.00    13400.00
03241              78.00    13400.00
03242              64.00    13400.00
03243              70.00    13400.00
03244              92.00    13400.00
03245              82.00    13400.00
03246              58.00    13400.00
03247              78.00    13400.00
03248              92.00    13400.00
03249              70.00    13400.00
03250              66.00    13400.00
03251              88.00    13200.00
03252              86.00    13200.00
03253              70.00    13200.00
03254              74.00    13200.00
03255              78.00    13200.00
03256              70.00    13200.00
03257              74.00    13200.00
03258              86.00    13000.00
03259              92.00    13200.00
03260              92.00    12800.00
03261              96.00    12800.00
03262              74.00    12800.00
03263              42.00    12600.00
03264              52.00    12600.00
03265              84.00    12600.00
03266              76.00    12600.00
03267              46.00    12400.00
03268              42.00    12400.00
03269              58.00    12200.00
03270              62.00    12000.00
03271              60.00    12000.00
03272              54.00    11800.00
03273              42.00    11600.00
03274              42.00    11600.00
03275              58.00    11400.00
03276              58.00    11200.00
03277              36.00    11200.00
03278              38.00    11000.00
03279              52.00    11000.00
03280              48.00    10800.00
03281              36.00    10400.00
03282              38.00    10400.00
03283              38.00    10200.00
03284              38.00    10000.00
03285              38.00    10000.00
03286              36.00     9600.00
03287              34.00     9600.00
03288              28.00     9400.00
03289              36.00     9200.00
03290              34.00     9200.00
03291              26.00     9000.00
03292              30.00     8800.00
03293              34.00     8400.00
03294              26.00     8400.00
03295              22.00     8000.00
03296              26.00     7800.00
03297              30.00     7600.00
03298              26.00     7600.00
03299              22.00     7200.00
03300              20.00     7000.00
03301              20.00     6800.00
03302              22.00     6400.00
03303              26.00     6400.00
03304              22.00     6000.00
03305              14.00     6000.00
03306              18.00     5800.00
03307              20.00     5400.00
03308              12.00     5400.00
03309              12.00     4800.00
03310              16.00     4600.00
03311              18.00     4400.00
03312              12.00     4400.00
03313               8.00     4000.00
03314               6.00     3800.00
03315              10.00     3600.00
03316              10.00     3200.00
03317              10.00     3000.00
03318               6.00     2800.00
03319               4.00     2600.00
03320               4.00     2200.00
03321               8.00     2000.00
03322               0.00     2000.00
03323               2.00     1600.00
03324               4.00     1200.00
03325               4.00     1000.00
03326              -4.00      600.00
03327              -6.00      400.00
03328               2.00      400.00
03329               4.00        0.00
03330              10.00     -200.00
03331              22.00     -400.00
03332              46.00     -800.00
03333              10.00    -1000.00
03334             -30.00    -1200.00
03335             -22.00    -1200.00
03336              20.00    -1600.00
03337              38.00    -1800.00
03338             110.00    -2000.00
03339             250.00    -2400.00
03340              98.00    -2800.00
03341            -250.00    -3200.00
03342            -250.00    -3400.00
03343             212.00    -3400.00
03344             250.00    -3400.00
03345             132.00    -3400.00
03346             250.00    -4000.00
03347            -250.00    -4400.00
03348            -250.00    -4200.00
03349             250.00    -5200.00
03350              90.00    -4800.00
03351             -18.00    -5000.00
03352             -70.00    -6000.00
03353            -250.00    -5200.00
03354             250.00    -6200.00
03355             -22.00    -6400.00
03356            -222.00    -5800.00
03357             142.00    -7200.00
03358             -50.00    -6400.00
03359              42.00    -7200.00
03360             -54.00    -7600.00
03361            -140.00    -7200.00
03362              62.00    -8200.00
03363             -14.00    -7800.00
03364              46.00    -8200.00
03365            -102.00    -8400.00
03366            -118.00    -8200.00
03367              64.00    -9200.00
03368             -28.00    -8800.00
03369             -26.00    -9200.00
03370             -88.00    -9600.00
03371             -44.00    -9200.00
03372              52.00   -10000.00
03373             -54.00    -9600.00
03374             -76.00   -10000.00
03375             -52.00   -10200.00
03376             -32.00   -10000.00
03377              -2.00   -10800.00
03378             -30.00   -10600.00
03379             -82.00   -10800.00
03380             -92.00   -11000.00
03381             -44.00   -11200.00
03382              24.00   -11200.00
03383             -44.00   -11400.00
03384            -102.00   -11600.00
03385             -68.00   -11600.00
03386             -46.00   -12000.00
03387             -30.00   -12000.00
03388             -60.00   -12000.00
03389             -62.00   -12200.00
03390             -66.00   -12400.00
03391             -76.00   -12400.00
03392             -38.00   -12600.00
03393             -54.00   -12400.00
03394             -82.00   -12600.00
03395             -70.00   -12800.00
03396             -60.00   -12800.00
03397             -68.00   -13000.00
03398             -86.00   -13000.00
03399             -62.00   -13200.00
03400             -60.00   -13200.00
03401             -86.00   -13200.00
03402             -84.00   -13200.00
03403             -74.00   -13200.00
03404             -74.00   -13200.00
03405             -70.00   -13200.00
03406             -78.00   -13400.00
03407             -84.00   -13400.00
03408             -94.00   -13600.00
03409             -70.00   -13600.00
03410             -60.00   -13400.00
03411             -92.00   -13400.00
03412             -98.00   -13400.00
03413             -84.00   -13400.00
03414             -70.00   -13400.00
03415             -78.00   -13600.00
03416            -100.00   -13200.00
03417             -86.00   -13400.00
03418             -84.00   -13200.00
03419             -82.00   -13200.00
03420             -76.00   -13400.00
03421             -92.00   -13200.00
03422             -98.00   -13200.00
03423             -82.00   -13200.00
03424             -70.00   -13200.00
03425             -92.00   -13000.00
03426            -118.00   -13000.00
03427             -98.00   -12800.00
03428             -76.00   -12800.00
03429             -64.00   -12800.00
03430             -62.00   -12800.00
03431             -78.00   -12400.00
03432             -74.00   -12600.00
03433             -64.00   -12400.00
03434             -54.00   -12200.00
03435             -64.00   -12200.00
03436             -76.00   -12000.00
03437             -60.00   -12000.00
03438             -50.00   -12000.00
03439             -60.00   -11600.00
03440             -62.00   -11600.00
03441             -54.00   -11600.00
03442             -50.00   -11200.00
03443             -54.00   -11200.00
03444             -60.00   -11000.00
03445             -48.00   -10800.00
03446             -50.00   -10800.00
03447             -46.00   -10600.00
03448             -46.00   -10400.00
03449             -50.00   -10400.00
03450             -52.00   -10000.00
03451             -38.00    -9800.00
03452             -34.00    -9800.00
03453             -46.00    -9600.00
03454             -48.00    -9400.00
03455             -42.00    -9200.00
03456             -38.00    -9200.00
03457             -38.00    -8800.00
03458             -42.00    -9000.00
03459             -38.00    -8400.00
03460             -36.00    -8400.00
03461             -38.00    -8000.00
03462             -34.00    -8000.00
03463             -32.00    -7600.00
03464             -30.00    -7600.00
03465             -30.00    -7400.00
03466             -32.00    -7000.00
03467             -32.00    -6800.00
03468             -26.00    -6600.00
03469             -22.00    -6400.00
03470             -22.00    -6200.00
03471             -36.00    -5800.00
03472             -30.00    -5600.00
03473             -22.00    -5600.00
03474             -20.00    -5200.00
03475             -22.00    -5000.00
03476             -26.00    -4800.00
03477             -22.00    -4600.00
03478             -18.00    -4400.00
03479             -18.00    -4000.00
03480             -18.00    -4000.00
03481             -22.00    -3400.00
03482             -18.00    -3200.00
03483             -12.00    -3200.00
03484             -18.00    -2800.00
03485             -18.00    -2600.00
03486             -12.00    -2400.00
03487             -10.00    -2000.00
03488             -12.00    -2000.00
03489             -12.00    -1600.00
03490              -6.00    -1200.00
03491              -8.00    -1000.00
03492             -10.00     -800.00
03493             -10.00     -400.00
03494             -10.00     -400.00
03495              -6.00     -200.00
03496               4.00        0.00
03497              20.00      400.00
03498              44.00      600.00
03499               8.00      800.00
03500             -30.00     1200.00
03501             -20.00     1200.00
03502              20.00     1600.00
03503              28.00     1800.00
03504              34.00     2000.00
03505             146.00     2400.00
03506             250.00     2800.00
03507             -12.00     3000.00
03508            -250.00     3000.00
03509            -250.00     3400.00
03510             250.00     3600.00
03511             250.00     3800.00
03512            -250.00     3800.00
03513              10.00     4200.00
03514             250.00     4400.00
03515            -158.00     4400.00
03516              -6.00     5000.00
03517              72.00     4800.00
03518              -2.00     5600.00
03519             142.00     5600.00
03520             -62.00     5600.00
03521             -86.00     6400.00
03522              10.00     6200.00
03523               4.00     6400.00
03524             140.00     6800.00
03525              12.00     7000.00
03526            -100.00     7400.00
03527              36.00     7200.00
03528             106.00     7600.00
03529               8.00     8000.00
03530             -60.00     8000.00
03531              60.00     8400.00
03532              70.00     8600.00
03533             -28.00     8600.00
03534              18.00     8800.00
03535              36.00     9000.00
03536              20.00     9200.00
03537              26.00     9400.00
03538              58.00     9600.00
03539              52.00     9600.00
03540              -6.00     9800.00
03541              18.00    10200.00
03542              70.00    10400.00
03543              34.00    10400.00
03544              12.00    10600.00
03545              68.00    10800.00
03546              50.00    11000.00
03547               0.00    11000.00
03548              30.00    11200.00
03549              90.00    11600.00
03550              54.00    11400.00
03551              10.00    11600.00
03552              54.00    11800.00
03553              64.00    12000.00
03554              38.00    12000.00
03555              50.00    12000.00
03556              68.00    12400.00
03557              56.00    12400.00
03558              44.00    12400.00
03559              76.00    12600.00
03560              66.00    12600.00
03561              38.00    12600.00
03562              58.00    12800.00
03563              82.00    12800.00
03564              54.00    12800.00
03565              46.00    13000.00
03566              86.00    13000.00
03567              84.00    13200.00
03568              48.00    13200.00
03569              58.00    13200.00
03570              86.00    13200.00
03571              78.00    13400.00
03572              68.00    13400.00
03573              70.00    13400.00
03574              72.00    13400.00
03575              58.00    13200.00
03576              84.00    13400.00
03577              94.00    13400.00
03578              62.00    13400.00
03579              60.00    13400.00
03580              88.00    13400.00
03581              90.00    13400.00
03582              66.00    13400.00
03583              70.00    13400.00
03584              90.00    13200.00
03585              78.00    13400.00
03586              70.00    13200.00
03587              84.00    13400.00
03588              82.00    13200.00
03589              68.00    13200.00
03590              82.00    13200.00
03591              94.00    13200.00
03592             108.00    13000.00
03593              90.00    12800.00
03594              52.00    12800.00
03595              70.00    12600.00
03596              30.00    12600.00
03597              66.00    12600.00
03598              32.00    12400.00
03599             100.00    12400.00
03600             116.00    12400.00
03601              78.00    12200.00
03602              26.00    12000.00
03603              20.00    12000.00
03604              90.00    12000.00
03605              42.00    11600.00
03606             -32.00    11800.00
03607              20.00    11600.00
03608             100.00    11600.00
03609             120.00    11400.00
03610              36.00    11000.00
03611              12.00    11000.00
03612              52.00    10800.00
03613              58.00    10600.00
03614              42.00    10400.00
03615               4.00    10400.00
03616               4.00    10200.00
03617              34.00    10000.00
03618              60.00    10000.00
03619              62.00     9600.00
03620              26.00     9400.00
03621              40.00     9400.00
03622              42.00     9000.00
03623              36.00     9000.00
03624              18.00     8800.00
03625              14.00     8600.00
03626              26.00     8400.00
03627              14.00     8200.00
03628              20.00     8000.00
03629              34.00     7800.00
03630              50.00     7600.00
03631              36.00     7200.00
03632              22.00     7000.00
03633              12.00     6800.00
03634              20.00     6800.00
03635              24.00     6400.00
03636              12.00     6200.00
03637               6.00     6000.00
03638              12.00     5800.00
03639              28.00     5600.00
03640              20.00     5200.00
03641              10.00     5200.00
03642              18.00     4800.00
03643              22.00     4600.00
03644               6.00     4400.00
03645              -2.00     4000.00
03646               2.00     3800.00
03647              10.00     3600.00
03648              12.00     3400.00
03649              12.00     3000.00
03650              18.00     3000.00
03651              10.00     2800.00
03652               6.00     2400.00
03653               6.00     2200.00
03654              -2.00     2000.00
03655              -4.00     1600.00
03656               6.00     1400.00
03657              10.00     1200.00
03658              -4.00      800.00
03659             -12.00      600.00
03660              -4.00      400.00
03661              12.00        0.00
03662              10.00     -200.00
03663              12.00     -200.00
03664              34.00     -400.00
03665              34.00     -800.00
03666             -12.00    -1000.00
03667             -30.00    -1200.00
03668               2.00    -1600.00
03669              28.00    -1800.00
03670              58.00    -2000.00
03671             234.00    -2000.00
03672             250.00    -2800.00
03673            -250.00    -3200.00
03674            -250.00    -3200.00
03675            -250.00    -3600.00
03676             250.00    -3400.00
03677             196.00    -3600.00
03678             250.00    -3600.00
03679              46.00    -4600.00
03680            -250.00    -4200.00
03681              78.00    -4400.00
03682             250.00    -5400.00
03683             -82.00    -4400.00
03684              54.00    -5800.00
03685            -250.00    -5800.00
03686             -30.00    -5600.00
03687             250.00    -6800.00
03688            -250.00    -5800.00
03689              -6.00    -6600.00
03690              82.00    -6800.00
03691             -50.00    -6400.00
03692              64.00    -7800.00
03693            -166.00    -7200.00
03694             -26.00    -7600.00
03695              38.00    -8200.00
03696               6.00    -7800.00
03697              18.00    -8800.00
03698            -174.00    -8200.00
03699              -6.00    -8800.00
03700              34.00    -9000.00
03701             -36.00    -8600.00
03702             -38.00    -9600.00
03703            -102.00    -9200.00
03704              26.00    -9600.00
03705              12.00    -9800.00
03706             -86.00    -9600.00
03707             -62.00   -10400.00
03708             -46.00   -10000.00
03709             -12.00   -10400.00
03710             -10.00   -10800.00
03711             -58.00   -10600.00
03712             -92.00   -11000.00
03713             -82.00   -10800.00
03714              -6.00   -11200.00
03715              10.00   -11400.00
03716             -86.00   -11400.00
03717             -92.00   -11600.00
03718             -58.00   -11600.00
03719             -38.00   -12000.00
03720             -38.00   -12000.00
03721             -68.00   -12200.00
03722             -58.00   -12200.00
03723             -76.00   -12200.00
03724             -58.00   -12400.00
03725             -36.00   -12400.00
03726             -70.00   -12600.00
03727             -78.00   -12800.00
03728             -66.00   -12800.00
03729             -60.00   -12800.00
03730             -78.00   -12800.00
03731             -84.00   -13000.00
03732             -54.00   -13200.00
03733             -70.00   -13200.00
03734             -90.00   -13200.00
03735             -76.00   -13200.00
03736             -76.00   -13200.00
03737             -72.00   -13200.00
03738             -74.00   -13200.00
03739             -78.00   -13200.00
03740             -92.00   -13400.00
03741             -92.00   -13600.00
03742             -58.00   -13400.00
03743             -68.00   -13200.00
03744             -94.00   -13400.00
03745             -88.00   -13400.00
03746             -74.00   -13400.00
03747             -74.00   -13400.00
03748             -90.00   -13200.00
03749             -92.00   -13400.00
03750             -84.00   -13200.00
03751             -86.00   -13200.00
03752             -74.00   -13400.00
03753             -82.00   -13200.00
03754             -98.00   -13200.00
03755             -90.00   -13200.00
03756             -76.00   -13000.00
03757             -78.00   -13200.00
03758            -106.00   -13000.00
03759            -114.00   -13200.00
03760             -90.00   -12800.00
03761             -72.00   -12800.00
03762             -60.00   -12800.00
03763             -66.00   -12800.00
03764             -78.00   -12600.00
03765             -74.00   -12600.00
03766             -64.00   -12400.00
03767             -56.00   -12200.00
03768             -70.00   -12000.00
03769             -68.00   -12000.00
03770             -54.00   -12000.00
03771             -60.00   -11800.00
03772             -66.00   -11600.00
03773             -60.00   -11400.00
03774             -52.00   -11600.00
03775             -54.00   -11400.00
03776             -58.00   -11000.00
03777             -50.00   -11000.00
03778             -52.00   -10800.00
03779             -52.00   -10600.00
03780             -50.00   -10600.00
03781             -50.00   -10400.00
03782             -46.00   -10200.00
03783             -44.00   -10000.00
03784             -38.00    -9800.00
03785             -44.00    -9600.00
03786             -52.00    -9600.00
03787             -40.00    -9600.00
03788             -38.00    -9200.00
03789             -42.00    -9000.00
03790             -44.00    -8800.00
03791             -42.00    -8600.00
03792             -36.00    -8400.00
03793             -36.00    -8200.00
03794             -36.00    -8000.00
03795             -36.00    -7800.00
03796             -34.00    -7600.00
03797             -24.00    -7400.00
03798             -26.00    -7200.00
03799             -32.00    -7000.00
03800             -34.00    -6600.00
03801             -28.00    -6400.00
03802             -20.00    -6400.00
03803             -26.00    -6000.00
03804             -32.00    -5800.00
03805             -28.00    -5600.00
03806             -24.00    -5600.00
03807             -22.00    -5200.00
03808             -20.00    -4800.00
03809             -22.00    -4600.00
03810             -18.00    -4400.00
03811             -20.00    -4200.00
03812             -18.00    -4000.00
03813             -20.00    -3600.00
03814             -20.00    -3400.00
03815             -10.00    -3200.00
03816             -14.00    -2800.00
03817             -18.00    -2800.00
03818             -16.00    -2400.00
03819             -12.00    -2200.00
03820             -10.00    -2000.00
03821             -10.00    -1800.00
03822             -12.00    -1600.00
03823             -10.00    -1200.00
03824             -10.00    -1000.00
03825              -6.00     -800.00
03826              -6.00     -400.00
03827             -10.00     -200.00
03828              -2.00        0.00
03829               6.00      400.00
03830              32.00      400.00
03831              36.00      800.00
03832             -12.00      800.00
03833             -34.00     1000.00
03834              -2.00     1400.00
03835              28.00     1600.00
03836              28.00     1800.00
03837              60.00     2000.00
03838             250.00     2400.00
03839             250.00     2800.00
03840            -250.00     3000.00
03841            -250.00     3200.00
03842             -54.00     3400.00
03843             250.00     3600.00
03844              90.00     4000.00
03845            -250.00     4000.00
03846             250.00     4600.00
03847              50.00     4400.00
03848            -154.00     5000.00
03849              98.00     5200.00
03850              -6.00     5200.00
03851              90.00     6000.00
03852              76.00     5400.00
03853            -126.00     6000.00
03854             -18.00     6400.00
03855              -2.00     6200.00
03856              68.00     6800.00
03857             122.00     6800.00
03858             -80.00     7200.00
03859             -44.00     7200.00
03860              90.00     7400.00
03861              82.00     8000.00
03862             -46.00     8000.00
03863             -20.00     8200.00
03864             100.00     8400.00
03865              12.00     8600.00
03866             -14.00     8800.00
03867              36.00     9000.00
03868              28.00     9200.00
03869              16.00     9400.00
03870              42.00     9400.00
03871              64.00     9800.00
03872              26.00     9800.00
03873              -6.00    10000.00
03874              52.00    10200.00
03875              60.00    10400.00
03876              10.00    10400.00
03877              38.00    10800.00
03878              74.00    11000.00
03879              22.00    10800.00
03880              -2.00    11200.00
03881              62.00    11400.00
03882              86.00    11600.00
03883              22.00    11600.00
03884              20.00    11800.00
03885              68.00    12000.00
03886              52.00    12000.00
03887              38.00    12000.00
03888              66.00    12200.00
03889              64.00    12400.00
03890              36.00    12400.00
03891              52.00    12400.00
03892              84.00    12600.00
03893              54.00    12400.00
03894              44.00    12800.00
03895              74.00    12800.00
03896              66.00    12800.00
03897              42.00    12800.00
03898              68.00    13000.00
03899              94.00    13200.00
03900              58.00    13200.00
03901              34.00    13200.00
03902              70.00    13200.00
03903              90.00    13200.00
03904              76.00    13200.00
03905              70.00    13200.00
03906              68.00    13400.00
03907              52.00    13400.00
03908              68.00    13400.00
03909             100.00    13400.00
03910              84.00    13400.00
03911              52.00    13400.00
03912              72.00    13400.00
03913              90.00    13600.00
03914              74.00    13400.00
03915              76.00    13400.00
03916              88.00    13400.00
03917              78.00    13400.00
03918              64.00    13200.00
03919              74.00    13200.00
03920              86.00    13200.00
03921              70.00    13200.00
03922              70.00    13200.00
03923              86.00    13000.00
03924              92.00    13200.00
03925              92.00    12800.00
03926              98.00    12800.00
03927              76.00    12800.00
03928              44.00    12800.00
03929              52.00    12800.00
03930              78.00    12600.00
03931              78.00    12600.00
03932              52.00    12400.00
03933              42.00    12200.00
03934              52.00    12200.00
03935              58.00    12200.00
03936              60.00    11800.00
03937              60.00    12000.00
03938              46.00    11800.00
03939              40.00    11600.00
03940              52.00    11600.00
03941              48.00    11200.00
03942              40.00    11200.00
03943              42.00    11000.00
03944              54.00    11000.00
03945              48.00    10800.00
03946              34.00    10600.00
03947              36.00    10400.00
03948              42.00    10400.00
03949              42.00    10000.00
03950              36.00    10000.00
03951              36.00     9800.00
03952              32.00     9600.00
03953              28.00     9400.00
03954              34.00     9400.00
03955              32.00     9200.00
03956              26.00     8800.00
03957              34.00     8600.00
03958              34.00     8600.00
03959              22.00     8400.00
03960              20.00     8000.00
03961              28.00     8000.00
03962              34.00     7800.00
03963              26.00     7600.00
03964              20.00     7200.00
03965              16.00     7200.00
03966              18.00     6800.00
03967              24.00     6600.00
03968              26.00     6400.00
03969              20.00     6000.00
03970              12.00     5800.00
03971              14.00     5600.00
03972              14.00     5400.00
03973              14.00     5400.00
03974              14.00     5000.00
03975              18.00     4600.00
03976              14.00     4400.00
03977              10.00     4400.00
03978               6.00     3800.00
03979               4.00     3800.00
03980              10.00     3600.00
03981              12.00     3200.00
03982              10.00     3000.00
03983               4.00     2800.00
03984               4.00     2400.00
03985               4.00     2400.00
03986               6.00     2000.00
03987               4.00     2000.00
03988               2.00     1600.00
03989               4.00     1400.00
03990               4.00     1000.00
03991               0.00      800.00
03992              -4.00      600.00
03993               0.00      400.00
03994               4.00        0.00
03995              12.00        0.00
03996              24.00     -400.00
03997              50.00     -600.00
03998              12.00     -800.00
03999             -28.00    -1200.00
04000             -22.00    -1400.00
04001              22.00    -1600.00
04002              38.00    -1800.00
04003             100.00    -2000.00
04004             250.00    -2000.00
04005             146.00    -2800.00
04006            -250.00    -3200.00
04007            -250.00    -3200.00
04008             164.00    -3600.00
04009             250.00    -3600.00
04010             126.00    -3600.00
04011             250.00    -4000.00
04012            -250.00    -4400.00
04013            -250.00    -4200.00
04014             250.00    -5200.00
04015             126.00    -4800.00
04016             -30.00    -4800.00
04017             -44.00    -6000.00
04018            -250.00    -5200.00
04019             250.00    -6200.00
04020              20.00    -6200.00
04021            -246.00    -5800.00
04022             136.00    -7200.00
04023             -38.00    -6600.00
04024              34.00    -7000.00
04025             -36.00    -7600.00
04026            -152.00    -6800.00
04027              58.00    -8200.00
04028             -12.00    -7800.00
04029              44.00    -8200.00
04030             -90.00    -8400.00
04031            -134.00    -8200.00
04032              60.00    -9200.00
04033             -24.00    -8800.00
04034             -22.00    -9200.00
04035             -82.00    -9600.00
04036             -54.00    -9000.00
04037              52.00   -10000.00
04038             -50.00    -9600.00
04039             -78.00   -10000.00
04040             -52.00   -10200.00
04041             -36.00   -10200.00
04042              -4.00   -10800.00
04043             -28.00   -10600.00
04044             -76.00   -10800.00
04045             -92.00   -10800.00
04046             -50.00   -11200.00
04047              22.00   -11400.00
04048             -34.00   -11400.00
04049            -106.00   -11600.00
04050             -68.00   -11600.00
04051             -50.00   -11600.00
04052             -30.00   -12000.00
04053             -58.00   -12200.00
04054             -60.00   -12200.00
04055             -66.00   -12200.00
04056             -80.00   -12400.00
04057             -36.00   -12400.00
04058             -54.00   -12400.00
04059             -78.00   -12800.00
04060             -70.00   -12800.00
04061             -60.00   -12800.00
04062             -68.00   -12800.00
04063             -86.00   -13000.00
04064             -66.00   -13000.00
04065             -54.00   -13200.00
04066             -84.00   -13200.00
04067             -86.00   -13200.00
04068             -74.00   -13200.00
04069             -74.00   -13200.00
04070             -68.00   -13200.00
04071             -78.00   -13200.00
04072             -84.00   -13600.00
04073             -94.00   -13400.00
04074             -74.00   -13600.00
04075             -56.00   -13600.00
04076             -86.00   -13400.00
04077             -98.00   -13600.00
04078             -82.00   -13400.00
04079             -70.00   -13400.00
04080             -82.00   -13600.00
04081             -98.00   -13200.00
04082             -86.00   -13200.00
04083             -86.00   -13400.00
04084             -80.00   -13200.00
04085             -74.00   -13400.00
04086             -92.00   -13200.00
04087             -94.00   -13200.00
04088             -84.00   -13200.00
04089             -74.00   -13000.00
04090             -92.00   -13000.00
04091            -114.00   -13000.00
04092             -98.00   -12800.00
04093             -78.00   -13000.00
04094             -68.00   -12800.00
04095             -60.00   -12600.00
04096             -74.00   -12600.00
04097             -74.00   -12600.00
04098             -66.00   -12400.00
04099             -60.00   -12400.00
04100             -66.00   -12200.00
04101             -76.00   -12200.00
04102             -58.00   -12000.00
04103             -52.00   -12000.00
04104             -60.00   -12000.00
04105             -66.00   -11600.00
04106             -58.00   -11400.00
04107             -50.00   -11400.00
04108             -54.00   -11000.00
04109             -54.00   -11000.00
04110             -50.00   -10800.00
04111             -54.00   -10600.00
04112             -50.00   -10800.00
04113             -46.00   -10400.00
04114             -52.00   -10200.00
04115             -46.00   -10000.00
04116             -42.00   -10000.00
04117             -42.00   -10000.00
04118             -50.00    -9800.00
04119             -46.00    -9400.00
04120             -36.00    -9200.00
04121             -38.00    -9000.00
04122             -42.00    -9000.00
04123             -44.00    -8800.00
04124             -36.00    -8600.00
04125             -36.00    -8400.00
04126             -36.00    -8200.00
04127             -34.00    -8000.00
04128             -34.00    -7600.00
04129             -30.00    -7600.00
04130             -24.00    -7200.00
04131             -34.00    -7200.00
04132             -34.00    -6800.00
04133             -30.00    -6600.00
04134             -20.00    -6400.00
04135             -22.00    -6200.00
04136             -30.00    -6000.00
04137             -28.00    -5800.00
04138             -22.00    -5600.00
04139             -22.00    -5200.00
04140             -22.00    -5000.00
04141             -22.00    -4600.00
04142             -22.00    -4600.00
04143             -18.00    -4400.00
04144             -20.00    -4000.00
04145             -20.00    -3800.00
04146             -20.00    -3600.00
04147             -16.00    -3400.00
04148             -12.00    -3200.00
04149             -18.00    -2800.00
04150             -20.00    -2600.00
04151             -14.00    -2400.00
04152             -12.00    -2200.00
04153             -10.00    -2000.00
04154             -10.00    -1600.00
04155             -10.00    -1400.00
04156             -12.00    -1000.00
04157             -10.00     -800.00
04158              -6.00     -600.00
04159             -10.00     -400.00
04160             -10.00        0.00
04161               2.00        0.00
04162              14.00      400.00
04163              42.00      600.00
04164              14.00      800.00
04165             -28.00     1000.00
04166             -26.00     1400.00
04167              16.00     1600.00
04168              28.00     1800.00
04169              34.00     2000.00
04170             130.00     2200.00
04171             250.00     2800.00
04172              30.00     2800.00
04173            -250.00     3000.00
04174            -250.00     3200.00
04175             250.00     3600.00
04176             250.00     3800.00
04177            -236.00     3800.00
04178             -34.00     4000.00
04179             250.00     4400.00
04180            -146.00     4600.00
04181             -26.00     5000.00
04182              84.00     4800.00
04183              -6.00     5600.00
04184             146.00     5600.00
04185             -50.00     5600.00
04186             -92.00     6200.00
04187              14.00     6200.00
04188               2.00     6400.00
04189             136.00     6800.00
04190              26.00     7000.00
04191             -98.00     7400.00
04192              32.00     7400.00
04193             108.00     7600.00
04194              20.00     8000.00
04195             -62.00     8000.00
04196              54.00     8400.00
04197              78.00     8400.00
04198             -22.00     8600.00
04199              14.00     8800.00
04200              36.00     9200.00
04201              20.00     9400.00
04202              24.00     9400.00
04203              58.00     9600.00
04204              54.00     9600.00
04205              -6.00    10000.00
04206              18.00    10000.00
04207              72.00    10400.00
04208              38.00    10400.00
04209              12.00    10400.00
04210              66.00    10800.00
04211              52.00    11000.00
04212               2.00    11200.00
04213              26.00    11000.00
04214              90.00    11400.00
04215              58.00    11600.00
04216              10.00    11600.00
04217              52.00    11800.00
04218              66.00    11800.00
04219              38.00    12000.00
04220              46.00    12000.00
04221              68.00    12400.00
04222              54.00    12400.00
04223              42.00    12400.00
04224              74.00    12600.00
04225              70.00    12600.00
04226              42.00    12600.00
04227              54.00    12800.00
04228              76.00    12800.00
04229              58.00    13000.00
04230              50.00    12800.00
04231              82.00    13200.00
04232              82.00    13000.00
04233              42.00    13200.00
04234              58.00    13200.00
04235              90.00    13200.00
04236              76.00    13200.00
04237              62.00    13200.00
04238              72.00    13400.00
04239              74.00    13400.00
04240              62.00    13400.00
04241              76.00    13200.00
04242              90.00    13400.00
04243              68.00    13400.00
04244              62.00    13400.00
04245              86.00    13400.00
04246              84.00    13400.00
04247              66.00    13400.00
04248              74.00    13200.00
04249              92.00    13400.00
04250              78.00    13400.00
04251              66.00    13400.00
04252              82.00    13200.00
04253              76.00    13200.00
04254              70.00    13200.00
04255              82.00    13200.00
04256              92.00    13200.00
04257              92.00    13000.00
04258              92.00    13000.00
04259              92.00    12800.00
04260              58.00    12800.00
04261              42.00    12800.00
04262              68.00    12600.00
04263              84.00    12600.00
04264              66.00    12600.00
04265              44.00    12400.00
04266              52.00    12400.00
04267              62.00    12000.00
04268              60.00    12000.00
04269              58.00    12000.00
04270              50.00    11800.00
04271              38.00    11800.00
04272              48.00    11600.00
04273              58.00    11400.00
04274              46.00    11200.00
04275              36.00    11000.00
04276              46.00    11000.00
04277              52.00    11000.00
04278              42.00    10800.00
04279              36.00    10800.00
04280              38.00    10400.00
04281              42.00    10200.00
04282              42.00    10000.00
04283              38.00    10000.00
04284              34.00     9600.00
04285              28.00     9600.00
04286              30.00     9400.00
04287              36.00     9200.00
04288              34.00     9000.00
04289              26.00     8800.00
04290              28.00     8600.00
04291              28.00     8400.00
04292              22.00     8400.00
04293              20.00     8000.00
04294              26.00     7800.00
04295              26.00     7600.00
04296              20.00     7400.00
04297              20.00     7200.00
04298              20.00     7000.00
04299              18.00     6800.00
04300              20.00     6400.00
04301              22.00     6200.00
04302              18.00     6200.00
04303              12.00     5800.00
04304              18.00     5600.00
04305              18.00     5400.00
04306              12.00     5200.00
04307              12.00     4800.00
04308              14.00     4600.00
04309              14.00     4400.00
04310              10.00     4000.00
04311               4.00     4000.00
04312               6.00     3600.00
04313              10.00     3200.00
04314              12.00     3200.00
04315              14.00     3000.00
04316               4.00     2600.00
04317               2.00     2400.00
04318               8.00     2200.00
04319               6.00     1800.00
04320               4.00     1800.00
04321               2.00     1400.00
04322               4.00     1200.00
04323               6.00     1000.00
04324              -2.00      800.00
04325              -2.00      400.00
04326               2.00      200.00
04327               4.00        0.00
04328              16.00     -200.00
04329              38.00     -400.00
04330              36.00     -800.00
04331             -10.00    -1000.00
04332             -34.00    -1200.00
04333               2.00    -1400.00
04334              28.00    -1800.00
04335              52.00    -1800.00
04336             218.00    -2000.00
04337             250.00    -2600.00
04338            -246.00    -3000.00
04339            -250.00    -3200.00
04340            -250.00    -3400.00
04341             250.00    -3400.00
04342             218.00    -3400.00
04343             236.00    -3600.00
04344             100.00    -4400.00
04345            -250.00    -4200.00
04346              12.00    -4400.00
04347             250.00    -5400.00
04348             -70.00    -4400.00
04349              50.00    -5600.00
04350            -246.00    -5600.00
04351             -76.00    -5400.00
04352             250.00    -6600.00
04353            -244.00    -5800.00
04354             -34.00    -6400.00
04355              92.00    -7200.00
04356             -60.00    -6400.00
04357              70.00    -7800.00
04358            -154.00    -7200.00
04359             -38.00    -7600.00
04360              40.00    -8200.00
04361              -6.00    -7600.00
04362              24.00    -8400.00
04363            -170.00    -8200.00
04364             -20.00    -8400.00
04365              38.00    -9200.00
04366             -42.00    -8800.00
04367             -34.00    -9600.00
04368            -100.00    -9200.00
04369              18.00    -9200.00
04370              16.00    -9800.00
04371             -86.00    -9600.00
04372             -66.00   -10400.00
04373             -46.00   -10000.00
04374             -14.00   -10400.00
04375              -6.00   -10600.00
04376             -52.00   -10600.00
04377             -90.00   -11000.00
04378             -82.00   -10800.00
04379             -10.00   -11200.00
04380              14.00   -11200.00
04381             -84.00   -11400.00
04382             -92.00   -11600.00
04383             -56.00   -11600.00
04384             -42.00   -12000.00
04385             -38.00   -12200.00
04386             -66.00   -12000.00
04387             -54.00   -12200.00
04388             -78.00   -12200.00
04389             -60.00   -12200.00
04390             -34.00   -12400.00
04391             -70.00   -12600.00
04392             -76.00   -12800.00
04393             -66.00   -12800.00
04394             -60.00   -12800.00
04395             -76.00   -13000.00
04396             -82.00   -13000.00
04397             -54.00   -13000.00
04398             -66.00   -13200.00
04399             -90.00   -13200.00
04400             -78.00   -13200.00
04401             -78.00   -13200.00
04402             -72.00   -13200.00
04403             -70.00   -13200.00
04404             -78.00   -13200.00
04405             -90.00   -13200.00
04406             -94.00   -13400.00
04407             -60.00   -13400.00
04408             -68.00   -13200.00
04409             -98.00   -13200.00
04410             -90.00   -13600.00
04411             -76.00   -13200.00
04412             -74.00   -13400.00
04413             -92.00   -13400.00
04414             -92.00   -13400.00
04415             -86.00   -13200.00
04416             -86.00   -13200.00
04417             -72.00   -13200.00
04418             -82.00   -13200.00
04419             -96.00   -13200.00
04420             -90.00   -13200.00
04421             -76.00   -13000.00
04422             -82.00   -13000.00
04423            -108.00   -13000.00
04424            -114.00   -13000.00
04425             -90.00   -13000.00
04426             -74.00   -12800.00
04427             -62.00   -12800.00
04428             -68.00   -12800.00
04429             -78.00   -12400.00
04430             -76.00   -12400.00
04431             -62.00   -12400.00
04432             -58.00   -12200.00
04433             -68.00   -12200.00
04434             -68.00   -12200.00
04435             -58.00   -12000.00
04436             -60.00   -11600.00
04437             -62.00   -11800.00
04438             -60.00   -11600.00
04439             -52.00   -11400.00
04440             -54.00   -11400.00
04441             -62.00   -11000.00
04442             -52.00   -11000.00
04443             -46.00   -10800.00
04444             -50.00   -10600.00
04445             -46.00   -10600.00
04446             -54.00   -10400.00
04447             -50.00   -10200.00
04448             -38.00   -10000.00
04449             -36.00   -10000.00
04450             -46.00    -9800.00
04451             -56.00    -9400.00
04452             -40.00    -9200.00
04453             -28.00    -9200.00
04454             -34.00    -9000.00
04455             -42.00    -9000.00
04456             -46.00    -8600.00
04457             -38.00    -8400.00
04458             -34.00    -8200.00
04459             -28.00    -8000.00
04460             -34.00    -8000.00
04461             -38.00    -7600.00
04462             -30.00    -7200.00
04463             -28.00    -7200.00
04464             -32.00    -6800.00
04465             -30.00    -6800.00
04466             -24.00    -6600.00
04467             -22.00    -6200.00
04468             -30.00    -6000.00
04469             -30.00    -5800.00
04470             -20.00    -5600.00
04471             -20.00    -5400.00
04472             -22.00    -5200.00
04473             -28.00    -4800.00
04474             -22.00    -4600.00
04475             -18.00    -4400.00
04476             -14.00    -4200.00
04477             -20.00    -4000.00
04478             -20.00    -3600.00
04479             -22.00    -3400.00
04480             -12.00    -3200.00
04481             -10.00    -2800.00
04482             -14.00    -2800.00
04483             -18.00    -2400.00
04484             -12.00    -2200.00
04485             -10.00    -2200.00
04486              -6.00    -1800.00
04487             -10.00    -1400.00
04488             -12.00    -1400.00
04489             -18.00    -1000.00
04490             -10.00     -600.00
04491              -6.00     -400.00
04492              -8.00     -200.00
04493              -6.00        0.00
04494               4.00      200.00
04495              30.00      400.00
04496              36.00      600.00
04497              -6.00      800.00
04498             -30.00     1000.00
04499             -10.00     1400.00
04500              26.00     1800.00
04501              26.00     2000.00
04502              54.00     2200.00
04503             250.00     2400.00
04504             250.00     2800.00
04505            -250.00     3000.00
04506            -250.00     3200.00
04507            -116.00     3200.00
04508             250.00     3800.00
04509             142.00     3800.00
04510            -250.00     4000.00
04511             234.00     4400.00
04512              82.00     4600.00
04513            -166.00     4800.00
04514              90.00     5000.00
04515               6.00     5200.00
04516              76.00     5800.00
04517              90.00     5600.00
04518            -122.00     6000.00
04519             -22.00     6400.00
04520               4.00     6200.00
04521              58.00     6800.00
04522             130.00     7000.00
04523             -70.00     7200.00
04524             -46.00     7400.00
04525              90.00     7600.00
04526              84.00     8000.00
04527             -44.00     8000.00
04528             -26.00     8200.00
04529             102.00     8600.00
04530              30.00     8600.00
04531             -22.00     8800.00
04532              26.00     8800.00
04533              28.00     9200.00
04534              26.00     9400.00
04535              46.00     9400.00
04536              66.00     9800.00
04537              22.00    10000.00
04538             -10.00    10000.00
04539              54.00    10200.00
04540              72.00    10200.00
04541               6.00    10400.00
04542              30.00    10600.00
04543              76.00    10800.00
04544              34.00    11000.00
04545               2.00    11200.00
04546              58.00    11200.00
04547              82.00    11400.00
04548              28.00    11600.00
04549              32.00    11600.00
04550              70.00    11800.00
04551              50.00    12000.00
04552              28.00    12000.00
04553              58.00    12000.00
04554              74.00    12400.00
04555              48.00    12400.00
04556              48.00    12400.00
04557              76.00    12600.00
04558              52.00    12600.00
04559              44.00    12600.00
04560              74.00    12800.00
04561              74.00    12800.00
04562              44.00    13000.00
04563              58.00    12800.00
04564              90.00    13200.00
04565              68.00    13200.00
04566              44.00    13200.00
04567              72.00    13200.00
04568              84.00    13200.00
04569              68.00    13200.00
04570              68.00    13200.00
04571              76.00    13400.00
04572              66.00    13400.00
04573              60.00    13400.00
04574              84.00    13200.00
04575              84.00    13400.00
04576              66.00    13400.00
04577              76.00    13400.00
04578              86.00    13400.00
04579              74.00    13600.00
04580              68.00    13400.00
04581              88.00    13400.00
04582              90.00    13200.00
04583              70.00    13400.00
04584              70.00    13200.00
04585              84.00    13400.00
04586              74.00    13200.00
04587              76.00    13200.00
04588              84.00    13200.00
04589              90.00    13200.00
04590              94.00    13000.00
04591             100.00    12800.00
04592              78.00    12800.00
04593              44.00    12800.00
04594              50.00    12600.00
04595              82.00    12600.00
04596              80.00    12400.00
04597              52.00    12400.00
04598              44.00    12400.00
04599              58.00    12400.00
04600              60.00    12200.00
04601              58.00    12000.00
04602              58.00    12000.00
04603              44.00    11800.00
04604              42.00    11600.00
04605              58.00    11600.00
04606              54.00    11200.00
04607              38.00    11200.00
04608              38.00    11000.00
04609              52.00    11000.00
04610              50.00    10800.00
04611              34.00    10400.00
04612              34.00    10400.00
04613              42.00    10400.00
04614              42.00    10000.00
04615              42.00    10000.00
04616              34.00     9800.00
04617              30.00     9600.00
04618              30.00     9400.00
04619              34.00     9200.00
04620              34.00     9000.00
04621              26.00     8800.00
04622              28.00     8800.00
04623              34.00     8600.00
04624              26.00     8400.00
04625              20.00     8200.00
04626              22.00     7800.00
04627              28.00     7800.00
04628              26.00     7600.00
04629              22.00     7200.00
04630              18.00     7000.00
04631              18.00     6800.00
04632              20.00     6600.00
04633              26.00     6400.00
04634              20.00     6200.00
04635              12.00     6000.00
04636              14.00     5600.00
04637              16.00     5600.00
04638              12.00     5200.00
04639              10.00     4800.00
04640              14.00     4800.00
04641              14.00     4400.00
04642              10.00     4200.00
04643               6.00     4000.00
04644               6.00     3800.00
04645               6.00     3600.00
04646              12.00     3400.00
04647              10.00     3000.00
04648               6.00     2800.00
04649               4.00     2600.00
04650               4.00     2200.00
04651              10.00     2200.00
04652               4.00     1800.00
04653               2.00     1600.00
04654               4.00     1400.00
04655               4.00     1200.00
04656              -2.00      800.00
04657               0.00      600.00
04658               2.00      200.00
04659               4.00        0.00
04660              10.00     -200.00
04661              22.00     -200.00
04662              46.00     -400.00
04663              18.00     -800.00
04664             -28.00    -1000.00
04665             -26.00    -1200.00
04666              18.00    -1600.00
04667              36.00    -1600.00
04668              94.00    -1800.00
04669             250.00    -2200.00
04670             186.00    -3000.00
04671            -250.00    -3200.00
04672            -250.00    -3200.00
04673             118.00    -3400.00
04674             250.00    -3400.00
04675             124.00    -3400.00
04676             250.00    -4000.00
04677            -250.00    -4600.00
04678            -250.00    -4200.00
04679             250.00    -5200.00
04680             162.00    -4800.00
04681             -46.00    -4800.00
04682             -22.00    -6000.00
04683            -250.00    -5200.00
04684             222.00    -6000.00
04685              58.00    -6400.00
04686            -250.00    -6000.00
04687             130.00    -7200.00
04688             -30.00    -6600.00
04689              24.00    -7000.00
04690             -18.00    -7800.00
04691            -166.00    -7000.00
04692              50.00    -8000.00
04693              -6.00    -8000.00
04694              44.00    -8200.00
04695             -76.00    -8600.00
04696            -146.00    -8200.00
04697              58.00    -9000.00
04698             -18.00    -8800.00
04699             -28.00    -9000.00
04700             -76.00    -9600.00
04701             -58.00    -9200.00
04702              50.00    -9800.00
04703             -44.00    -9800.00
04704             -82.00   -10000.00
04705             -54.00   -10400.00
04706             -34.00   -10200.00
04707               2.00   -10600.00
04708             -26.00   -10600.00
04709             -76.00   -10800.00
04710             -90.00   -11000.00
04711             -54.00   -11200.00
04712              22.00   -11200.00
04713             -28.00   -11200.00
04714            -102.00   -11600.00
04715             -70.00   -11600.00
04716             -50.00   -11800.00
04717             -30.00   -12000.00
04718             -54.00   -12000.00
04719             -62.00   -12000.00
04720             -60.00   -12400.00
04721             -80.00   -12400.00
04722             -38.00   -12400.00
04723             -48.00   -12400.00
04724             -82.00   -12600.00
04725             -70.00   -12800.00
04726             -58.00   -12800.00
04727             -60.00   -12800.00
04728             -84.00   -13000.00
04729             -70.00   -13000.00
04730             -58.00   -13200.00
04731             -82.00   -13000.00
04732             -82.00   -13200.00
04733             -74.00   -13200.00
04734             -78.00   -13200.00
04735             -72.00   -13200.00
04736             -76.00   -13200.00
04737             -78.00   -13400.00
04738             -92.00   -13400.00
04739             -78.00   -13200.00
04740             -58.00   -13400.00
04741             -84.00   -13200.00
04742             -96.00   -13400.00
04743             -86.00   -13600.00
04744             -70.00   -13200.00
04745             -78.00   -13400.00
04746             -92.00   -13200.00
04747             -84.00   -13400.00
04748             -90.00   -13400.00
04749             -86.00   -13400.00
04750             -76.00   -13400.00
04751             -86.00   -13200.00
04752             -92.00   -13000.00
04753             -86.00   -13200.00
04754             -78.00   -13000.00
04755             -92.00   -13200.00
04756            -114.00   -13000.00
04757            -102.00   -12800.00
04758             -84.00   -13000.00
04759             -68.00   -12800.00
04760             -62.00   -12800.00
04761             -74.00   -12600.00
04762             -76.00   -12600.00
04763             -70.00   -12400.00
04764             -60.00   -12400.00
04765             -66.00   -12200.00
04766             -74.00   -12200.00
04767             -60.00   -12000.00
04768             -54.00   -12000.00
04769             -60.00   -12000.00
04770             -62.00   -11600.00
04771             -62.00   -11600.00
04772             -50.00   -11400.00
04773             -54.00   -11200.00
04774             -54.00   -11000.00
04775             -50.00   -10800.00
04776             -50.00   -10800.00
04777             -46.00   -10800.00
04778             -50.00   -10400.00
04779             -46.00   -10400.00
04780             -44.00   -10000.00
04781             -44.00   -10000.00
04782             -42.00    -9800.00
04783             -46.00    -9600.00
04784             -46.00    -9400.00
04785             -38.00    -9200.00
04786             -38.00    -9200.00
04787             -38.00    -8800.00
04788             -40.00    -8800.00
04789             -38.00    -8400.00
04790             -30.00    -8400.00
04791             -36.00    -8200.00
04792             -36.00    -8000.00
04793             -34.00    -7800.00
04794             -30.00    -7400.00
04795             -26.00    -7400.00
04796             -34.00    -7200.00
04797             -32.00    -6800.00
04798             -26.00    -6800.00
04799             -20.00    -6400.00
04800             -22.00    -6200.00
04801             -36.00    -6000.00
04802             -30.00    -5800.00
04803             -20.00    -5600.00
04804             -20.00    -5200.00
04805             -24.00    -5000.00
04806             -28.00    -4800.00
04807             -22.00    -4600.00
04808             -14.00    -4400.00
04809             -14.00    -4000.00
04810             -18.00    -3800.00
04811             -22.00    -3600.00
04812             -22.00    -3400.00
04813             -14.00    -3200.00
04814             -14.00    -2800.00
04815             -20.00    -2800.00
04816             -20.00    -2400.00
04817             -14.00    -2000.00
04818             -10.00    -2000.00
04819              -4.00    -1600.00
04820              -6.00    -1400.00
04821             -12.00    -1200.00
04822             -12.00     -800.00
04823             -12.00     -800.00
04824             -12.00     -400.00
04825              -6.00     -200.00
04826               0.00      200.00
04827              10.00      400.00
04828              42.00      600.00
04829              18.00      800.00
04830             -22.00     1000.00
04831             -28.00     1200.00
04832              12.00     1400.00
04833              26.00     1800.00
04834              28.00     2000.00
04835             118.00     2000.00
04836             250.00     2800.00
04837              74.00     3000.00
04838            -250.00     3000.00
04839            -250.00     3200.00
04840             250.00     3600.00
04841             250.00     3800.00
04842            -204.00     4000.00
04843             -76.00     4200.00
04844             250.00     4400.00
04845            -126.00     4600.00
04846             -44.00     5200.00
04847              92.00     5000.00
04848             -14.00     5600.00
04849             142.00     5600.00
04850             -30.00     5600.00
04851            -100.00     6200.00
04852              12.00     6400.00
04853               2.00     6400.00
04854             130.00     6800.00
04855              38.00     7000.00
04856            -100.00     7200.00
04857              22.00     7200.00
04858             108.00     7800.00
04859              26.00     8000.00
04860             -64.00     8000.00
04861              46.00     8400.00
04862              86.00     8400.00
04863             -20.00     8600.00
04864              10.00     8800.00
04865              36.00     8800.00
04866              20.00     9200.00
04867              26.00     9400.00
04868              58.00     9600.00
04869              58.00     9800.00
04870               2.00    10000.00
04871              12.00    10000.00
04872              70.00    10400.00
04873              42.00    10400.00
04874               8.00    10600.00
04875              60.00    10800.00
04876              58.00    11000.00
04877               4.00    11000.00
04878              22.00    11200.00
04879              86.00    11200.00
04880              62.00    11400.00
04881               2.00    11800.00
04882              44.00    11800.00
04883              68.00    11800.00
04884              44.00    12000.00
04885              38.00    12000.00
04886              62.00    12200.00
04887              58.00    12400.00
04888              44.00    12400.00
04889              68.00    12600.00
04890              74.00    12600.00
04891              36.00    12600.00
04892              50.00    12800.00
04893              76.00    12800.00
04894              62.00    12800.00
04895              48.00    13000.00
04896              74.00    13200.00
04897              84.00    13200.00
04898              56.00    13200.00
04899              58.00    13200.00
04900              84.00    13200.00
04901              76.00    13400.00
04902              66.00    13400.00
04903              74.00    13200.00
04904              72.00    13400.00
04905              62.00    13400.00
04906              70.00    13400.00
04907              90.00    13400.00
04908              76.00    13400.00
04909              68.00    13600.00
04910              82.00    13400.00
04911              82.00    13600.00
04912              70.00    13400.00
04913              82.00    13400.00
04914              90.00    13400.00
04915              82.00    13400.00
04916              68.00    13400.00
04917              78.00    13400.00
04918              84.00    13200.00
04919              76.00    13200.00
04920              78.00    13200.00
04921              84.00    13000.00
04922              94.00    13000.00
04923             100.00    12800.00
04924              94.00    12800.00
04925              58.00    12800.00
04926              36.00    12600.00
04927              68.00    12600.00
04928              90.00    12400.00
04929              70.00    12600.00
04930              44.00    12400.00
04931              46.00    12400.00
04932              58.00    12200.00
04933              62.00    12000.00
04934              60.00    12000.00
04935              52.00    11800.00
04936              42.00    11800.00
04937              50.00    11600.00
04938              54.00    11400.00
04939              46.00    11200.00
04940              38.00    11200.00
04941              44.00    11000.00
04942              52.00    10800.00
04943              42.00    10800.00
04944              30.00    10400.00
04945              38.00    10400.00
04946              42.00    10200.00
04947              42.00    10000.00
04948              34.00    10000.00
04949              28.00     9600.00
04950              30.00     9400.00
04951              34.00     9200.00
04952              36.00     9200.00
04953              28.00     9000.00
04954              24.00     8800.00
04955              32.00     8600.00
04956              30.00     8400.00
04957              26.00     8200.00
04958              20.00     8000.00
04959              26.00     7600.00
04960              28.00     7600.00
04961              26.00     7200.00
04962              20.00     7200.00
04963              18.00     6800.00
04964              18.00     6800.00
04965              20.00     6400.00
04966              26.00     6400.00
04967              20.00     6000.00
04968              10.00     6000.00
04969              14.00     5600.00
04970              16.00     5400.00
04971              12.00     5200.00
04972              14.00     4800.00
04973              18.00     4600.00
04974              12.00     4400.00
04975              10.00     4200.00
04976              10.00     4000.00
04977              10.00     3800.00
04978              10.00     3400.00
04979              12.00     3200.00
04980               8.00     3000.00
04981               4.00     2800.00
04982               6.00     2400.00
04983               6.00     2000.00
04984               4.00     2000.00
04985               2.00     1600.00
04986               6.00     1400.00
04987              10.00     1200.00
04988               4.00      800.00
04989               2.00      600.00
04990              -2.00      400.00
04991              -2.00      400.00
04992               4.00        0.00
04993              18.00     -400.00
04994              36.00     -400.00
04995              42.00     -800.00
04996              -6.00    -1000.00
04997             -34.00    -1200.00
04998              -6.00    -1400.00
04999              28.00    -1600.00
05000              52.00    -1800.00
