Unit:(mV)
                     CH1         CH2
Frequency              ? 300.730 kHz
00001              -2.00      600.00
00002               2.00      400.00
00003               2.00        0.00
00004               6.00     -200.00
00005              18.00     -400.00
00006              44.00     -400.00
00007              26.00     -800.00
00008             -20.00    -1000.00
00009             -30.00    -1200.00
00010              12.00    -1600.00
00011              36.00    -1600.00
00012              68.00    -2000.00
00013             250.00    -2000.00
00014             250.00    -2800.00
00015            -250.00    -3200.00
00016            -250.00    -3200.00
00017             -84.00    -3400.00
00018             250.00    -3400.00
00019             140.00    -3400.00
00020             250.00    -3800.00
00021            -106.00    -4400.00
00022            -250.00    -4000.00
00023             250.00    -5000.00
00024             250.00    -5200.00
00025            -122.00    -4400.00
00026              78.00    -6000.00
00027            -250.00    -5600.00
00028              30.00    -5600.00
00029             218.00    -6600.00
00030            -250.00    -5600.00
00031              22.00    -6800.00
00032              42.00    -6600.00
00033               4.00    -6600.00
00034              -2.00    -7800.00
00035            -170.00    -7000.00
00036              54.00    -8000.00
00037             -12.00    -8000.00
00038              12.00    -8000.00
00039              -2.00    -8600.00
00040            -178.00    -8200.00
00041              28.00    -8800.00
00042              12.00    -9000.00
00043             -44.00    -8800.00
00044             -50.00    -9600.00
00045             -82.00    -9200.00
00046              36.00    -9800.00
00047             -12.00    -9800.00
00048             -86.00   -10000.00
00049             -62.00   -10200.00
00050             -38.00   -10000.00
00051              -6.00   -10600.00
00052             -20.00   -10600.00
00053             -64.00   -10600.00
00054             -90.00   -11000.00
00055             -74.00   -10800.00
00056               4.00   -11200.00
00057              -6.00   -11200.00
00058             -92.00   -11600.00
00059             -78.00   -11600.00
00060             -60.00   -11600.00
00061             -36.00   -12000.00
00062             -42.00   -12000.00
00063             -66.00   -12000.00
00064             -60.00   -12200.00
00065             -82.00   -12200.00
00066             -52.00   -12400.00
00067             -44.00   -12400.00
00068             -70.00   -12800.00
00069             -76.00   -12800.00
00070             -68.00   -12800.00
00071             -62.00   -12800.00
00072             -78.00   -13000.00
00073             -74.00   -13000.00
00074             -54.00   -13000.00
00075             -76.00   -13200.00
00076             -88.00   -13000.00
00077             -76.00   -13200.00
00078             -76.00   -13200.00
00079             -68.00   -13200.00
00080             -76.00   -13200.00
00081             -84.00   -13200.00
00082             -90.00   -13400.00
00083             -86.00   -13200.00
00084             -60.00   -13400.00
00085             -78.00   -13600.00
00086             -94.00   -13400.00
00087             -86.00   -13200.00
00088             -74.00   -13600.00
00089             -76.00   -13400.00
00090             -94.00   -13400.00
00091             -90.00   -13200.00
00092             -86.00   -13400.00
00093             -82.00   -13200.00
00094             -74.00   -13200.00
00095             -86.00   -13200.00
00096             -94.00   -13200.00
00097             -90.00   -13200.00
00098             -82.00   -13000.00
00099             -84.00   -13000.00
00100            -102.00   -13200.00
00101            -106.00   -12800.00
00102             -92.00   -12800.00
00103             -74.00   -12800.00
00104             -60.00   -12800.00
00105             -72.00   -12600.00
00106             -82.00   -12400.00
00107             -68.00   -12400.00
00108             -60.00   -12400.00
00109             -58.00   -12200.00
00110             -70.00   -12200.00
00111             -66.00   -12000.00
00112             -58.00   -12000.00
00113             -62.00   -11600.00
00114             -62.00   -11800.00
00115             -60.00   -11400.00
00116             -50.00   -11600.00
00117             -52.00   -11200.00
00118             -54.00   -11000.00
00119             -50.00   -10800.00
00120             -52.00   -10800.00
00121             -46.00   -10600.00
00122             -46.00   -10400.00
00123             -54.00   -10400.00
00124             -46.00   -10000.00
00125             -40.00   -10000.00
00126             -38.00    -9800.00
00127             -44.00    -9600.00
00128             -50.00    -9600.00
00129             -44.00    -9200.00
00130             -38.00    -9200.00
00131             -38.00    -9000.00
00132             -34.00    -8800.00
00133             -38.00    -8600.00
00134             -38.00    -8400.00
00135             -42.00    -8200.00
00136             -32.00    -8000.00
00137             -30.00    -7600.00
00138             -30.00    -7600.00
00139             -28.00    -7200.00
00140             -34.00    -7000.00
00141             -34.00    -6800.00
00142             -28.00    -6800.00
00143             -28.00    -6400.00
00144             -26.00    -6200.00
00145             -26.00    -6000.00
00146             -28.00    -5600.00
00147             -26.00    -5600.00
00148             -22.00    -5200.00
00149             -18.00    -5000.00
00150             -20.00    -4800.00
00151             -26.00    -4600.00
00152             -20.00    -4200.00
00153             -20.00    -4000.00
00154             -20.00    -4000.00
00155             -14.00    -3600.00
00156             -12.00    -3400.00
00157             -14.00    -3200.00
00158             -22.00    -2800.00
00159             -22.00    -2800.00
00160             -10.00    -2400.00
00161              -4.00    -2200.00
00162             -10.00    -2000.00
00163             -14.00    -1600.00
00164             -14.00    -1600.00
00165              -6.00    -1200.00
00166              -2.00    -1000.00
00167              -6.00     -600.00
00168             -18.00     -400.00
00169             -12.00     -200.00
00170              -2.00        0.00
00171              18.00      200.00
00172              42.00      400.00
00173              26.00      600.00
00174             -24.00      800.00
00175             -34.00     1200.00
00176              10.00     1400.00
00177              34.00     1800.00
00178              26.00     1800.00
00179              74.00     2200.00
00180             250.00     2600.00
00181             218.00     3000.00
00182            -250.00     3000.00
00183            -250.00     3200.00
00184             100.00     3200.00
00185             250.00     3600.00
00186             -50.00     3800.00
00187            -198.00     4000.00
00188             250.00     4400.00
00189             -46.00     4600.00
00190            -110.00     4800.00
00191             110.00     4800.00
00192             -42.00     5200.00
00193             138.00     5800.00
00194              50.00     5400.00
00195            -158.00     6200.00
00196               6.00     6200.00
00197              30.00     6400.00
00198              70.00     7000.00
00199              90.00     6800.00
00200             -70.00     7200.00
00201             -30.00     7200.00
00202              90.00     7400.00
00203              90.00     8000.00
00204             -70.00     7800.00
00205              -8.00     8200.00
00206             118.00     8400.00
00207              -6.00     8400.00
00208             -18.00     8800.00
00209              50.00     9000.00
00210              28.00     9200.00
00211              12.00     9400.00
00212              52.00     9400.00
00213              62.00     9800.00
00214              18.00     9800.00
00215               4.00    10000.00
00216              52.00    10200.00
00217              52.00    10400.00
00218              20.00    10400.00
00219              52.00    10800.00
00220              66.00    11000.00
00221              18.00    11000.00
00222               4.00    11000.00
00223              72.00    11400.00
00224              84.00    11400.00
00225              20.00    11600.00
00226              34.00    11600.00
00227              66.00    11800.00
00228              50.00    11800.00
00229              46.00    12000.00
00230              66.00    12000.00
00231              60.00    12400.00
00232              38.00    12200.00
00233              62.00    12400.00
00234              78.00    12600.00
00235              52.00    12600.00
00236              50.00    12600.00
00237              74.00    12800.00
00238              64.00    13000.00
00239              50.00    13000.00
00240              72.00    13000.00
00241              90.00    13200.00
00242              52.00    13200.00
00243              46.00    13200.00
00244              82.00    13200.00
00245              84.00    13200.00
00246              68.00    13200.00
00247              68.00    13200.00
00248              74.00    13400.00
00249              68.00    13400.00
00250              72.00    13200.00
00251              92.00    13400.00
00252              78.00    13400.00
00253              62.00    13400.00
00254              82.00    13400.00
00255              90.00    13400.00
00256              74.00    13400.00
00257              72.00    13400.00
00258              90.00    13400.00
00259              86.00    13200.00
00260              70.00    13200.00
00261              76.00    13400.00
00262              82.00    13200.00
00263              74.00    13200.00
00264              76.00    13000.00
00265              90.00    13200.00
00266              98.00    13200.00
00267             100.00    12800.00
00268             100.00    12800.00
00269              74.00    12800.00
00270              42.00    12800.00
00271              56.00    12600.00
00272              84.00    12400.00
00273              78.00    12400.00
00274              50.00    12400.00
00275              46.00    12200.00
00276              60.00    12400.00
00277              66.00    12000.00
00278              62.00    11800.00
00279              54.00    11800.00
00280              42.00    11600.00
00281              48.00    11400.00
00282              54.00    11400.00
00283              54.00    11400.00
00284              40.00    11000.00
00285              46.00    11000.00
00286              52.00    10800.00
00287              46.00    10800.00
00288              36.00    10400.00
00289              42.00    10400.00
00290              44.00    10200.00
00291              44.00    10000.00
00292              38.00     9800.00
00293              36.00     9600.00
00294              32.00     9600.00
00295              30.00     9400.00
00296              38.00     9200.00
00297              36.00     9000.00
00298              26.00     8800.00
00299              28.00     8600.00
00300              30.00     8400.00
00301              28.00     8400.00
00302              22.00     8000.00
00303              28.00     7800.00
00304              30.00     7600.00
00305              26.00     7200.00
00306              20.00     7200.00
00307              20.00     6800.00
00308              20.00     6800.00
00309              22.00     6400.00
00310              22.00     6400.00
00311              18.00     6000.00
00312              14.00     6000.00
00313              14.00     5600.00
00314              18.00     5400.00
00315              14.00     5200.00
00316              12.00     4800.00
00317              14.00     4600.00
00318              12.00     4400.00
00319              12.00     4200.00
00320              12.00     4000.00
00321              10.00     3800.00
00322              10.00     3400.00
00323               4.00     3200.00
00324               6.00     3000.00
00325               6.00     2800.00
00326              10.00     2400.00
00327              12.00     2200.00
00328               6.00     2000.00
00329              -2.00     1800.00
00330               2.00     1600.00
00331               6.00     1200.00
00332               6.00     1000.00
00333               2.00      800.00
00334              -4.00      400.00
00335              -2.00      400.00
00336               6.00        0.00
00337              14.00     -400.00
00338              30.00     -600.00
00339              42.00     -400.00
00340              -2.00    -1000.00
00341             -30.00    -1200.00
00342             -10.00    -1400.00
00343              30.00    -1600.00
00344              42.00    -1800.00
00345             134.00    -2000.00
00346             250.00    -2400.00
00347               4.00    -3000.00
00348            -250.00    -3200.00
00349            -250.00    -3400.00
00350             250.00    -3400.00
00351             250.00    -3600.00
00352             162.00    -3400.00
00353             250.00    -4200.00
00354            -250.00    -4400.00
00355            -250.00    -4200.00
00356             250.00    -5600.00
00357              -6.00    -4600.00
00358               4.00    -5000.00
00359             -66.00    -6000.00
00360            -250.00    -5200.00
00361             250.00    -6400.00
00362             -46.00    -6000.00
00363            -184.00    -6000.00
00364             106.00    -7200.00
00365             -20.00    -6400.00
00366              54.00    -7200.00
00367            -124.00    -7400.00
00368             -78.00    -7200.00
00369              66.00    -8200.00
00370             -46.00    -7600.00
00371              62.00    -8400.00
00372            -122.00    -8400.00
00373            -102.00    -8200.00
00374              66.00    -9200.00
00375             -42.00    -8600.00
00376             -30.00    -9200.00
00377             -86.00    -9200.00
00378             -28.00    -9200.00
00379              38.00    -9800.00
00380             -62.00    -9600.00
00381             -82.00   -10200.00
00382             -54.00   -10200.00
00383             -20.00   -10400.00
00384              -6.00   -10600.00
00385             -42.00   -10600.00
00386             -76.00   -10800.00
00387             -90.00   -10800.00
00388             -38.00   -11200.00
00389              20.00   -11200.00
00390             -54.00   -11200.00
00391             -98.00   -11600.00
00392             -68.00   -11600.00
00393             -46.00   -11800.00
00394             -30.00   -12000.00
00395             -62.00   -12200.00
00396             -62.00   -12000.00
00397             -68.00   -12400.00
00398             -74.00   -12200.00
00399             -38.00   -12400.00
00400             -58.00   -12400.00
00401             -76.00   -12800.00
00402             -72.00   -12800.00
00403             -66.00   -12800.00
00404             -70.00   -13000.00
00405             -84.00   -13000.00
00406             -62.00   -13000.00
00407             -60.00   -13200.00
00408             -86.00   -13000.00
00409             -82.00   -13200.00
00410             -76.00   -13000.00
00411             -74.00   -13200.00
00412             -72.00   -13200.00
00413             -80.00   -13200.00
00414             -84.00   -13200.00
00415             -94.00   -13200.00
00416             -70.00   -13600.00
00417             -62.00   -13200.00
00418             -92.00   -13200.00
00419             -94.00   -13400.00
00420             -80.00   -13200.00
00421             -70.00   -13200.00
00422             -86.00   -13400.00
00423             -98.00   -13400.00
00424             -86.00   -13200.00
00425             -86.00   -13200.00
00426             -76.00   -13200.00
00427             -78.00   -13200.00
00428             -94.00   -13200.00
00429             -92.00   -13200.00
00430             -82.00   -13200.00
00431             -76.00   -13000.00
00432             -98.00   -13000.00
00433            -114.00   -13000.00
00434            -102.00   -13000.00
00435             -84.00   -12800.00
00436             -66.00   -12800.00
00437             -62.00   -12800.00
00438             -72.00   -12400.00
00439             -76.00   -12600.00
00440             -70.00   -12400.00
00441             -58.00   -12400.00
00442             -68.00   -12200.00
00443             -70.00   -12000.00
00444             -58.00   -12000.00
00445             -58.00   -12000.00
00446             -62.00   -11600.00
00447             -66.00   -11800.00
00448             -58.00   -11400.00
00449             -50.00   -11200.00
00450             -54.00   -11000.00
00451             -52.00   -11000.00
00452             -52.00   -10800.00
00453             -52.00   -10600.00
00454             -46.00   -10600.00
00455             -46.00   -10400.00
00456             -52.00   -10400.00
00457             -46.00   -10000.00
00458             -38.00   -10000.00
00459             -42.00    -9800.00
00460             -50.00    -9600.00
00461             -44.00    -9400.00
00462             -38.00    -9200.00
00463             -34.00    -9000.00
00464             -42.00    -8800.00
00465             -44.00    -8600.00
00466             -30.00    -8400.00
00467             -34.00    -8400.00
00468             -38.00    -8000.00
00469             -38.00    -7800.00
00470             -34.00    -7600.00
00471             -26.00    -7400.00
00472             -28.00    -7200.00
00473             -34.00    -7000.00
00474             -34.00    -6600.00
00475             -30.00    -6600.00
00476             -20.00    -6400.00
00477             -20.00    -6000.00
00478             -30.00    -5800.00
00479             -28.00    -5600.00
00480             -22.00    -5600.00
00481             -20.00    -5000.00
00482             -18.00    -4800.00
00483             -26.00    -4600.00
00484             -22.00    -4400.00
00485             -14.00    -4200.00
00486             -20.00    -4000.00
00487             -20.00    -3800.00
00488             -22.00    -3600.00
00489             -18.00    -3400.00
00490              -6.00    -2800.00
00491             -12.00    -2800.00
00492             -18.00    -2600.00
00493             -14.00    -2400.00
00494             -12.00    -2000.00
00495             -10.00    -1800.00
00496             -10.00    -1600.00
00497             -12.00    -1200.00
00498              -8.00    -1000.00
00499              -6.00     -800.00
00500             -10.00     -400.00
00501             -10.00     -200.00
00502              -6.00        0.00
00503               4.00        0.00
00504              26.00      600.00
00505              42.00      600.00
00506              -2.00      800.00
00507             -36.00     1000.00
00508             -18.00     1200.00
00509              26.00     1800.00
00510              34.00     1800.00
00511              38.00     2000.00
00512             170.00     2200.00
00513             250.00     2800.00
00514            -100.00     3000.00
00515            -250.00     3000.00
00516            -250.00     3200.00
00517             250.00     3600.00
00518             250.00     3800.00
00519            -250.00     3800.00
00520             100.00     4400.00
00521             218.00     4400.00
00522            -186.00     4800.00
00523              38.00     5200.00
00524              50.00     5000.00
00525              12.00     5600.00
00526             164.00     5600.00
00527            -102.00     5600.00
00528             -94.00     6400.00
00529              46.00     6200.00
00530              22.00     6400.00
00531             118.00     7000.00
00532              10.00     6800.00
00533             -74.00     7200.00
00534              30.00     7200.00
00535             118.00     7800.00
00536               4.00     8200.00
00537             -82.00     7800.00
00538              84.00     8400.00
00539              78.00     8600.00
00540             -42.00     8800.00
00541              18.00     8800.00
00542              52.00     9200.00
00543              18.00     9400.00
00544              34.00     9200.00
00545              60.00     9600.00
00546              44.00    10000.00
00547              -2.00    10000.00
00548              28.00    10000.00
00549              66.00    10400.00
00550              34.00    10400.00
00551              22.00    10400.00
00552              68.00    10800.00
00553              48.00    11000.00
00554               2.00    11200.00
00555              34.00    11200.00
00556              90.00    11400.00
00557              48.00    11600.00
00558              14.00    11800.00
00559              62.00    11600.00
00560              60.00    12000.00
00561              42.00    12000.00
00562              52.00    12000.00
00563              66.00    12200.00
00564              50.00    12400.00
00565              46.00    12400.00
00566              76.00    12400.00
00567              62.00    12600.00
00568              38.00    12600.00
00569              60.00    12800.00
00570              78.00    12800.00
00571              56.00    12800.00
00572              58.00    12800.00
00573              82.00    13000.00
00574              76.00    13200.00
00575              44.00    13200.00
00576              66.00    13200.00
00577              88.00    13200.00
00578              72.00    13200.00
00579              66.00    13200.00
00580              78.00    13400.00
00581              74.00    13200.00
00582              66.00    13400.00
00583              78.00    13400.00
00584              86.00    13400.00
00585              68.00    13400.00
00586              70.00    13400.00
00587              90.00    13400.00
00588              82.00    13400.00
00589              66.00    13200.00
00590              78.00    13200.00
00591              98.00    13400.00
00592              78.00    13400.00
00593              72.00    13200.00
00594              78.00    13200.00
00595              76.00    13200.00
00596              74.00    13200.00
00597              84.00    13200.00
00598              94.00    13200.00
00599              98.00    12800.00
00600             102.00    12800.00
00601              92.00    12800.00
00602              56.00    12800.00
00603              44.00    12800.00
00604              72.00    12600.00
00605              86.00    12600.00
00606              62.00    12400.00
00607              46.00    12400.00
00608              54.00    12400.00
00609              66.00    12400.00
00610              64.00    12000.00
00611              58.00    11800.00
00612              50.00    11800.00
00613              42.00    11600.00
00614              52.00    11600.00
00615              54.00    11200.00
00616              46.00    11200.00
00617              40.00    11000.00
00618              50.00    10800.00
00619              52.00    10800.00
00620              38.00    10800.00
00621              36.00    10400.00
00622              42.00    10400.00
00623              44.00    10200.00
00624              42.00    10000.00
00625              40.00    10000.00
00626              32.00     9600.00
00627              30.00     9400.00
00628              36.00     9400.00
00629              38.00     9000.00
00630              30.00     8800.00
00631              26.00     8600.00
00632              30.00     8600.00
00633              30.00     8400.00
00634              24.00     8200.00
00635              22.00     7800.00
00636              28.00     7800.00
00637              28.00     7600.00
00638              26.00     7200.00
00639              22.00     7000.00
00640              20.00     6800.00
00641              20.00     6600.00
00642              20.00     6400.00
00643              22.00     6200.00
00644              18.00     6000.00
00645              12.00     5800.00
00646              18.00     5600.00
00647              18.00     5400.00
00648              10.00     5200.00
00649              16.00     4800.00
00650              18.00     4600.00
00651              14.00     4400.00
00652               8.00     4000.00
00653               8.00     3800.00
00654              10.00     3600.00
00655              12.00     3400.00
00656              12.00     3200.00
00657              10.00     3000.00
00658               4.00     2600.00
00659               4.00     2400.00
00660               6.00     2000.00
00661               4.00     2000.00
00662               4.00     1600.00
00663               4.00     1400.00
00664               6.00     1200.00
00665               4.00      800.00
00666              -2.00      600.00
00667               2.00      400.00
00668               4.00      200.00
00669              10.00     -200.00
00670              18.00     -400.00
00671              44.00     -600.00
00672              28.00     -800.00
00673             -18.00    -1000.00
00674             -28.00    -1200.00
00675              10.00    -1600.00
00676              34.00    -1600.00
00677              66.00    -2000.00
00678             250.00    -2000.00
00679             250.00    -2600.00
00680            -250.00    -3000.00
00681            -250.00    -3200.00
00682            -134.00    -3600.00
00683             250.00    -3400.00
00684             152.00    -3400.00
00685             250.00    -3600.00
00686             -54.00    -4600.00
00687            -250.00    -4000.00
00688             210.00    -4800.00
00689             250.00    -5200.00
00690            -126.00    -4400.00
00691              76.00    -5800.00
00692            -250.00    -5600.00
00693              -6.00    -5600.00
00694             238.00    -6600.00
00695            -244.00    -5800.00
00696               4.00    -6800.00
00697              50.00    -6800.00
00698              -2.00    -6600.00
00699               6.00    -7800.00
00700            -180.00    -6800.00
00701              42.00    -7800.00
00702              -2.00    -8000.00
00703               2.00    -8000.00
00704              12.00    -8800.00
00705            -180.00    -8000.00
00706              20.00    -8800.00
00707              20.00    -9200.00
00708             -50.00    -8800.00
00709             -46.00    -9600.00
00710             -86.00    -9200.00
00711              30.00    -9600.00
00712              -4.00    -9800.00
00713             -86.00    -9800.00
00714             -70.00   -10200.00
00715             -38.00   -10000.00
00716              -2.00   -10600.00
00717             -18.00   -10600.00
00718             -68.00   -10600.00
00719             -88.00   -11000.00
00720             -76.00   -11000.00
00721               4.00   -11200.00
00722               2.00   -11200.00
00723             -90.00   -11400.00
00724             -82.00   -11600.00
00725             -60.00   -11600.00
00726             -34.00   -11800.00
00727             -38.00   -12000.00
00728             -68.00   -12200.00
00729             -62.00   -12200.00
00730             -76.00   -12400.00
00731             -54.00   -12200.00
00732             -38.00   -12400.00
00733             -70.00   -12400.00
00734             -70.00   -12800.00
00735             -66.00   -12800.00
00736             -62.00   -12800.00
00737             -78.00   -13000.00
00738             -76.00   -13000.00
00739             -52.00   -13000.00
00740             -74.00   -13200.00
00741             -88.00   -13200.00
00742             -82.00   -13200.00
00743             -76.00   -13200.00
00744             -66.00   -13200.00
00745             -70.00   -13400.00
00746             -82.00   -13400.00
00747             -92.00   -13400.00
00748             -88.00   -13200.00
00749             -58.00   -13200.00
00750             -74.00   -13400.00
00751             -98.00   -13400.00
00752             -90.00   -13400.00
00753             -76.00   -13200.00
00754             -74.00   -13200.00
00755             -90.00   -13200.00
00756             -90.00   -13200.00
00757             -86.00   -13400.00
00758             -84.00   -13400.00
00759             -76.00   -13200.00
00760             -86.00   -13200.00
00761             -96.00   -13200.00
00762             -90.00   -13200.00
00763             -78.00   -13000.00
00764             -84.00   -13000.00
00765            -108.00   -12800.00
00766            -110.00   -13000.00
00767             -94.00   -12800.00
00768             -76.00   -12800.00
00769             -60.00   -12800.00
00770             -68.00   -12800.00
00771             -76.00   -12600.00
00772             -72.00   -12400.00
00773             -62.00   -12200.00
00774             -60.00   -12200.00
00775             -70.00   -12000.00
00776             -66.00   -12000.00
00777             -54.00   -12000.00
00778             -58.00   -11600.00
00779             -62.00   -11600.00
00780             -62.00   -11400.00
00781             -54.00   -11400.00
00782             -52.00   -11200.00
00783             -58.00   -11000.00
00784             -50.00   -10800.00
00785             -52.00   -10800.00
00786             -46.00   -10600.00
00787             -48.00   -10400.00
00788             -52.00   -10400.00
00789             -46.00   -10000.00
00790             -44.00   -10000.00
00791             -38.00    -9800.00
00792             -46.00    -9600.00
00793             -52.00    -9400.00
00794             -42.00    -9400.00
00795             -36.00    -9200.00
00796             -38.00    -8800.00
00797             -38.00    -8800.00
00798             -42.00    -8400.00
00799             -32.00    -8200.00
00800             -36.00    -8200.00
00801             -30.00    -8000.00
00802             -28.00    -7800.00
00803             -34.00    -7400.00
00804             -28.00    -7400.00
00805             -30.00    -7200.00
00806             -34.00    -7000.00
00807             -36.00    -6600.00
00808             -22.00    -6400.00
00809             -10.00    -6200.00
00810             -22.00    -6000.00
00811             -36.00    -5800.00
00812             -34.00    -5600.00
00813             -22.00    -5600.00
00814             -12.00    -5000.00
00815             -22.00    -4800.00
00816             -26.00    -4600.00
00817             -20.00    -4400.00
00818             -20.00    -4200.00
00819             -18.00    -4000.00
00820             -12.00    -3600.00
00821             -14.00    -3400.00
00822             -14.00    -3200.00
00823             -14.00    -3000.00
00824             -14.00    -2600.00
00825             -20.00    -2600.00
00826             -20.00    -2000.00
00827             -12.00    -2000.00
00828              -2.00    -1800.00
00829             -10.00    -1400.00
00830             -12.00    -1200.00
00831             -10.00     -800.00
00832              -6.00     -800.00
00833             -10.00     -400.00
00834              -2.00     -200.00
00835               2.00        0.00
00836              -2.00      400.00
00837              28.00      600.00
00838              30.00      800.00
00839              -4.00      800.00
00840             -28.00     1000.00
00841              -2.00     1400.00
00842              24.00     1600.00
00843              26.00     2000.00
00844              74.00     2200.00
00845             250.00     2400.00
00846             242.00     3000.00
00847            -250.00     3000.00
00848            -250.00     3200.00
00849              62.00     3600.00
00850             250.00     3800.00
00851              -8.00     4000.00
00852            -232.00     4000.00
00853             250.00     4400.00
00854             -20.00     4600.00
00855            -124.00     4800.00
00856             114.00     4800.00
00857             -38.00     5400.00
00858             122.00     5800.00
00859              68.00     5400.00
00860            -150.00     6000.00
00861               4.00     6400.00
00862              34.00     6200.00
00863              56.00     6800.00
00864              90.00     7000.00
00865             -62.00     7200.00
00866             -30.00     7400.00
00867              90.00     7600.00
00868              90.00     8000.00
00869             -66.00     8000.00
00870             -14.00     8200.00
00871             122.00     8400.00
00872               2.00     8600.00
00873             -22.00     8800.00
00874              44.00     9000.00
00875              26.00     9200.00
00876              18.00     9400.00
00877              54.00     9400.00
00878              58.00    10000.00
00879              14.00     9800.00
00880               2.00    10000.00
00881              58.00    10200.00
00882              66.00    10400.00
00883              14.00    10400.00
00884              38.00    10600.00
00885              60.00    10800.00
00886              20.00    11000.00
00887              12.00    11000.00
00888              78.00    11400.00
00889              84.00    11400.00
00890              18.00    11600.00
00891              26.00    11800.00
00892              66.00    11800.00
00893              52.00    11800.00
00894              46.00    12000.00
00895              60.00    12200.00
00896              54.00    12400.00
00897              40.00    12400.00
00898              62.00    12400.00
00899              82.00    12600.00
00900              50.00    12600.00
00901              44.00    12800.00
00902              74.00    12800.00
00903              66.00    12800.00
00904              50.00    12800.00
00905              68.00    12800.00
00906              86.00    13200.00
00907              58.00    13200.00
00908              52.00    13200.00
00909              78.00    13400.00
00910              78.00    13200.00
00911              66.00    13200.00
00912              76.00    13400.00
00913              78.00    13400.00
00914              62.00    13400.00
00915              66.00    13200.00
00916              84.00    13400.00
00917              82.00    13400.00
00918              68.00    13200.00
00919              84.00    13400.00
00920              88.00    13400.00
00921              74.00    13400.00
00922              70.00    13200.00
00923              92.00    13200.00
00924              90.00    13400.00
00925              68.00    13200.00
00926              68.00    13400.00
00927              74.00    13200.00
00928              76.00    13200.00
00929              84.00    13200.00
00930             100.00    13200.00
00931             102.00    13000.00
00932             102.00    12800.00
00933             106.00    12800.00
00934              74.00    12800.00
00935              34.00    12600.00
00936              42.00    12600.00
00937              68.00    12400.00
00938              68.00    12400.00
00939              52.00    12400.00
00940              54.00    12200.00
00941              74.00    12200.00
00942              78.00    12000.00
00943              70.00    12000.00
00944              56.00    11800.00
00945              34.00    11600.00
00946              32.00    11400.00
00947              42.00    11400.00
00948              46.00    11200.00
00949              44.00    11200.00
00950              54.00    11000.00
00951              62.00    10800.00
00952              52.00    10600.00
00953              36.00    10400.00
00954              38.00    10200.00
00955              38.00    10200.00
00956              34.00    10000.00
00957              30.00    10000.00
00958              28.00     9800.00
00959              30.00     9400.00
00960              36.00     9400.00
00961              44.00     9200.00
00962              42.00     9200.00
00963              30.00     8800.00
00964              30.00     8600.00
00965              26.00     8400.00
00966              20.00     8200.00
00967              18.00     8000.00
00968              22.00     7800.00
00969              26.00     7600.00
00970              28.00     7600.00
00971              26.00     7200.00
00972              24.00     7000.00
00973              26.00     6800.00
00974              24.00     6600.00
00975              22.00     6400.00
00976              14.00     6000.00
00977              10.00     6000.00
00978              12.00     5600.00
00979              18.00     5400.00
00980              18.00     5200.00
00981              22.00     4800.00
00982              22.00     4600.00
00983              16.00     4400.00
00984              12.00     4400.00
00985               6.00     4000.00
00986               6.00     3600.00
00987               6.00     3600.00
00988              10.00     3200.00
00989              10.00     3000.00
00990               6.00     3000.00
00991              10.00     2400.00
00992              12.00     2200.00
00993              10.00     2000.00
00994               4.00     1800.00
00995               4.00     1400.00
00996               2.00     1200.00
00997               2.00     1000.00
00998               0.00      800.00
00999              -2.00      400.00
01000               4.00      200.00
01001              12.00        0.00
01002              10.00     -200.00
01003              30.00     -400.00
01004              44.00     -600.00
01005               2.00    -1000.00
01006             -40.00    -1200.00
01007             -14.00    -1400.00
01008              38.00    -1600.00
01009              46.00    -1800.00
01010             116.00    -2000.00
01011             250.00    -2400.00
01012              50.00    -3000.00
01013            -250.00    -3200.00
01014            -250.00    -3400.00
01015             238.00    -3400.00
01016             250.00    -3400.00
01017             156.00    -3200.00
01018             250.00    -4200.00
01019            -250.00    -4400.00
01020            -250.00    -4200.00
01021             250.00    -5400.00
01022              22.00    -4800.00
01023             -10.00    -5000.00
01024             -28.00    -6000.00
01025            -250.00    -5200.00
01026             234.00    -6400.00
01027             -28.00    -6400.00
01028            -194.00    -6000.00
01029             116.00    -7200.00
01030             -18.00    -6400.00
01031              44.00    -7400.00
01032            -116.00    -7400.00
01033            -102.00    -7200.00
01034              68.00    -8200.00
01035             -42.00    -7600.00
01036              62.00    -8400.00
01037            -108.00    -8400.00
01038            -120.00    -8400.00
01039              68.00    -9200.00
01040             -34.00    -8800.00
01041             -26.00    -9200.00
01042             -84.00    -9600.00
01043             -44.00    -9200.00
01044              34.00    -9800.00
01045             -54.00    -9600.00
01046             -70.00   -10000.00
01047             -50.00   -10000.00
01048             -30.00   -10200.00
01049             -12.00   -10800.00
01050             -38.00   -10400.00
01051             -70.00   -10800.00
01052             -82.00   -11000.00
01053             -42.00   -11000.00
01054              14.00   -11400.00
01055             -54.00   -11200.00
01056             -96.00   -11600.00
01057             -60.00   -11600.00
01058             -52.00   -11600.00
01059             -30.00   -12000.00
01060             -60.00   -12000.00
01061             -60.00   -12000.00
01062             -64.00   -12200.00
01063             -74.00   -12400.00
01064             -42.00   -12400.00
01065             -54.00   -12400.00
01066             -72.00   -12400.00
01067             -72.00   -12800.00
01068             -68.00   -12800.00
01069             -70.00   -12800.00
01070             -78.00   -13000.00
01071             -58.00   -12800.00
01072             -58.00   -13000.00
01073             -90.00   -13200.00
01074             -86.00   -13200.00
01075             -84.00   -13200.00
01076             -70.00   -13200.00
01077             -66.00   -13200.00
01078             -78.00   -13200.00
01079             -86.00   -13400.00
01080             -94.00   -13200.00
01081             -72.00   -13200.00
01082             -62.00   -13600.00
01083             -90.00   -13400.00
01084             -92.00   -13600.00
01085             -82.00   -13200.00
01086             -76.00   -13400.00
01087             -86.00   -13400.00
01088             -98.00   -13200.00
01089             -86.00   -13400.00
01090             -84.00   -13200.00
01091             -78.00   -13200.00
01092             -84.00   -13200.00
01093             -98.00   -13200.00
01094             -92.00   -13000.00
01095             -78.00   -13200.00
01096             -78.00   -13000.00
01097            -100.00   -13000.00
01098            -116.00   -12800.00
01099            -108.00   -13000.00
01100             -84.00   -12800.00
01101             -62.00   -12800.00
01102             -64.00   -12800.00
01103             -76.00   -12800.00
01104             -76.00   -12400.00
01105             -68.00   -12400.00
01106             -60.00   -12200.00
01107             -68.00   -12200.00
01108             -74.00   -12000.00
01109             -60.00   -12000.00
01110             -54.00   -11800.00
01111             -60.00   -12000.00
01112             -64.00   -11600.00
01113             -62.00   -11400.00
01114             -52.00   -11400.00
01115             -50.00   -11200.00
01116             -46.00   -11000.00
01117             -50.00   -10800.00
01118             -54.00   -10800.00
01119             -50.00   -10600.00
01120             -52.00   -10400.00
01121             -46.00   -10200.00
01122             -42.00   -10000.00
01123             -42.00    -9800.00
01124             -44.00    -9800.00
01125             -50.00    -9600.00
01126             -44.00    -9200.00
01127             -34.00    -9200.00
01128             -38.00    -9000.00
01129             -44.00    -9000.00
01130             -42.00    -8600.00
01131             -34.00    -8400.00
01132             -30.00    -8200.00
01133             -36.00    -8200.00
01134             -38.00    -8000.00
01135             -36.00    -7600.00
01136             -28.00    -7400.00
01137             -22.00    -7200.00
01138             -30.00    -7200.00
01139             -36.00    -6800.00
01140             -28.00    -6400.00
01141             -20.00    -6400.00
01142             -22.00    -6200.00
01143             -30.00    -6000.00
01144             -28.00    -5800.00
01145             -26.00    -5600.00
01146             -22.00    -5200.00
01147             -18.00    -5000.00
01148             -26.00    -4600.00
01149             -22.00    -4400.00
01150             -18.00    -4400.00
01151             -20.00    -4000.00
01152             -18.00    -3800.00
01153             -20.00    -3600.00
01154             -18.00    -3400.00
01155             -14.00    -3000.00
01156             -20.00    -2800.00
01157             -14.00    -2600.00
01158             -14.00    -2400.00
01159             -10.00    -2000.00
01160             -12.00    -2000.00
01161             -12.00    -1600.00
01162             -10.00    -1400.00
01163             -10.00    -1000.00
01164             -10.00     -800.00
01165             -10.00     -600.00
01166             -12.00     -200.00
01167              -6.00     -200.00
01168               4.00        0.00
01169              22.00      400.00
01170              44.00      600.00
01171               4.00      800.00
01172             -32.00     1000.00
01173             -18.00     1200.00
01174              22.00     1600.00
01175              26.00     1600.00
01176              34.00     2000.00
01177             156.00     2400.00
01178             250.00     2800.00
01179             -60.00     2800.00
01180            -250.00     3200.00
01181            -250.00     3400.00
01182             250.00     3600.00
01183             250.00     4000.00
01184            -250.00     3800.00
01185              58.00     4200.00
01186             242.00     4600.00
01187            -178.00     4800.00
01188              22.00     5200.00
01189              58.00     5000.00
01190               2.00     5600.00
01191             170.00     5600.00
01192             -84.00     5600.00
01193            -102.00     6400.00
01194              46.00     6200.00
01195              22.00     6400.00
01196             110.00     7000.00
01197              12.00     7000.00
01198             -82.00     7200.00
01199              26.00     7400.00
01200             118.00     7600.00
01201              20.00     8000.00
01202             -82.00     8000.00
01203              70.00     8400.00
01204              84.00     8600.00
01205             -42.00     8600.00
01206              20.00     8800.00
01207              50.00     9000.00
01208              14.00     9200.00
01209              30.00     9400.00
01210              60.00     9600.00
01211              46.00     9800.00
01212               2.00    10000.00
01213              26.00    10200.00
01214              62.00    10200.00
01215              34.00    10400.00
01216              18.00    10800.00
01217              60.00    10800.00
01218              52.00    10800.00
01219               2.00    11000.00
01220              30.00    11200.00
01221              90.00    11200.00
01222              52.00    11400.00
01223              10.00    11600.00
01224              52.00    11800.00
01225              60.00    12000.00
01226              42.00    12000.00
01227              50.00    12000.00
01228              62.00    12200.00
01229              52.00    12400.00
01230              46.00    12400.00
01231              76.00    12400.00
01232              62.00    12600.00
01233              42.00    12600.00
01234              60.00    12600.00
01235              74.00    12800.00
01236              54.00    12800.00
01237              56.00    12800.00
01238              86.00    13200.00
01239              78.00    13200.00
01240              44.00    13000.00
01241              62.00    13200.00
01242              88.00    13200.00
01243              76.00    13200.00
01244              68.00    13400.00
01245              74.00    13200.00
01246              70.00    13400.00
01247              64.00    13200.00
01248              82.00    13400.00
01249              90.00    13400.00
01250              68.00    13200.00
01251              68.00    13200.00
01252              90.00    13400.00
01253              84.00    13400.00
01254              68.00    13400.00
01255              80.00    13200.00
01256              92.00    13400.00
01257              80.00    13200.00
01258              70.00    13200.00
01259              78.00    13200.00
01260              82.00    13200.00
01261              76.00    13200.00
01262              84.00    13000.00
01263              92.00    13200.00
01264              98.00    12800.00
01265             102.00    12800.00
01266              96.00    12800.00
01267              58.00    12600.00
01268              42.00    12800.00
01269              70.00    12600.00
01270              86.00    12600.00
01271              66.00    12400.00
01272              42.00    12400.00
01273              48.00    12200.00
01274              62.00    12000.00
01275              66.00    12000.00
01276              60.00    12000.00
01277              50.00    11800.00
01278              42.00    11600.00
01279              52.00    11600.00
01280              58.00    11200.00
01281              50.00    11200.00
01282              38.00    11000.00
01283              46.00    11000.00
01284              50.00    10600.00
01285              36.00    10400.00
01286              36.00    10400.00
01287              42.00    10200.00
01288              42.00    10200.00
01289              38.00    10000.00
01290              38.00     9800.00
01291              32.00     9600.00
01292              34.00     9400.00
01293              36.00     9200.00
01294              34.00     9000.00
01295              30.00     9000.00
01296              26.00     8600.00
01297              34.00     8600.00
01298              34.00     8400.00
01299              26.00     8000.00
01300              20.00     8000.00
01301              26.00     7800.00
01302              30.00     7400.00
01303              26.00     7200.00
01304              20.00     7000.00
01305              18.00     6800.00
01306              20.00     6800.00
01307              24.00     6400.00
01308              22.00     6200.00
01309              18.00     6000.00
01310              14.00     5600.00
01311              18.00     5600.00
01312              16.00     5400.00
01313              14.00     5200.00
01314              16.00     4800.00
01315              18.00     4600.00
01316              14.00     4200.00
01317              12.00     4200.00
01318              10.00     3800.00
01319              10.00     3600.00
01320              12.00     3200.00
01321              12.00     3200.00
01322              10.00     2800.00
01323               4.00     2800.00
01324               4.00     2400.00
01325               6.00     2200.00
01326               6.00     2000.00
01327               6.00     1600.00
01328               6.00     1400.00
01329               4.00     1200.00
01330               4.00      800.00
01331               4.00      600.00
01332               2.00      400.00
01333              -4.00        0.00
01334               8.00     -200.00
01335              18.00     -400.00
01336              44.00     -400.00
01337              36.00     -600.00
01338             -16.00    -1000.00
01339             -34.00    -1200.00
01340               4.00    -1600.00
01341              34.00    -1800.00
01342              66.00    -2000.00
01343             250.00    -2000.00
01344             250.00    -2600.00
01345            -250.00    -3200.00
01346            -250.00    -3200.00
01347            -182.00    -3400.00
01348             250.00    -3400.00
01349             166.00    -3600.00
01350             250.00    -3600.00
01351               0.00    -4800.00
01352            -250.00    -4200.00
01353             156.00    -4800.00
01354             250.00    -5200.00
01355            -126.00    -4400.00
01356              80.00    -5800.00
01357            -250.00    -5800.00
01358             -44.00    -5600.00
01359             250.00    -6600.00
01360            -230.00    -5800.00
01361             -14.00    -6800.00
01362              58.00    -6800.00
01363             -14.00    -6600.00
01364              14.00    -7800.00
01365            -174.00    -7000.00
01366              34.00    -7800.00
01367               4.00    -8000.00
01368             -10.00    -7600.00
01369              18.00    -8800.00
01370            -182.00    -8000.00
01371               6.00    -8800.00
01372              34.00    -9000.00
01373             -46.00    -8800.00
01374             -46.00    -9200.00
01375             -92.00    -9000.00
01376              30.00    -9600.00
01377               6.00    -9800.00
01378             -86.00    -9800.00
01379             -70.00   -10400.00
01380             -44.00   -10000.00
01381             -10.00   -10600.00
01382             -10.00   -10600.00
01383             -54.00   -10800.00
01384             -86.00   -10800.00
01385             -82.00   -10800.00
01386              -4.00   -11200.00
01387              10.00   -11200.00
01388             -86.00   -11400.00
01389             -84.00   -11600.00
01390             -62.00   -11600.00
01391             -38.00   -12000.00
01392             -36.00   -12000.00
01393             -62.00   -12000.00
01394             -54.00   -12200.00
01395             -80.00   -12200.00
01396             -60.00   -12400.00
01397             -40.00   -12400.00
01398             -68.00   -12600.00
01399             -74.00   -12800.00
01400             -70.00   -12800.00
01401             -62.00   -13000.00
01402             -76.00   -12800.00
01403             -76.00   -13000.00
01404             -52.00   -13200.00
01405             -74.00   -13000.00
01406             -90.00   -13200.00
01407             -76.00   -13200.00
01408             -76.00   -13200.00
01409             -70.00   -13200.00
01410             -76.00   -13200.00
01411             -84.00   -13200.00
01412             -92.00   -13400.00
01413             -86.00   -13400.00
01414             -60.00   -13400.00
01415             -74.00   -13400.00
01416            -100.00   -13400.00
01417             -92.00   -13600.00
01418             -76.00   -13600.00
01419             -74.00   -13400.00
01420             -94.00   -13400.00
01421             -94.00   -13400.00
01422             -88.00   -13400.00
01423             -86.00   -13200.00
01424             -76.00   -13200.00
01425             -90.00   -13200.00
01426             -94.00   -13200.00
01427             -88.00   -13000.00
01428             -82.00   -13000.00
01429             -86.00   -13000.00
01430            -110.00   -13200.00
01431            -110.00   -13000.00
01432             -92.00   -12800.00
01433             -78.00   -12800.00
01434             -66.00   -12800.00
01435             -70.00   -12800.00
01436             -76.00   -12600.00
01437             -72.00   -12400.00
01438             -66.00   -12200.00
01439             -62.00   -12400.00
01440             -72.00   -12000.00
01441             -66.00   -12000.00
01442             -50.00   -12000.00
01443             -58.00   -11800.00
01444             -66.00   -11600.00
01445             -66.00   -11400.00
01446             -54.00   -11400.00
01447             -50.00   -11200.00
01448             -54.00   -11000.00
01449             -52.00   -11000.00
01450             -52.00   -10800.00
01451             -50.00   -10600.00
01452             -44.00   -10400.00
01453             -50.00   -10400.00
01454             -46.00   -10200.00
01455             -42.00   -10000.00
01456             -42.00    -9800.00
01457             -44.00    -9600.00
01458             -46.00    -9400.00
01459             -38.00    -9400.00
01460             -38.00    -9200.00
01461             -38.00    -9000.00
01462             -42.00    -8800.00
01463             -38.00    -8400.00
01464             -30.00    -8400.00
01465             -34.00    -8200.00
01466             -36.00    -8000.00
01467             -34.00    -7600.00
01468             -30.00    -7400.00
01469             -26.00    -7200.00
01470             -28.00    -7200.00
01471             -38.00    -6800.00
01472             -32.00    -6600.00
01473             -26.00    -6600.00
01474             -20.00    -6000.00
01475             -28.00    -6000.00
01476             -30.00    -5800.00
01477             -28.00    -5600.00
01478             -22.00    -5200.00
01479             -22.00    -5000.00
01480             -24.00    -5000.00
01481             -22.00    -4600.00
01482             -20.00    -4400.00
01483             -20.00    -4200.00
01484             -20.00    -4000.00
01485             -20.00    -3600.00
01486             -20.00    -3600.00
01487             -12.00    -3200.00
01488             -14.00    -2800.00
01489             -20.00    -2600.00
01490             -18.00    -2600.00
01491             -12.00    -2200.00
01492             -10.00    -2000.00
01493             -10.00    -1600.00
01494             -10.00    -1600.00
01495             -12.00    -1200.00
01496             -10.00    -1000.00
01497             -10.00     -800.00
01498             -10.00     -400.00
01499             -10.00     -200.00
01500              -2.00        0.00
01501              10.00        0.00
01502              36.00      400.00
01503              30.00      800.00
01504             -18.00      800.00
01505             -28.00     1200.00
01506               2.00     1400.00
01507              28.00     1600.00
01508              26.00     2000.00
01509              66.00     2200.00
01510             250.00     2400.00
01511             250.00     3000.00
01512            -250.00     3000.00
01513            -250.00     3200.00
01514               2.00     3400.00
01515             250.00     3800.00
01516              40.00     4000.00
01517            -250.00     4000.00
01518             250.00     4400.00
01519              10.00     4600.00
01520            -142.00     4800.00
01521             108.00     4800.00
01522             -28.00     5200.00
01523             114.00     5800.00
01524              84.00     5400.00
01525            -156.00     6000.00
01526             -12.00     6400.00
01527              36.00     6200.00
01528              58.00     6800.00
01529             102.00     6800.00
01530             -58.00     7200.00
01531             -44.00     7200.00
01532              82.00     7600.00
01533             100.00     8000.00
01534             -58.00     8200.00
01535             -24.00     8200.00
01536             124.00     8600.00
01537              10.00     8400.00
01538             -28.00     8800.00
01539              42.00     8800.00
01540              34.00     9200.00
01541              20.00     9400.00
01542              46.00     9400.00
01543              58.00     9800.00
01544              20.00    10000.00
01545               2.00    10000.00
01546              52.00    10200.00
01547              58.00    10400.00
01548              14.00    10400.00
01549              40.00    10400.00
01550              68.00    10800.00
01551              26.00    11000.00
01552               2.00    11000.00
01553              62.00    11200.00
01554              84.00    11600.00
01555              22.00    11600.00
01556              28.00    11600.00
01557              68.00    11800.00
01558              50.00    12000.00
01559              38.00    12000.00
01560              60.00    12000.00
01561              62.00    12400.00
01562              44.00    12400.00
01563              58.00    12400.00
01564              76.00    12600.00
01565              50.00    12600.00
01566              46.00    12600.00
01567              74.00    12800.00
01568              68.00    12800.00
01569              46.00    12600.00
01570              66.00    13200.00
01571              90.00    13200.00
01572              62.00    13200.00
01573              46.00    13200.00
01574              84.00    13400.00
01575              84.00    13200.00
01576              68.00    13400.00
01577              70.00    13200.00
01578              76.00    13400.00
01579              68.00    13400.00
01580              68.00    13400.00
01581              86.00    13400.00
01582              82.00    13400.00
01583              62.00    13400.00
01584              80.00    13400.00
01585              92.00    13400.00
01586              76.00    13600.00
01587              68.00    13200.00
01588              90.00    13400.00
01589              90.00    13200.00
01590              74.00    13200.00
01591              76.00    13200.00
01592              82.00    13200.00
01593              74.00    13200.00
01594              78.00    13000.00
01595              90.00    13200.00
01596              94.00    13000.00
01597              98.00    13000.00
01598             102.00    12800.00
01599              80.00    12800.00
01600              42.00    12600.00
01601              52.00    12600.00
01602              82.00    12600.00
01603              82.00    12400.00
01604              52.00    12400.00
01605              46.00    12200.00
01606              54.00    12000.00
01607              62.00    12000.00
01608              58.00    12000.00
01609              56.00    11800.00
01610              42.00    11800.00
01611              44.00    11600.00
01612              54.00    11400.00
01613              52.00    11200.00
01614              38.00    11200.00
01615              44.00    11000.00
01616              52.00    10800.00
01617              46.00    10800.00
01618              30.00    10400.00
01619              36.00    10400.00
01620              44.00    10200.00
01621              42.00    10000.00
01622              36.00    10000.00
01623              28.00     9600.00
01624              30.00     9400.00
01625              30.00     9400.00
01626              38.00     9200.00
01627              34.00     9000.00
01628              26.00     8800.00
01629              28.00     8600.00
01630              30.00     8400.00
01631              26.00     8200.00
01632              26.00     8000.00
01633              30.00     8000.00
01634              30.00     7600.00
01635              22.00     7200.00
01636              14.00     7200.00
01637              18.00     7000.00
01638              22.00     6800.00
01639              30.00     6400.00
01640              26.00     6400.00
01641              16.00     6000.00
01642               6.00     6000.00
01643              14.00     5600.00
01644              26.00     5400.00
01645              20.00     5200.00
01646              10.00     4800.00
01647              12.00     4600.00
01648              12.00     4400.00
01649              18.00     4200.00
01650              14.00     3800.00
01651              12.00     3800.00
01652               6.00     3400.00
01653               6.00     3200.00
01654              12.00     3000.00
01655              14.00     2800.00
01656               6.00     2400.00
01657               0.00     2400.00
01658               4.00     2000.00
01659               6.00     1800.00
01660               6.00     1400.00
01661               6.00     1400.00
01662               4.00     1200.00
01663              -2.00      800.00
01664              -6.00      400.00
01665               2.00      400.00
01666              10.00        0.00
01667              14.00     -200.00
01668              26.00     -400.00
01669              46.00     -600.00
01670              10.00    -1000.00
01671             -28.00    -1000.00
01672             -14.00    -1200.00
01673              20.00    -1600.00
01674              34.00    -1800.00
01675             112.00    -2000.00
01676             250.00    -2200.00
01677              94.00    -3200.00
01678            -250.00    -3200.00
01679            -250.00    -3400.00
01680             212.00    -3600.00
01681             250.00    -3400.00
01682             142.00    -3400.00
01683             250.00    -4000.00
01684            -250.00    -4400.00
01685            -250.00    -4200.00
01686             250.00    -5400.00
01687              62.00    -4800.00
01688             -34.00    -4800.00
01689             -22.00    -6000.00
01690            -250.00    -5200.00
01691             228.00    -6200.00
01692              20.00    -6000.00
01693            -218.00    -6000.00
01694              98.00    -7200.00
01695             -18.00    -6400.00
01696              44.00    -7200.00
01697             -94.00    -7400.00
01698            -108.00    -7200.00
01699              72.00    -8200.00
01700             -52.00    -7600.00
01701              54.00    -8400.00
01702             -92.00    -8400.00
01703            -124.00    -8200.00
01704              68.00    -9000.00
01705             -34.00    -8600.00
01706             -28.00    -9200.00
01707             -76.00    -9400.00
01708             -44.00    -9000.00
01709              42.00    -9800.00
01710             -54.00    -9600.00
01711             -80.00   -10000.00
01712             -52.00   -10200.00
01713             -26.00   -10000.00
01714              -4.00   -10600.00
01715             -38.00   -10600.00
01716             -74.00   -10800.00
01717             -86.00   -10800.00
01718             -46.00   -11000.00
01719              20.00   -11200.00
01720             -42.00   -11400.00
01721             -98.00   -11600.00
01722             -66.00   -11600.00
01723             -50.00   -11600.00
01724             -28.00   -11800.00
01725             -60.00   -12000.00
01726             -62.00   -12200.00
01727             -60.00   -12200.00
01728             -76.00   -12400.00
01729             -46.00   -12400.00
01730             -58.00   -12600.00
01731             -70.00   -12400.00
01732             -66.00   -12800.00
01733             -62.00   -12800.00
01734             -66.00   -12800.00
01735             -84.00   -13000.00
01736             -74.00   -13000.00
01737             -60.00   -13200.00
01738             -80.00   -13000.00
01739             -86.00   -13200.00
01740             -86.00   -13200.00
01741             -76.00   -13200.00
01742             -66.00   -13200.00
01743             -78.00   -13200.00
01744             -84.00   -13200.00
01745             -94.00   -13400.00
01746             -76.00   -13200.00
01747             -66.00   -13400.00
01748             -90.00   -13400.00
01749             -90.00   -13400.00
01750             -78.00   -13600.00
01751             -74.00   -13200.00
01752             -86.00   -13600.00
01753            -100.00   -13400.00
01754             -90.00   -13200.00
01755             -86.00   -13200.00
01756             -80.00   -13200.00
01757             -84.00   -13200.00
01758            -100.00   -13200.00
01759             -92.00   -13200.00
01760             -78.00   -13200.00
01761             -78.00   -13000.00
01762             -98.00   -13000.00
01763            -116.00   -13000.00
01764            -102.00   -12800.00
01765             -86.00   -12800.00
01766             -66.00   -12800.00
01767             -58.00   -12600.00
01768             -76.00   -12400.00
01769             -76.00   -12400.00
01770             -68.00   -12400.00
01771             -56.00   -12200.00
01772             -66.00   -12000.00
01773             -74.00   -12200.00
01774             -60.00   -12000.00
01775             -54.00   -11600.00
01776             -60.00   -11600.00
01777             -60.00   -11600.00
01778             -58.00   -11400.00
01779             -50.00   -11200.00
01780             -58.00   -11000.00
01781             -52.00   -10800.00
01782             -50.00   -10800.00
01783             -52.00   -10800.00
01784             -50.00   -10600.00
01785             -50.00   -10400.00
01786             -46.00   -10200.00
01787             -42.00   -10200.00
01788             -40.00   -10000.00
01789             -44.00    -9800.00
01790             -50.00    -9600.00
01791             -44.00    -9400.00
01792             -34.00    -9200.00
01793             -36.00    -9000.00
01794             -42.00    -8800.00
01795             -44.00    -8800.00
01796             -38.00    -8400.00
01797             -34.00    -8200.00
01798             -34.00    -8000.00
01799             -32.00    -7800.00
01800             -36.00    -7600.00
01801             -30.00    -7400.00
01802             -26.00    -7200.00
01803             -34.00    -7000.00
01804             -36.00    -6800.00
01805             -28.00    -6600.00
01806             -22.00    -6400.00
01807             -22.00    -6200.00
01808             -34.00    -5800.00
01809             -28.00    -5800.00
01810             -24.00    -5600.00
01811             -22.00    -5400.00
01812             -22.00    -5000.00
01813             -22.00    -4600.00
01814             -22.00    -4400.00
01815             -20.00    -4200.00
01816             -20.00    -4000.00
01817             -22.00    -4000.00
01818             -20.00    -3600.00
01819             -18.00    -3400.00
01820             -12.00    -3000.00
01821             -14.00    -2800.00
01822             -20.00    -2600.00
01823             -18.00    -2400.00
01824             -12.00    -2000.00
01825             -10.00    -2000.00
01826             -10.00    -1800.00
01827             -12.00    -1400.00
01828             -12.00    -1000.00
01829             -10.00     -800.00
01830             -10.00     -600.00
01831              -6.00     -400.00
01832             -10.00        0.00
01833               2.00        0.00
01834              20.00      400.00
01835              48.00      600.00
01836              10.00      800.00
01837             -30.00     1200.00
01838             -22.00     1400.00
01839              20.00     1600.00
01840              26.00     1800.00
01841              34.00     2200.00
01842             146.00     2200.00
01843             250.00     2800.00
01844             -14.00     3000.00
01845            -250.00     3200.00
01846            -250.00     3200.00
01847             250.00     3600.00
01848             250.00     3800.00
01849            -250.00     4000.00
01850              20.00     4000.00
01851             250.00     4400.00
01852            -168.00     4600.00
01853               4.00     5200.00
01854              68.00     5000.00
01855              -6.00     5600.00
01856             172.00     5600.00
01857             -66.00     5600.00
01858            -114.00     6400.00
01859              44.00     6200.00
01860              20.00     6400.00
01861             106.00     6800.00
01862              26.00     7000.00
01863             -78.00     7200.00
01864              18.00     7200.00
01865             116.00     7800.00
01866              28.00     8000.00
01867             -84.00     7800.00
01868              62.00     8400.00
01869              94.00     8400.00
01870             -38.00     8600.00
01871              10.00     8800.00
01872              46.00     9000.00
01873              14.00     9400.00
01874              30.00     9200.00
01875              58.00     9600.00
01876              46.00     9800.00
01877              -4.00    10000.00
01878              22.00    10000.00
01879              62.00    10400.00
01880              36.00    10400.00
01881              16.00    10600.00
01882              62.00    10800.00
01883              54.00    10800.00
01884               4.00    11000.00
01885              26.00    11200.00
01886              86.00    11400.00
01887              58.00    11600.00
01888              10.00    11600.00
01889              52.00    11600.00
01890              60.00    12000.00
01891              40.00    12000.00
01892              52.00    12000.00
01893              68.00    12400.00
01894              52.00    12200.00
01895              42.00    12400.00
01896              74.00    12600.00
01897              68.00    12600.00
01898              44.00    12600.00
01899              60.00    12800.00
01900              74.00    12800.00
01901              54.00    12800.00
01902              52.00    12800.00
01903              84.00    13000.00
01904              82.00    13200.00
01905              44.00    13200.00
01906              60.00    13200.00
01907              90.00    13200.00
01908              76.00    13400.00
01909              68.00    13400.00
01910              76.00    13200.00
01911              70.00    13400.00
01912              66.00    13400.00
01913              82.00    13400.00
01914              90.00    13200.00
01915              72.00    13400.00
01916              70.00    13400.00
01917              90.00    13400.00
01918              84.00    13600.00
01919              68.00    13400.00
01920              82.00    13200.00
01921              94.00    13400.00
01922              82.00    13200.00
01923              70.00    13200.00
01924              82.00    13400.00
01925              78.00    13200.00
01926              74.00    13200.00
01927              86.00    13200.00
01928              90.00    13000.00
01929              94.00    13200.00
01930             102.00    12800.00
01931              98.00    12800.00
01932              58.00    12800.00
01933              42.00    12600.00
01934              68.00    12800.00
01935              84.00    12400.00
01936              66.00    12400.00
01937              42.00    12400.00
01938              50.00    12400.00
01939              58.00    12200.00
01940              62.00    12000.00
01941              58.00    12000.00
01942              52.00    11800.00
01943              40.00    11600.00
01944              50.00    11600.00
01945              54.00    11200.00
01946              44.00    11200.00
01947              36.00    11000.00
01948              46.00    10800.00
01949              50.00    11000.00
01950              38.00    10800.00
01951              34.00    10600.00
01952              42.00    10200.00
01953              44.00    10200.00
01954              38.00    10000.00
01955              36.00     9800.00
01956              34.00     9600.00
01957              28.00     9400.00
01958              30.00     9400.00
01959              38.00     9200.00
01960              30.00     8800.00
01961              26.00     8800.00
01962              30.00     8600.00
01963              30.00     8400.00
01964              24.00     8200.00
01965              20.00     8000.00
01966              26.00     7800.00
01967              28.00     7600.00
01968              28.00     7200.00
01969              18.00     7200.00
01970              14.00     7000.00
01971              20.00     6800.00
01972              26.00     6400.00
01973              26.00     6400.00
01974              20.00     6000.00
01975              12.00     6000.00
01976              16.00     5600.00
01977              14.00     5400.00
01978              14.00     5200.00
01979              18.00     4800.00
01980              18.00     4600.00
01981              12.00     4400.00
01982              12.00     4000.00
01983              10.00     3800.00
01984              10.00     3600.00
01985              12.00     3400.00
01986              14.00     3200.00
01987              10.00     2800.00
01988               6.00     2800.00
01989               4.00     2400.00
01990              10.00     2200.00
01991               8.00     2000.00
01992               4.00     1800.00
01993               4.00     1400.00
01994               4.00     1200.00
01995               4.00     1000.00
01996              -2.00      600.00
01997               2.00      400.00
01998               2.00        0.00
01999               6.00     -200.00
02000              12.00     -200.00
02001              42.00     -600.00
02002              36.00     -800.00
02003             -12.00    -1000.00
02004             -34.00    -1200.00
02005               4.00    -1600.00
02006              30.00    -1800.00
02007              60.00    -1800.00
02008             238.00    -2000.00
02009             250.00    -2800.00
02010            -250.00    -3200.00
02011            -250.00    -3200.00
02012            -234.00    -3600.00
02013             250.00    -3400.00
02014             180.00    -3400.00
02015             250.00    -3600.00
02016              58.00    -4400.00
02017            -250.00    -4200.00
02018              94.00    -4600.00
02019             250.00    -5600.00
02020            -124.00    -4400.00
02021              78.00    -5600.00
02022            -230.00    -5600.00
02023             -84.00    -5400.00
02024             250.00    -6600.00
02025            -218.00    -5800.00
02026             -42.00    -6400.00
02027              74.00    -6800.00
02028             -12.00    -6400.00
02029              32.00    -7800.00
02030            -174.00    -7200.00
02031              14.00    -7600.00
02032              10.00    -8200.00
02033             -20.00    -7600.00
02034              38.00    -8600.00
02035            -172.00    -8000.00
02036             -12.00    -8600.00
02037              30.00    -9000.00
02038             -46.00    -8800.00
02039             -28.00    -9600.00
02040             -86.00    -9200.00
02041              20.00    -9600.00
02042               4.00    -9800.00
02043             -82.00    -9600.00
02044             -60.00   -10200.00
02045             -40.00   -10000.00
02046             -12.00   -10400.00
02047             -12.00   -10600.00
02048             -58.00   -10600.00
02049             -88.00   -11000.00
02050             -78.00   -11000.00
02051               2.00   -11200.00
02052              12.00   -11200.00
02053             -86.00   -11400.00
02054             -90.00   -11600.00
02055             -62.00   -11400.00
02056             -38.00   -11800.00
02057             -30.00   -12000.00
02058             -60.00   -12000.00
02059             -58.00   -12200.00
02060             -82.00   -12400.00
02061             -62.00   -12400.00
02062             -36.00   -12400.00
02063             -66.00   -12400.00
02064             -72.00   -12600.00
02065             -70.00   -12800.00
02066             -62.00   -12800.00
02067             -76.00   -12800.00
02068             -72.00   -13000.00
02069             -56.00   -13000.00
02070             -82.00   -13000.00
02071             -94.00   -13000.00
02072             -74.00   -13200.00
02073             -70.00   -13000.00
02074             -68.00   -13200.00
02075             -74.00   -13200.00
02076             -86.00   -13400.00
02077             -94.00   -13400.00
02078             -92.00   -13400.00
02079             -60.00   -13200.00
02080             -68.00   -13200.00
02081             -98.00   -13200.00
02082             -92.00   -13600.00
02083             -76.00   -13200.00
02084             -74.00   -13400.00
02085             -92.00   -13400.00
02086             -94.00   -13400.00
02087             -92.00   -13200.00
02088             -90.00   -13200.00
02089             -74.00   -13200.00
02090             -84.00   -13200.00
02091             -98.00   -13200.00
02092             -92.00   -13200.00
02093             -80.00   -13000.00
02094             -82.00   -13200.00
02095            -106.00   -12800.00
02096            -108.00   -13000.00
02097             -94.00   -12800.00
02098             -84.00   -12800.00
02099             -62.00   -12800.00
02100             -66.00   -12600.00
02101             -76.00   -12400.00
02102             -76.00   -12400.00
02103             -66.00   -12200.00
02104             -56.00   -12200.00
02105             -68.00   -12200.00
02106             -70.00   -12000.00
02107             -60.00   -12000.00
02108             -62.00   -12000.00
02109             -62.00   -11600.00
02110             -54.00   -11400.00
02111             -52.00   -11400.00
02112             -54.00   -11000.00
02113             -60.00   -11000.00
02114             -50.00   -10800.00
02115             -44.00   -10800.00
02116             -44.00   -10600.00
02117             -50.00   -10400.00
02118             -54.00   -10400.00
02119             -50.00   -10000.00
02120             -38.00   -10000.00
02121             -36.00    -9600.00
02122             -44.00    -9600.00
02123             -54.00    -9400.00
02124             -42.00    -9400.00
02125             -36.00    -9200.00
02126             -36.00    -9000.00
02127             -42.00    -8800.00
02128             -44.00    -8600.00
02129             -36.00    -8400.00
02130             -36.00    -8200.00
02131             -34.00    -8000.00
02132             -36.00    -7800.00
02133             -38.00    -7400.00
02134             -30.00    -7200.00
02135             -28.00    -7200.00
02136             -34.00    -6800.00
02137             -30.00    -6600.00
02138             -26.00    -6600.00
02139             -22.00    -6200.00
02140             -30.00    -6000.00
02141             -30.00    -5800.00
02142             -22.00    -5600.00
02143             -22.00    -5200.00
02144             -24.00    -5000.00
02145             -26.00    -4800.00
02146             -24.00    -4800.00
02147             -20.00    -4400.00
02148             -18.00    -4200.00
02149             -22.00    -4000.00
02150             -22.00    -3600.00
02151             -20.00    -3600.00
02152             -12.00    -3200.00
02153             -14.00    -3000.00
02154             -20.00    -2800.00
02155             -20.00    -2400.00
02156             -14.00    -2200.00
02157             -10.00    -2000.00
02158              -6.00    -1800.00
02159             -10.00    -1600.00
02160             -10.00    -1200.00
02161             -10.00    -1000.00
02162              -6.00     -800.00
02163              -8.00     -400.00
02164             -12.00     -400.00
02165              -6.00        0.00
02166              10.00      400.00
02167              36.00      600.00
02168              34.00      800.00
02169             -14.00     1000.00
02170             -34.00     1200.00
02171              -2.00     1400.00
02172              28.00     1800.00
02173              28.00     2000.00
02174              62.00     2200.00
02175             250.00     2600.00
02176             250.00     2800.00
02177            -250.00     3000.00
02178            -250.00     3200.00
02179             -50.00     3400.00
02180             250.00     3600.00
02181              86.00     4000.00
02182            -250.00     4000.00
02183             250.00     4400.00
02184              46.00     4400.00
02185            -156.00     4800.00
02186             106.00     5200.00
02187             -24.00     5200.00
02188             100.00     6000.00
02189             102.00     5400.00
02190            -150.00     6000.00
02191             -22.00     6400.00
02192              36.00     6200.00
02193              50.00     6800.00
02194             110.00     6800.00
02195             -52.00     7000.00
02196             -50.00     7200.00
02197              76.00     7600.00
02198             104.00     8000.00
02199             -52.00     8000.00
02200             -38.00     8200.00
02201             118.00     8400.00
02202              20.00     8600.00
02203             -30.00     8800.00
02204              42.00     9000.00
02205              34.00     9200.00
02206              12.00     9400.00
02207              46.00     9400.00
02208              62.00     9800.00
02209              24.00     9800.00
02210              -2.00    10000.00
02211              46.00    10200.00
02212              60.00    10200.00
02213              18.00    10400.00
02214              34.00    10400.00
02215              68.00    10800.00
02216              28.00    10800.00
02217               2.00    11200.00
02218              60.00    11200.00
02219              86.00    11400.00
02220              26.00    11600.00
02221              24.00    11600.00
02222              62.00    11800.00
02223              52.00    12000.00
02224              44.00    12000.00
02225              66.00    12200.00
02226              64.00    12200.00
02227              38.00    12400.00
02228              52.00    12400.00
02229              82.00    12600.00
02230              58.00    12600.00
02231              50.00    12800.00
02232              70.00    12800.00
02233              66.00    12800.00
02234              52.00    12800.00
02235              68.00    13000.00
02236              90.00    13000.00
02237              62.00    13200.00
02238              46.00    13200.00
02239              78.00    13200.00
02240              90.00    13200.00
02241              70.00    13400.00
02242              70.00    13200.00
02243              76.00    13400.00
02244              64.00    13200.00
02245              70.00    13400.00
02246              88.00    13400.00
02247              82.00    13400.00
02248              62.00    13600.00
02249              82.00    13200.00
02250              92.00    13600.00
02251              78.00    13400.00
02252              72.00    13400.00
02253              90.00    13400.00
02254              90.00    13400.00
02255              72.00    13400.00
02256              74.00    13200.00
02257              82.00    13200.00
02258              74.00    13200.00
02259              74.00    13200.00
02260              84.00    13000.00
02261              92.00    12800.00
02262             100.00    13000.00
02263             102.00    12800.00
02264              80.00    12800.00
02265              40.00    12800.00
02266              50.00    12600.00
02267              84.00    12600.00
02268              82.00    12400.00
02269              54.00    12400.00
02270              42.00    12200.00
02271              54.00    12400.00
02272              64.00    12000.00
02273              60.00    12000.00
02274              52.00    12000.00
02275              42.00    11600.00
02276              42.00    11600.00
02277              54.00    11400.00
02278              54.00    11400.00
02279              42.00    11000.00
02280              38.00    11000.00
02281              52.00    11000.00
02282              46.00    10800.00
02283              36.00    10400.00
02284              36.00    10400.00
02285              44.00    10400.00
02286              42.00    10000.00
02287              40.00    10000.00
02288              36.00     9600.00
02289              30.00     9600.00
02290              34.00     9400.00
02291              36.00     9200.00
02292              34.00     9200.00
02293              26.00     8800.00
02294              28.00     8600.00
02295              34.00     8400.00
02296              26.00     8200.00
02297              22.00     8000.00
02298              26.00     7800.00
02299              30.00     7600.00
02300              28.00     7400.00
02301              22.00     7200.00
02302              20.00     7000.00
02303              20.00     6800.00
02304              24.00     6600.00
02305              26.00     6400.00
02306              20.00     6200.00
02307              14.00     6000.00
02308              14.00     5600.00
02309              18.00     5400.00
02310              18.00     5200.00
02311              12.00     5000.00
02312              16.00     4600.00
02313              16.00     4600.00
02314              14.00     4400.00
02315              12.00     4000.00
02316              10.00     3800.00
02317              10.00     3600.00
02318              12.00     3400.00
02319              12.00     3200.00
02320              10.00     3000.00
02321               4.00     2600.00
02322               4.00     2200.00
02323              10.00     2200.00
02324               6.00     1800.00
02325               4.00     1600.00
02326               2.00     1200.00
02327               2.00     1200.00
02328               2.00      600.00
02329              -2.00      600.00
02330               2.00      200.00
02331               2.00        0.00
02332              10.00     -200.00
02333              20.00     -400.00
02334              50.00     -400.00
02335              10.00    -1000.00
02336             -30.00    -1000.00
02337             -22.00    -1400.00
02338              20.00    -1600.00
02339              42.00    -2000.00
02340             106.00    -1800.00
02341             250.00    -2400.00
02342             130.00    -2800.00
02343            -250.00    -3200.00
02344            -250.00    -3400.00
02345             172.00    -3600.00
02346             250.00    -3400.00
02347             126.00    -3400.00
02348             250.00    -4000.00
02349            -250.00    -4600.00
02350            -250.00    -4000.00
02351             250.00    -5200.00
02352              98.00    -4600.00
02353             -54.00    -4600.00
02354               6.00    -6000.00
02355            -250.00    -5400.00
02356             202.00    -6000.00
02357              60.00    -6400.00
02358            -232.00    -5800.00
02359              90.00    -7200.00
02360             -10.00    -6400.00
02361              42.00    -7200.00
02362             -78.00    -7600.00
02363            -122.00    -7200.00
02364              74.00    -8000.00
02365             -50.00    -7600.00
02366              50.00    -8000.00
02367             -70.00    -8600.00
02368            -134.00    -8000.00
02369              62.00    -9000.00
02370             -30.00    -8800.00
02371             -34.00    -9200.00
02372             -70.00    -9600.00
02373             -46.00    -9200.00
02374              46.00    -9800.00
02375             -50.00    -9600.00
02376             -84.00   -10000.00
02377             -50.00   -10200.00
02378             -22.00   -10000.00
02379              -4.00   -10600.00
02380             -36.00   -10600.00
02381             -70.00   -10800.00
02382             -86.00   -10800.00
02383             -52.00   -11000.00
02384              20.00   -11200.00
02385             -34.00   -11000.00
02386            -100.00   -11600.00
02387             -66.00   -11600.00
02388             -50.00   -11600.00
02389             -30.00   -12000.00
02390             -54.00   -12000.00
02391             -62.00   -12200.00
02392             -62.00   -12400.00
02393             -78.00   -12200.00
02394             -44.00   -12400.00
02395             -54.00   -12400.00
02396             -74.00   -12600.00
02397             -70.00   -12800.00
02398             -62.00   -12800.00
02399             -66.00   -12800.00
02400             -86.00   -13000.00
02401             -70.00   -13000.00
02402             -58.00   -13000.00
02403             -82.00   -13000.00
02404             -84.00   -13400.00
02405             -78.00   -13000.00
02406             -74.00   -13200.00
02407             -68.00   -13200.00
02408             -78.00   -13200.00
02409             -84.00   -13400.00
02410             -94.00   -13200.00
02411             -82.00   -13600.00
02412             -62.00   -13200.00
02413             -86.00   -13400.00
02414             -96.00   -13400.00
02415             -86.00   -13400.00
02416             -76.00   -13400.00
02417             -80.00   -13200.00
02418             -92.00   -13400.00
02419             -86.00   -13400.00
02420             -86.00   -13200.00
02421             -86.00   -13200.00
02422             -84.00   -13200.00
02423             -92.00   -13200.00
02424             -92.00   -13200.00
02425             -86.00   -13000.00
02426             -78.00   -13000.00
02427             -92.00   -13000.00
02428            -108.00   -12800.00
02429            -102.00   -13000.00
02430             -86.00   -12800.00
02431             -68.00   -12800.00
02432             -62.00   -12600.00
02433             -76.00   -12600.00
02434             -74.00   -12600.00
02435             -70.00   -12400.00
02436             -60.00   -12200.00
02437             -62.00   -12000.00
02438             -70.00   -12000.00
02439             -60.00   -12000.00
02440             -52.00   -11800.00
02441             -60.00   -11600.00
02442             -62.00   -11600.00
02443             -60.00   -11400.00
02444             -52.00   -11200.00
02445             -54.00   -11000.00
02446             -54.00   -10800.00
02447             -52.00   -10800.00
02448             -50.00   -10600.00
02449             -46.00   -10600.00
02450             -50.00   -10400.00
02451             -46.00   -10200.00
02452             -44.00   -10000.00
02453             -42.00    -9800.00
02454             -38.00    -9800.00
02455             -50.00    -9600.00
02456             -46.00    -9200.00
02457             -38.00    -9200.00
02458             -38.00    -9000.00
02459             -44.00    -8800.00
02460             -44.00    -8800.00
02461             -36.00    -8400.00
02462             -30.00    -8200.00
02463             -38.00    -8000.00
02464             -38.00    -8000.00
02465             -34.00    -7600.00
02466             -28.00    -7600.00
02467             -28.00    -7200.00
02468             -34.00    -7000.00
02469             -38.00    -6800.00
02470             -30.00    -6600.00
02471             -22.00    -6400.00
02472             -20.00    -6200.00
02473             -32.00    -6000.00
02474             -30.00    -5800.00
02475             -26.00    -5400.00
02476             -22.00    -5200.00
02477             -22.00    -4800.00
02478             -28.00    -4600.00
02479             -22.00    -4400.00
02480             -16.00    -4200.00
02481             -20.00    -4000.00
02482             -18.00    -3800.00
02483             -20.00    -3600.00
02484             -18.00    -3400.00
02485             -12.00    -3200.00
02486             -18.00    -2800.00
02487             -20.00    -2600.00
02488             -18.00    -2400.00
02489             -12.00    -2000.00
02490              -6.00    -1800.00
02491             -12.00    -1600.00
02492             -12.00    -1400.00
02493             -12.00    -1000.00
02494              -6.00     -800.00
02495             -10.00     -600.00
02496              -6.00     -400.00
02497             -10.00     -200.00
02498               2.00      200.00
02499              18.00      400.00
02500              50.00      600.00
02501              12.00     1000.00
02502             -30.00     1000.00
02503             -26.00     1200.00
02504              20.00     1400.00
02505              28.00     1800.00
02506              34.00     2000.00
02507             132.00     2200.00
02508             250.00     2800.00
02509              28.00     3000.00
02510            -250.00     3200.00
02511            -250.00     3200.00
02512             250.00     3600.00
02513             250.00     3800.00
02514            -234.00     4000.00
02515             -20.00     4200.00
02516             250.00     4400.00
02517            -152.00     4600.00
02518             -18.00     5200.00
02519              78.00     4800.00
02520             -20.00     5600.00
02521             172.00     5800.00
02522             -48.00     5600.00
02523            -126.00     6400.00
02524              36.00     6200.00
02525              20.00     6400.00
02526             102.00     6800.00
02527              38.00     6800.00
02528             -84.00     7200.00
02529               6.00     7200.00
02530             114.00     7600.00
02531              42.00     8200.00
02532             -86.00     7800.00
02533              50.00     8400.00
02534             106.00     8600.00
02535             -34.00     8800.00
02536               4.00     9000.00
02537              50.00     9000.00
02538              18.00     9400.00
02539              28.00     9200.00
02540              58.00     9400.00
02541              52.00    10000.00
02542               2.00    10000.00
02543              18.00    10200.00
02544              62.00    10400.00
02545              42.00    10400.00
02546              12.00    10400.00
02547              60.00    10800.00
02548              60.00    11000.00
02549               6.00    11200.00
02550              22.00    11200.00
02551              86.00    11400.00
02552              60.00    11600.00
02553              10.00    11600.00
02554              52.00    11600.00
02555              64.00    11800.00
02556              42.00    12000.00
02557              52.00    12200.00
02558              68.00    12400.00
02559              58.00    12400.00
02560              46.00    12400.00
02561              74.00    12400.00
02562              70.00    12600.00
02563              44.00    12600.00
02564              58.00    12800.00
02565              78.00    12800.00
02566              58.00    12800.00
02567              52.00    13000.00
02568              84.00    13000.00
02569              82.00    13200.00
02570              50.00    13200.00
02571              60.00    13200.00
02572              92.00    13200.00
02573              78.00    13400.00
02574              68.00    13400.00
02575              74.00    13400.00
02576              74.00    13600.00
02577              66.00    13400.00
02578              78.00    13400.00
02579              90.00    13400.00
02580              68.00    13400.00
02581              68.00    13400.00
02582              90.00    13600.00
02583              86.00    13400.00
02584              70.00    13400.00
02585              76.00    13200.00
02586              92.00    13600.00
02587              82.00    13400.00
02588              70.00    13200.00
02589              78.00    13200.00
02590              78.00    13200.00
02591              70.00    13200.00
02592              84.00    13200.00
02593              92.00    13200.00
02594              96.00    13000.00
02595              98.00    12800.00
02596              94.00    12800.00
02597              58.00    12800.00
02598              42.00    12600.00
02599              66.00    12600.00
02600              84.00    12400.00
02601              66.00    12600.00
02602              44.00    12400.00
02603              52.00    12400.00
02604              60.00    12000.00
02605              62.00    12000.00
02606              56.00    12000.00
02607              44.00    11800.00
02608              44.00    11600.00
02609              50.00    11600.00
02610              54.00    11200.00
02611              46.00    11200.00
02612              36.00    11000.00
02613              50.00    10800.00
02614              54.00    10800.00
02615              38.00    10600.00
02616              34.00    10600.00
02617              36.00    10200.00
02618              44.00    10200.00
02619              42.00    10000.00
02620              36.00    10000.00
02621              34.00     9600.00
02622              28.00     9600.00
02623              36.00     9400.00
02624              42.00     9200.00
02625              34.00     9200.00
02626              22.00     8800.00
02627              28.00     8600.00
02628              34.00     8400.00
02629              30.00     8200.00
02630              26.00     8000.00
02631              26.00     7800.00
02632              24.00     7800.00
02633              26.00     7400.00
02634              30.00     7200.00
02635              20.00     6800.00
02636              14.00     6800.00
02637              20.00     6400.00
02638              22.00     6400.00
02639              20.00     6000.00
02640              20.00     5800.00
02641              22.00     5600.00
02642              14.00     5400.00
02643               6.00     5200.00
02644              14.00     4800.00
02645              20.00     4600.00
02646              18.00     4400.00
02647              10.00     4400.00
02648               6.00     4000.00
02649               4.00     3600.00
02650              12.00     3600.00
02651              14.00     3200.00
02652              12.00     3000.00
02653               4.00     2800.00
02654               0.00     2400.00
02655               6.00     2200.00
02656               6.00     2000.00
02657               4.00     1800.00
02658               6.00     1400.00
02659               0.00     1200.00
02660              -6.00      800.00
02661              -6.00      600.00
02662               4.00      400.00
02663              10.00      200.00
02664              10.00     -200.00
02665               6.00     -200.00
02666              32.00     -400.00
02667              38.00     -800.00
02668              -2.00    -1000.00
02669             -32.00    -1200.00
02670               2.00    -1400.00
02671              34.00    -1800.00
02672              16.00    -1800.00
02673             236.00    -2000.00
02674             250.00    -2800.00
02675            -250.00    -3000.00
02676            -250.00    -3200.00
02677            -250.00    -3400.00
02678             250.00    -3400.00
02679             228.00    -3400.00
02680             240.00    -3600.00
02681              44.00    -4600.00
02682            -250.00    -4200.00
02683              36.00    -4600.00
02684             250.00    -5200.00
02685            -150.00    -4400.00
02686              92.00    -5600.00
02687            -134.00    -5600.00
02688            -110.00    -5200.00
02689             250.00    -6600.00
02690            -200.00    -6000.00
02691             -50.00    -6400.00
02692              90.00    -6800.00
02693             -28.00    -6400.00
02694               4.00    -7600.00
02695            -206.00    -7200.00
02696               6.00    -7400.00
02697              70.00    -8000.00
02698               0.00    -7600.00
02699              34.00    -8600.00
02700            -188.00    -8200.00
02701             -18.00    -8400.00
02702              58.00    -9200.00
02703             -60.00    -8600.00
02704             -46.00    -9400.00
02705            -100.00    -9200.00
02706              24.00    -9400.00
02707              20.00    -9600.00
02708             -74.00    -9600.00
02709             -70.00   -10200.00
02710             -40.00   -10000.00
02711               2.00   -10400.00
02712              -6.00   -10600.00
02713             -74.00   -10400.00
02714            -102.00   -11200.00
02715             -74.00   -10800.00
02716              10.00   -11000.00
02717              20.00   -11200.00
02718             -92.00   -11400.00
02719             -98.00   -11600.00
02720             -54.00   -11600.00
02721             -30.00   -12000.00
02722             -42.00   -12000.00
02723             -74.00   -12200.00
02724             -62.00   -12200.00
02725             -74.00   -12200.00
02726             -58.00   -12400.00
02727             -36.00   -12400.00
02728             -66.00   -12400.00
02729             -76.00   -12800.00
02730             -62.00   -12800.00
02731             -62.00   -12800.00
02732             -86.00   -12800.00
02733             -90.00   -13000.00
02734             -54.00   -13000.00
02735             -66.00   -13200.00
02736             -86.00   -13200.00
02737             -76.00   -13200.00
02738             -82.00   -13200.00
02739             -76.00   -13200.00
02740             -68.00   -13200.00
02741             -68.00   -13200.00
02742             -92.00   -13400.00
02743            -110.00   -13400.00
02744             -68.00   -13600.00
02745             -60.00   -13400.00
02746             -86.00   -13200.00
02747             -94.00   -13600.00
02748             -84.00   -13400.00
02749             -76.00   -13400.00
02750             -92.00   -13400.00
02751             -86.00   -13200.00
02752             -78.00   -13400.00
02753             -92.00   -13200.00
02754             -86.00   -13200.00
02755             -84.00   -13200.00
02756             -86.00   -13200.00
02757             -86.00   -13200.00
02758             -86.00   -13000.00
02759             -78.00   -13200.00
02760             -98.00   -12800.00
02761            -110.00   -13000.00
02762             -96.00   -12800.00
02763             -76.00   -12800.00
02764             -68.00   -12800.00
02765             -70.00   -12600.00
02766             -70.00   -12400.00
02767             -66.00   -12400.00
02768             -60.00   -12200.00
02769             -62.00   -12200.00
02770             -76.00   -12200.00
02771             -68.00   -12000.00
02772             -48.00   -11800.00
02773             -52.00   -11800.00
02774             -60.00   -11600.00
02775             -62.00   -11600.00
02776             -56.00   -11400.00
02777             -54.00   -11200.00
02778             -56.00   -11000.00
02779             -46.00   -10800.00
02780             -46.00   -10800.00
02781             -54.00   -10600.00
02782             -52.00   -10600.00
02783             -46.00   -10400.00
02784             -44.00   -10000.00
02785             -50.00   -10000.00
02786             -44.00    -9800.00
02787             -42.00    -9800.00
02788             -46.00    -9600.00
02789             -44.00    -9400.00
02790             -38.00    -9000.00
02791             -38.00    -9000.00
02792             -42.00    -8800.00
02793             -38.00    -8600.00
02794             -34.00    -8400.00
02795             -38.00    -8200.00
02796             -42.00    -8200.00
02797             -36.00    -8000.00
02798             -30.00    -7600.00
02799             -28.00    -7400.00
02800             -30.00    -7200.00
02801             -36.00    -7000.00
02802             -34.00    -6800.00
02803             -24.00    -6400.00
02804             -20.00    -6200.00
02805             -28.00    -6000.00
02806             -38.00    -5800.00
02807             -28.00    -5600.00
02808             -22.00    -5200.00
02809             -18.00    -5000.00
02810             -20.00    -4800.00
02811             -22.00    -4600.00
02812             -20.00    -4400.00
02813             -20.00    -4200.00
02814             -22.00    -4000.00
02815             -20.00    -3800.00
02816             -20.00    -3600.00
02817             -12.00    -3200.00
02818             -12.00    -3000.00
02819             -18.00    -2600.00
02820             -20.00    -2600.00
02821             -12.00    -2200.00
02822             -10.00    -2000.00
02823              -8.00    -1600.00
02824             -10.00    -1600.00
02825             -12.00    -1200.00
02826              -8.00    -1000.00
02827              -6.00     -800.00
02828             -10.00     -400.00
02829             -10.00     -200.00
02830              -2.00        0.00
02831               6.00      200.00
02832              34.00      400.00
02833              34.00      800.00
02834             -12.00      800.00
02835             -34.00     1200.00
02836              -4.00     1400.00
02837              30.00     1600.00
02838              28.00     2000.00
02839              54.00     2200.00
02840             250.00     2400.00
02841             250.00     3000.00
02842            -250.00     3000.00
02843            -250.00     3200.00
02844            -102.00     3400.00
02845             250.00     3800.00
02846             132.00     3800.00
02847            -250.00     4000.00
02848             246.00     4400.00
02849              78.00     4400.00
02850            -170.00     4800.00
02851              94.00     4800.00
02852             -14.00     5000.00
02853              86.00     6000.00
02854             118.00     5400.00
02855            -150.00     6000.00
02856             -36.00     6400.00
02857              36.00     6200.00
02858              40.00     6800.00
02859             112.00     6800.00
02860             -42.00     7000.00
02861             -54.00     7200.00
02862              66.00     7600.00
02863             106.00     7800.00
02864             -44.00     8000.00
02865             -44.00     8200.00
02866             120.00     8600.00
02867              30.00     8600.00
02868             -40.00     8800.00
02869              34.00     8800.00
02870              38.00     9200.00
02871              18.00     9400.00
02872              44.00     9400.00
02873              58.00     9800.00
02874              26.00    10000.00
02875               0.00    10000.00
02876              44.00    10200.00
02877              58.00    10400.00
02878              18.00    10400.00
02879              36.00    10800.00
02880              76.00    10800.00
02881              36.00    11000.00
02882              -6.00    11000.00
02883              54.00    11200.00
02884              92.00    11600.00
02885              34.00    11600.00
02886              24.00    11600.00
02887              62.00    12000.00
02888              52.00    12000.00
02889              42.00    12000.00
02890              64.00    12000.00
02891              68.00    12400.00
02892              42.00    12400.00
02893              52.00    12400.00
02894              82.00    12600.00
02895              58.00    12600.00
02896              42.00    12600.00
02897              68.00    12800.00
02898              70.00    12800.00
02899              52.00    12800.00
02900              66.00    13000.00
02901              90.00    13200.00
02902              66.00    13200.00
02903              46.00    13200.00
02904              76.00    13200.00
02905              88.00    13400.00
02906              70.00    13200.00
02907              70.00    13200.00
02908              78.00    13200.00
02909              68.00    13400.00
02910              66.00    13400.00
02911              86.00    13400.00
02912              84.00    13200.00
02913              64.00    13400.00
02914              74.00    13400.00
02915              90.00    13400.00
02916              76.00    13400.00
02917              68.00    13400.00
02918              90.00    13200.00
02919              92.00    13400.00
02920              70.00    13200.00
02921              82.00    13200.00
02922              78.00    13200.00
02923              68.00    13200.00
02924              68.00    13200.00
02925              90.00    13200.00
02926             106.00    13200.00
02927             100.00    12800.00
02928              90.00    12800.00
02929              76.00    12800.00
02930              50.00    12600.00
02931              66.00    12600.00
02932              78.00    12600.00
02933              64.00    12400.00
02934              44.00    12400.00
02935              54.00    12200.00
02936              74.00    12400.00
02937              60.00    12000.00
02938              50.00    12000.00
02939              46.00    11800.00
02940              46.00    11800.00
02941              52.00    11600.00
02942              60.00    11600.00
02943              54.00    11400.00
02944              26.00    11200.00
02945              34.00    11000.00
02946              60.00    10800.00
02947              58.00    10800.00
02948              38.00    10600.00
02949              32.00    10400.00
02950              36.00    10200.00
02951              40.00    10000.00
02952              36.00    10000.00
02953              42.00     9800.00
02954              34.00     9600.00
02955              26.00     9400.00
02956              30.00     9400.00
02957              36.00     9200.00
02958              36.00     8800.00
02959              34.00     8600.00
02960              28.00     8600.00
02961              18.00     8400.00
02962              20.00     8200.00
02963              34.00     7800.00
02964              38.00     7600.00
02965              24.00     7400.00
02966              12.00     7200.00
02967              16.00     7000.00
02968              20.00     6800.00
02969              34.00     6600.00
02970              30.00     6400.00
02971              20.00     6200.00
02972               6.00     6000.00
02973              12.00     5600.00
02974              22.00     5600.00
02975              20.00     5200.00
02976              10.00     5000.00
02977              12.00     4800.00
02978              14.00     4600.00
02979              14.00     4400.00
02980              10.00     4000.00
02981              10.00     3800.00
02982              10.00     3600.00
02983              10.00     3200.00
02984              10.00     3200.00
02985              10.00     2800.00
02986               2.00     2600.00
02987               4.00     2200.00
02988              10.00     2000.00
02989              10.00     2000.00
02990               4.00     1600.00
02991               2.00     1200.00
02992              -2.00     1000.00
02993              -2.00      800.00
02994              -2.00      600.00
02995               2.00      200.00
02996               6.00        0.00
02997              10.00     -200.00
02998              18.00     -400.00
02999              44.00     -600.00
03000              12.00    -1000.00
03001             -26.00    -1200.00
03002             -22.00    -1400.00
03003              18.00    -1600.00
03004              32.00    -1800.00
03005              94.00    -2000.00
03006             250.00    -2200.00
03007             174.00    -3000.00
03008            -250.00    -3200.00
03009            -250.00    -3400.00
03010             122.00    -3600.00
03011             250.00    -3400.00
03012             118.00    -3400.00
03013             250.00    -4000.00
03014            -250.00    -4600.00
03015            -250.00    -4200.00
03016             250.00    -5200.00
03017             140.00    -4800.00
03018             -70.00    -4600.00
03019              28.00    -6000.00
03020            -250.00    -5200.00
03021             174.00    -6000.00
03022              94.00    -6400.00
03023            -242.00    -5800.00
03024              84.00    -7200.00
03025              -4.00    -6400.00
03026              34.00    -7000.00
03027             -62.00    -7600.00
03028            -134.00    -7200.00
03029              74.00    -8200.00
03030             -44.00    -7600.00
03031              46.00    -8000.00
03032             -60.00    -8600.00
03033            -148.00    -8200.00
03034              58.00    -9200.00
03035             -22.00    -8800.00
03036             -32.00    -9200.00
03037             -64.00    -9600.00
03038             -52.00    -9200.00
03039              44.00    -9800.00
03040             -44.00    -9600.00
03041             -86.00   -10000.00
03042             -56.00   -10400.00
03043             -26.00   -10000.00
03044              -4.00   -10800.00
03045             -30.00   -10600.00
03046             -74.00   -10800.00
03047             -92.00   -11000.00
03048             -54.00   -11000.00
03049              20.00   -11400.00
03050             -30.00   -11400.00
03051            -102.00   -11400.00
03052             -70.00   -11800.00
03053             -52.00   -11800.00
03054             -30.00   -12000.00
03055             -54.00   -12200.00
03056             -62.00   -12200.00
03057             -62.00   -12400.00
03058             -76.00   -12400.00
03059             -44.00   -12400.00
03060             -52.00   -12400.00
03061             -76.00   -12400.00
03062             -74.00   -12800.00
03063             -68.00   -12600.00
03064             -66.00   -12800.00
03065             -84.00   -13000.00
03066             -66.00   -13000.00
03067             -58.00   -13000.00
03068             -84.00   -13200.00
03069             -86.00   -13200.00
03070             -76.00   -13200.00
03071             -74.00   -13200.00
03072             -68.00   -13200.00
03073             -82.00   -13200.00
03074             -84.00   -13200.00
03075             -94.00   -13200.00
03076             -76.00   -13200.00
03077             -60.00   -13200.00
03078             -86.00   -13600.00
03079             -96.00   -13400.00
03080             -84.00   -13400.00
03081             -70.00   -13400.00
03082             -82.00   -13400.00
03083             -98.00   -13400.00
03084             -90.00   -13200.00
03085             -86.00   -13200.00
03086             -82.00   -13200.00
03087             -78.00   -13200.00
03088             -94.00   -13200.00
03089             -92.00   -13200.00
03090             -84.00   -13000.00
03091             -76.00   -13000.00
03092             -90.00   -13000.00
03093            -114.00   -12800.00
03094            -106.00   -13000.00
03095             -86.00   -12800.00
03096             -66.00   -12800.00
03097             -60.00   -12800.00
03098             -70.00   -12600.00
03099             -76.00   -12600.00
03100             -70.00   -12400.00
03101             -58.00   -12200.00
03102             -62.00   -12200.00
03103             -70.00   -12200.00
03104             -60.00   -12000.00
03105             -54.00   -12000.00
03106             -58.00   -11600.00
03107             -62.00   -11600.00
03108             -58.00   -11600.00
03109             -50.00   -11400.00
03110             -54.00   -11200.00
03111             -54.00   -11000.00
03112             -48.00   -10800.00
03113             -50.00   -10800.00
03114             -46.00   -10600.00
03115             -50.00   -10400.00
03116             -52.00   -10400.00
03117             -46.00   -10000.00
03118             -42.00   -10000.00
03119             -40.00    -9800.00
03120             -50.00    -9800.00
03121             -48.00    -9400.00
03122             -38.00    -9200.00
03123             -38.00    -9000.00
03124             -40.00    -9000.00
03125             -42.00    -8800.00
03126             -38.00    -8400.00
03127             -34.00    -8200.00
03128             -38.00    -8200.00
03129             -36.00    -8000.00
03130             -36.00    -7600.00
03131             -30.00    -7400.00
03132             -26.00    -7400.00
03133             -34.00    -7000.00
03134             -36.00    -6800.00
03135             -30.00    -6800.00
03136             -22.00    -6400.00
03137             -22.00    -6200.00
03138             -32.00    -6000.00
03139             -28.00    -5800.00
03140             -24.00    -5400.00
03141             -22.00    -5200.00
03142             -22.00    -5000.00
03143             -26.00    -4600.00
03144             -22.00    -4600.00
03145             -18.00    -4400.00
03146             -18.00    -4000.00
03147             -20.00    -4000.00
03148             -20.00    -3600.00
03149             -18.00    -3400.00
03150             -10.00    -3000.00
03151             -16.00    -2800.00
03152             -18.00    -2600.00
03153             -16.00    -2400.00
03154             -12.00    -2000.00
03155             -10.00    -2000.00
03156             -10.00    -1600.00
03157             -10.00    -1400.00
03158             -12.00    -1000.00
03159              -6.00     -800.00
03160              -6.00     -600.00
03161             -10.00     -400.00
03162              -6.00        0.00
03163               2.00      200.00
03164              16.00      400.00
03165              42.00      600.00
03166              18.00      800.00
03167             -28.00     1200.00
03168             -26.00     1200.00
03169              14.00     1800.00
03170              28.00     1600.00
03171              30.00     2000.00
03172             118.00     2200.00
03173             250.00     2800.00
03174              70.00     3000.00
03175            -250.00     3000.00
03176            -250.00     3200.00
03177             250.00     3600.00
03178             250.00     3800.00
03179            -206.00     3800.00
03180             -62.00     4400.00
03181             250.00     4400.00
03182            -138.00     4600.00
03183             -38.00     5200.00
03184              84.00     5200.00
03185             -28.00     5600.00
03186             170.00     5600.00
03187             -28.00     5400.00
03188            -138.00     6400.00
03189              30.00     6400.00
03190              22.00     6400.00
03191              98.00     6800.00
03192              48.00     6800.00
03193             -82.00     7200.00
03194               2.00     7200.00
03195             108.00     7800.00
03196              48.00     8000.00
03197             -86.00     8000.00
03198              42.00     8400.00
03199             108.00     8400.00
03200             -30.00     8600.00
03201               2.00     9000.00
03202              48.00     9000.00
03203              22.00     9200.00
03204              26.00     9400.00
03205              58.00     9600.00
03206              52.00     9800.00
03207               4.00     9800.00
03208              18.00    10000.00
03209              62.00    10200.00
03210              44.00    10400.00
03211              12.00    10600.00
03212              58.00    10800.00
03213              60.00    11000.00
03214               8.00    11000.00
03215              18.00    11200.00
03216              82.00    11400.00
03217              68.00    11600.00
03218              12.00    11600.00
03219              46.00    11800.00
03220              66.00    12000.00
03221              42.00    12000.00
03222              46.00    12000.00
03223              70.00    12400.00
03224              58.00    12400.00
03225              44.00    12400.00
03226              74.00    12600.00
03227              76.00    12600.00
03228              42.00    12800.00
03229              56.00    12800.00
03230              78.00    12800.00
03231              60.00    13000.00
03232              44.00    12800.00
03233              82.00    12800.00
03234              88.00    13200.00
03235              50.00    13200.00
03236              58.00    13200.00
03237              90.00    13200.00
03238              78.00    13400.00
03239              62.00    13200.00
03240              74.00    13200.00
03241              78.00    13400.00
03242              66.00    13200.00
03243              76.00    13400.00
03244              90.00    13400.00
03245              70.00    13400.00
03246              66.00    13600.00
03247              86.00    13400.00
03248              90.00    13400.00
03249              66.00    13400.00
03250              74.00    13400.00
03251              90.00    13400.00
03252              84.00    13200.00
03253              70.00    13400.00
03254              78.00    13200.00
03255              78.00    13200.00
03256              70.00    13200.00
03257              82.00    13200.00
03258              92.00    13200.00
03259              94.00    13000.00
03260             100.00    12800.00
03261              94.00    12800.00
03262              60.00    12800.00
03263              38.00    12600.00
03264              66.00    12600.00
03265              90.00    12600.00
03266              70.00    12400.00
03267              44.00    12400.00
03268              50.00    12400.00
03269              60.00    12200.00
03270              66.00    12000.00
03271              58.00    12000.00
03272              52.00    11800.00
03273              36.00    11600.00
03274              50.00    11600.00
03275              60.00    11400.00
03276              52.00    11200.00
03277              38.00    11200.00
03278              44.00    11000.00
03279              52.00    10800.00
03280              42.00    10800.00
03281              36.00    10400.00
03282              44.00    10400.00
03283              44.00    10200.00
03284              40.00    10000.00
03285              36.00     9600.00
03286              38.00     9800.00
03287              34.00     9600.00
03288              30.00     9400.00
03289              34.00     9200.00
03290              30.00     8800.00
03291              28.00     8800.00
03292              32.00     8600.00
03293              30.00     8400.00
03294              26.00     8400.00
03295              22.00     8000.00
03296              26.00     7800.00
03297              30.00     7600.00
03298              28.00     7400.00
03299              22.00     7200.00
03300              18.00     7000.00
03301              18.00     6800.00
03302              26.00     6400.00
03303              26.00     6200.00
03304              18.00     6000.00
03305              12.00     5800.00
03306              18.00     5600.00
03307              18.00     5600.00
03308              14.00     5200.00
03309              12.00     4800.00
03310              14.00     4600.00
03311              12.00     4400.00
03312              10.00     4200.00
03313               6.00     4000.00
03314              12.00     3600.00
03315               6.00     3200.00
03316              12.00     3200.00
03317              10.00     3000.00
03318               4.00     2800.00
03319               2.00     2400.00
03320               6.00     2200.00
03321               6.00     2000.00
03322               4.00     1800.00
03323               4.00     1400.00
03324               4.00     1200.00
03325               4.00      800.00
03326              -2.00      800.00
03327              -2.00      400.00
03328               2.00      200.00
03329               4.00        0.00
03330              12.00     -400.00
03331              36.00     -400.00
03332              42.00     -800.00
03333              -8.00    -1000.00
03334             -30.00    -1200.00
03335               2.00    -1400.00
03336              28.00    -1800.00
03337              50.00    -1800.00
03338             198.00    -2000.00
03339             250.00    -2400.00
03340            -206.00    -3000.00
03341            -250.00    -3200.00
03342            -250.00    -3400.00
03343             250.00    -3400.00
03344             220.00    -3400.00
03345             234.00    -3600.00
03346             162.00    -4400.00
03347            -250.00    -4400.00
03348             -36.00    -4400.00
03349             250.00    -5400.00
03350            -102.00    -4400.00
03351              62.00    -5600.00
03352            -172.00    -5800.00
03353            -158.00    -5200.00
03354             250.00    -6600.00
03355            -170.00    -6000.00
03356             -86.00    -6400.00
03357              90.00    -6800.00
03358             -22.00    -6400.00
03359              42.00    -7600.00
03360            -166.00    -7200.00
03361             -12.00    -7400.00
03362              36.00    -8200.00
03363             -28.00    -7800.00
03364              52.00    -8400.00
03365            -166.00    -8400.00
03366             -40.00    -8400.00
03367              52.00    -9200.00
03368             -46.00    -8400.00
03369             -28.00    -9600.00
03370             -94.00    -9200.00
03371               2.00    -9200.00
03372              18.00   -10000.00
03373             -78.00    -9600.00
03374             -68.00   -10200.00
03375             -44.00   -10000.00
03376             -14.00   -10400.00
03377             -12.00   -10600.00
03378             -52.00   -10600.00
03379             -84.00   -11000.00
03380             -84.00   -11000.00
03381             -20.00   -11000.00
03382              12.00   -11400.00
03383             -76.00   -11400.00
03384             -88.00   -11800.00
03385             -60.00   -11600.00
03386             -44.00   -12000.00
03387             -34.00   -12000.00
03388             -66.00   -12000.00
03389             -58.00   -12200.00
03390             -74.00   -12400.00
03391             -64.00   -12200.00
03392             -42.00   -12400.00
03393             -68.00   -12400.00
03394             -74.00   -12800.00
03395             -70.00   -12800.00
03396             -60.00   -12800.00
03397             -74.00   -13000.00
03398             -84.00   -12800.00
03399             -58.00   -13000.00
03400             -68.00   -13200.00
03401             -86.00   -13200.00
03402             -82.00   -13200.00
03403             -78.00   -13200.00
03404             -74.00   -13200.00
03405             -74.00   -13200.00
03406             -82.00   -13200.00
03407             -86.00   -13400.00
03408             -90.00   -13400.00
03409             -64.00   -13400.00
03410             -68.00   -13200.00
03411             -92.00   -13400.00
03412             -92.00   -13400.00
03413             -76.00   -13200.00
03414             -70.00   -13200.00
03415             -92.00   -13200.00
03416             -92.00   -13200.00
03417             -86.00   -13200.00
03418             -86.00   -13200.00
03419             -76.00   -13200.00
03420             -84.00   -13200.00
03421             -94.00   -13200.00
03422             -90.00   -13200.00
03423             -78.00   -13000.00
03424             -78.00   -13000.00
03425            -102.00   -13000.00
03426            -114.00   -13000.00
03427             -94.00   -12800.00
03428             -78.00   -12800.00
03429             -60.00   -12800.00
03430             -66.00   -12800.00
03431             -76.00   -12600.00
03432             -76.00   -12400.00
03433             -62.00   -12200.00
03434             -58.00   -12400.00
03435             -68.00   -12200.00
03436             -70.00   -12000.00
03437             -58.00   -12000.00
03438             -56.00   -11600.00
03439             -62.00   -11600.00
03440             -62.00   -11600.00
03441             -54.00   -11400.00
03442             -54.00   -11200.00
03443             -58.00   -11000.00
03444             -52.00   -10800.00
03445             -50.00   -10800.00
03446             -52.00   -10600.00
03447             -50.00   -10600.00
03448             -50.00   -10400.00
03449             -48.00   -10200.00
03450             -44.00   -10000.00
03451             -42.00    -9800.00
03452             -44.00    -9600.00
03453             -52.00    -9600.00
03454             -42.00    -9400.00
03455             -36.00    -9200.00
03456             -42.00    -8800.00
03457             -42.00    -8800.00
03458             -40.00    -8400.00
03459             -36.00    -8400.00
03460             -36.00    -8200.00
03461             -36.00    -8000.00
03462             -34.00    -7600.00
03463             -34.00    -7600.00
03464             -26.00    -7400.00
03465             -28.00    -7200.00
03466             -34.00    -7000.00
03467             -34.00    -6800.00
03468             -28.00    -6600.00
03469             -22.00    -6400.00
03470             -24.00    -6000.00
03471             -34.00    -5800.00
03472             -26.00    -5600.00
03473             -22.00    -5400.00
03474             -22.00    -5200.00
03475             -26.00    -5000.00
03476             -22.00    -4600.00
03477             -18.00    -4400.00
03478             -18.00    -4200.00
03479             -20.00    -4000.00
03480             -18.00    -3800.00
03481             -18.00    -3400.00
03482             -12.00    -3200.00
03483             -12.00    -2800.00
03484             -18.00    -2600.00
03485             -18.00    -2600.00
03486             -12.00    -2400.00
03487             -12.00    -2000.00
03488              -6.00    -1800.00
03489             -10.00    -1600.00
03490             -12.00    -1200.00
03491             -10.00    -1000.00
03492              -6.00     -800.00
03493              -6.00     -400.00
03494             -10.00     -200.00
03495              -4.00        0.00
03496               6.00      400.00
03497              30.00      400.00
03498              38.00      600.00
03499              -8.00     1000.00
03500             -34.00      800.00
03501              -6.00     1400.00
03502              24.00     1600.00
03503              26.00     1800.00
03504              52.00     2000.00
03505             242.00     2400.00
03506             250.00     2800.00
03507            -250.00     3000.00
03508            -250.00     3200.00
03509            -158.00     3400.00
03510             250.00     3600.00
03511             176.00     3800.00
03512            -250.00     4000.00
03513             220.00     4400.00
03514             110.00     4400.00
03515            -176.00     4800.00
03516              88.00     5200.00
03517              -4.00     4800.00
03518              70.00     6000.00
03519             132.00     5600.00
03520            -148.00     5800.00
03521             -50.00     6400.00
03522              42.00     6200.00
03523              36.00     6800.00
03524             116.00     6800.00
03525             -36.00     7000.00
03526             -62.00     7200.00
03527              58.00     7400.00
03528             116.00     7800.00
03529             -34.00     8000.00
03530             -54.00     8400.00
03531             112.00     8600.00
03532              40.00     8600.00
03533             -38.00     8800.00
03534              34.00     8800.00
03535              38.00     9200.00
03536              14.00     9400.00
03537              42.00     9400.00
03538              62.00     9600.00
03539              32.00    10000.00
03540              -4.00    10000.00
03541              40.00    10200.00
03542              66.00    10400.00
03543              22.00    10400.00
03544              26.00    10600.00
03545              68.00    11000.00
03546              38.00    11000.00
03547               2.00    11000.00
03548              50.00    11200.00
03549              90.00    11600.00
03550              34.00    11600.00
03551              20.00    11600.00
03552              62.00    11800.00
03553              58.00    12000.00
03554              44.00    12000.00
03555              58.00    12000.00
03556              58.00    12400.00
03557              46.00    12400.00
03558              60.00    12400.00
03559              84.00    12600.00
03560              56.00    12600.00
03561              36.00    12600.00
03562              66.00    12800.00
03563              74.00    12800.00
03564              58.00    12800.00
03565              68.00    12800.00
03566              88.00    13200.00
03567              58.00    13200.00
03568              40.00    13200.00
03569              82.00    13200.00
03570              98.00    13200.00
03571              68.00    13200.00
03572              60.00    13400.00
03573              74.00    13200.00
03574              70.00    13400.00
03575              74.00    13400.00
03576              90.00    13400.00
03577              76.00    13400.00
03578              58.00    13200.00
03579              78.00    13400.00
03580              98.00    13400.00
03581              78.00    13400.00
03582              60.00    13400.00
03583              78.00    13200.00
03584              92.00    13400.00
03585              82.00    13400.00
03586              78.00    13200.00
03587              78.00    13200.00
03588              68.00    13200.00
03589              74.00    13200.00
03590              90.00    13200.00
03591             100.00    13200.00
03592              98.00    13000.00
03593             100.00    12800.00
03594              82.00    12800.00
03595              46.00    12800.00
03596              50.00    12600.00
03597              84.00    12600.00
03598              82.00    12600.00
03599              52.00    12400.00
03600              42.00    12400.00
03601              62.00    12200.00
03602              68.00    12000.00
03603              58.00    12000.00
03604              54.00    12000.00
03605              44.00    11800.00
03606              48.00    11800.00
03607              56.00    11400.00
03608              60.00    11400.00
03609              40.00    11200.00
03610              36.00    11000.00
03611              52.00    11000.00
03612              58.00    10800.00
03613              42.00    10800.00
03614              34.00    10400.00
03615              38.00    10400.00
03616              44.00    10200.00
03617              42.00    10000.00
03618              38.00     9800.00
03619              36.00     9600.00
03620              30.00     9400.00
03621              30.00     9400.00
03622              36.00     9200.00
03623              36.00     8800.00
03624              36.00     8600.00
03625              34.00     8400.00
03626              22.00     8400.00
03627              20.00     8000.00
03628              26.00     7800.00
03629              36.00     7800.00
03630              32.00     7400.00
03631              20.00     7200.00
03632              12.00     7000.00
03633              18.00     6800.00
03634              24.00     6400.00
03635              28.00     6400.00
03636              20.00     6200.00
03637              12.00     6000.00
03638              14.00     5600.00
03639              20.00     5600.00
03640              20.00     5400.00
03641              10.00     4800.00
03642              10.00     4800.00
03643              14.00     4400.00
03644              14.00     4200.00
03645              10.00     4000.00
03646               4.00     3800.00
03647               6.00     3600.00
03648              10.00     3200.00
03649              12.00     3000.00
03650              10.00     2800.00
03651               4.00     2600.00
03652               4.00     2400.00
03653               6.00     2000.00
03654               4.00     2000.00
03655               4.00     1600.00
03656               4.00     1400.00
03657               2.00     1200.00
03658              -2.00      800.00
03659              -2.00      600.00
03660               4.00      400.00
03661               6.00        0.00
03662              10.00     -200.00
03663              18.00     -400.00
03664              50.00     -600.00
03665              18.00     -800.00
03666             -28.00    -1000.00
03667             -26.00    -1200.00
03668              22.00    -1600.00
03669              36.00    -1800.00
03670              86.00    -2000.00
03671             250.00    -2000.00
03672             214.00    -3000.00
03673            -250.00    -3200.00
03674            -250.00    -3400.00
03675              76.00    -3600.00
03676             250.00    -3400.00
03677             118.00    -3400.00
03678             250.00    -4000.00
03679            -250.00    -4800.00
03680            -250.00    -4000.00
03681             250.00    -5200.00
03682             178.00    -5000.00
03683             -92.00    -4600.00
03684              46.00    -6000.00
03685            -250.00    -5200.00
03686             140.00    -6000.00
03687             126.00    -6400.00
03688            -250.00    -5600.00
03689              74.00    -7200.00
03690              10.00    -6600.00
03691              28.00    -6800.00
03692             -50.00    -7600.00
03693            -150.00    -7000.00
03694              68.00    -8000.00
03695             -36.00    -7800.00
03696              36.00    -8200.00
03697             -46.00    -8600.00
03698            -164.00    -8200.00
03699              52.00    -9000.00
03700             -12.00    -8800.00
03701             -34.00    -9000.00
03702             -62.00    -9400.00
03703             -66.00    -9000.00
03704              42.00    -9800.00
03705             -34.00    -9800.00
03706             -82.00   -10000.00
03707             -58.00   -10400.00
03708             -32.00   -10000.00
03709              -6.00   -10600.00
03710             -28.00   -10600.00
03711             -68.00   -10800.00
03712             -90.00   -11000.00
03713             -62.00   -11000.00
03714              14.00   -11200.00
03715             -22.00   -11400.00
03716            -100.00   -11400.00
03717             -70.00   -11800.00
03718             -54.00   -11800.00
03719             -34.00   -12000.00
03720             -54.00   -12200.00
03721             -62.00   -12200.00
03722             -58.00   -12200.00
03723             -76.00   -12200.00
03724             -46.00   -12400.00
03725             -52.00   -12600.00
03726             -76.00   -12600.00
03727             -70.00   -12800.00
03728             -64.00   -12800.00
03729             -66.00   -12800.00
03730             -84.00   -13000.00
03731             -70.00   -12800.00
03732             -58.00   -13200.00
03733             -78.00   -13000.00
03734             -86.00   -13200.00
03735             -78.00   -13200.00
03736             -76.00   -13400.00
03737             -68.00   -13200.00
03738             -78.00   -13400.00
03739             -84.00   -13400.00
03740             -92.00   -13400.00
03741             -82.00   -13200.00
03742             -60.00   -13400.00
03743             -82.00   -13600.00
03744             -96.00   -13400.00
03745             -84.00   -13400.00
03746             -70.00   -13600.00
03747             -78.00   -13400.00
03748             -94.00   -13200.00
03749             -88.00   -13200.00
03750             -86.00   -13200.00
03751             -82.00   -13200.00
03752             -76.00   -13200.00
03753             -92.00   -13200.00
03754             -92.00   -13200.00
03755             -84.00   -13000.00
03756             -76.00   -13000.00
03757             -86.00   -13000.00
03758            -114.00   -12800.00
03759            -106.00   -12800.00
03760             -86.00   -12800.00
03761             -70.00   -12800.00
03762             -60.00   -12800.00
03763             -74.00   -12600.00
03764             -74.00   -12400.00
03765             -70.00   -12400.00
03766             -60.00   -12400.00
03767             -62.00   -12400.00
03768             -70.00   -12000.00
03769             -62.00   -12000.00
03770             -54.00   -11800.00
03771             -60.00   -11600.00
03772             -62.00   -11400.00
03773             -62.00   -11400.00
03774             -52.00   -11400.00
03775             -58.00   -11200.00
03776             -54.00   -11200.00
03777             -50.00   -11000.00
03778             -50.00   -10800.00
03779             -50.00   -10600.00
03780             -50.00   -10600.00
03781             -52.00   -10200.00
03782             -44.00   -10000.00
03783             -42.00   -10000.00
03784             -42.00    -9600.00
03785             -50.00    -9600.00
03786             -46.00    -9400.00
03787             -38.00    -9200.00
03788             -38.00    -9200.00
03789             -38.00    -8800.00
03790             -42.00    -8800.00
03791             -36.00    -8400.00
03792             -34.00    -8400.00
03793             -36.00    -8000.00
03794             -36.00    -8000.00
03795             -36.00    -7600.00
03796             -32.00    -7400.00
03797             -22.00    -7400.00
03798             -30.00    -7000.00
03799             -34.00    -6800.00
03800             -28.00    -6600.00
03801             -24.00    -6400.00
03802             -20.00    -6200.00
03803             -28.00    -6000.00
03804             -28.00    -5600.00
03805             -22.00    -5600.00
03806             -22.00    -5400.00
03807             -22.00    -5000.00
03808             -22.00    -4800.00
03809             -22.00    -4400.00
03810             -18.00    -4400.00
03811             -18.00    -4000.00
03812             -20.00    -3800.00
03813             -20.00    -3600.00
03814             -14.00    -3400.00
03815             -10.00    -3200.00
03816             -18.00    -2800.00
03817             -18.00    -2600.00
03818             -16.00    -2400.00
03819             -12.00    -2000.00
03820             -10.00    -1800.00
03821             -10.00    -1600.00
03822             -12.00    -1200.00
03823             -10.00    -1200.00
03824              -6.00     -800.00
03825             -10.00     -400.00
03826             -10.00     -400.00
03827              -6.00     -200.00
03828               2.00      200.00
03829              12.00      400.00
03830              42.00      600.00
03831              18.00      800.00
03832             -28.00     1200.00
03833             -28.00     1200.00
03834              14.00     1400.00
03835              26.00     1800.00
03836              28.00     2000.00
03837             108.00     2200.00
03838             250.00     2600.00
03839             108.00     2800.00
03840            -250.00     3000.00
03841            -250.00     3400.00
03842             250.00     3600.00
03843             250.00     3800.00
03844            -172.00     4000.00
03845            -102.00     4200.00
03846             250.00     4400.00
03847            -116.00     4400.00
03848             -62.00     5200.00
03849              94.00     4800.00
03850             -34.00     5400.00
03851             166.00     6000.00
03852              -6.00     5400.00
03853            -146.00     6400.00
03854              28.00     6200.00
03855              26.00     6400.00
03856              90.00     6800.00
03857              58.00     7000.00
03858             -82.00     7200.00
03859             -10.00     7200.00
03860             106.00     7600.00
03861              60.00     8200.00
03862             -84.00     8000.00
03863              30.00     8400.00
03864             116.00     8600.00
03865             -22.00     8600.00
03866              -6.00     8800.00
03867              50.00     9000.00
03868              22.00     9400.00
03869              22.00     9400.00
03870              58.00     9600.00
03871              54.00    10000.00
03872               4.00     9800.00
03873              14.00    10000.00
03874              62.00    10200.00
03875              50.00    10400.00
03876              12.00    10400.00
03877              58.00    10800.00
03878              62.00    11000.00
03879              12.00    11000.00
03880              14.00    11200.00
03881              82.00    11200.00
03882              70.00    11600.00
03883              14.00    11400.00
03884              44.00    11800.00
03885              66.00    11800.00
03886              44.00    12000.00
03887              46.00    12000.00
03888              68.00    12200.00
03889              56.00    12400.00
03890              42.00    12400.00
03891              68.00    12400.00
03892              74.00    12600.00
03893              44.00    12600.00
03894              52.00    12800.00
03895              76.00    12800.00
03896              62.00    12800.00
03897              48.00    13000.00
03898              76.00    13000.00
03899              84.00    13200.00
03900              50.00    13200.00
03901              52.00    13200.00
03902              88.00    13400.00
03903              82.00    13200.00
03904              66.00    13200.00
03905              74.00    13400.00
03906              76.00    13400.00
03907              66.00    13400.00
03908              74.00    13400.00
03909              90.00    13400.00
03910              70.00    13400.00
03911              66.00    13400.00
03912              84.00    13400.00
03913              88.00    13400.00
03914              70.00    13400.00
03915              74.00    13200.00
03916              92.00    13400.00
03917              86.00    13200.00
03918              68.00    13200.00
03919              78.00    13200.00
03920              78.00    13200.00
03921              74.00    13200.00
03922              82.00    13200.00
03923              90.00    13200.00
03924              96.00    13000.00
03925             100.00    13000.00
03926             100.00    12800.00
03927              66.00    12800.00
03928              40.00    12800.00
03929              60.00    12600.00
03930              88.00    12400.00
03931              76.00    12600.00
03932              44.00    12400.00
03933              46.00    12400.00
03934              62.00    12200.00
03935              66.00    12000.00
03936              62.00    11800.00
03937              52.00    11800.00
03938              40.00    11800.00
03939              46.00    11400.00
03940              54.00    11200.00
03941              58.00    11200.00
03942              38.00    11000.00
03943              42.00    11000.00
03944              52.00    10800.00
03945              46.00    10800.00
03946              38.00    10600.00
03947              38.00    10400.00
03948              42.00    10200.00
03949              42.00    10000.00
03950              42.00    10000.00
03951              38.00     9600.00
03952              26.00     9600.00
03953              28.00     9400.00
03954              36.00     9200.00
03955              34.00     9000.00
03956              26.00     8800.00
03957              26.00     8600.00
03958              34.00     8400.00
03959              28.00     8400.00
03960              20.00     8000.00
03961              26.00     7800.00
03962              26.00     7600.00
03963              22.00     7200.00
03964              22.00     7200.00
03965              28.00     6800.00
03966              18.00     6800.00
03967              14.00     6400.00
03968              18.00     6200.00
03969              24.00     6200.00
03970              20.00     6000.00
03971              16.00     5600.00
03972              18.00     5400.00
03973              10.00     5200.00
03974              12.00     4800.00
03975              22.00     4600.00
03976              20.00     4400.00
03977               6.00     4000.00
03978               2.00     3800.00
03979               8.00     3600.00
03980              16.00     3600.00
03981              14.00     3200.00
03982              12.00     3000.00
03983               2.00     2800.00
03984              -4.00     2400.00
03985               4.00     2200.00
03986              18.00     2000.00
03987              12.00     1800.00
03988               2.00     1400.00
03989               2.00     1200.00
03990               2.00     1000.00
03991              -2.00      800.00
03992              -2.00      600.00
03993               4.00      200.00
03994               6.00        0.00
03995              12.00     -200.00
03996              36.00     -400.00
03997              46.00     -600.00
03998              -6.00     -800.00
03999             -38.00    -1200.00
04000              -6.00    -1200.00
04001              28.00    -1800.00
04002              52.00    -1600.00
04003             188.00    -2000.00
04004             250.00    -2600.00
04005            -162.00    -3200.00
04006            -250.00    -3200.00
04007            -250.00    -3600.00
04008             250.00    -3600.00
04009             236.00    -3400.00
04010             210.00    -3600.00
04011             206.00    -4400.00
04012            -250.00    -4200.00
04013            -100.00    -4400.00
04014             250.00    -5400.00
04015             -88.00    -4400.00
04016              54.00    -5400.00
04017            -142.00    -5800.00
04018            -186.00    -5200.00
04019             250.00    -6400.00
04020            -150.00    -6000.00
04021            -110.00    -6400.00
04022              98.00    -7200.00
04023             -22.00    -6400.00
04024              48.00    -7600.00
04025            -158.00    -7200.00
04026             -30.00    -7400.00
04027              42.00    -8200.00
04028             -34.00    -7600.00
04029              52.00    -8400.00
04030            -162.00    -8200.00
04031             -54.00    -8400.00
04032              58.00    -9200.00
04033             -48.00    -8800.00
04034             -30.00    -9200.00
04035             -92.00    -9200.00
04036              -4.00    -9400.00
04037              26.00   -10000.00
04038             -74.00    -9600.00
04039             -70.00   -10400.00
04040             -50.00   -10000.00
04041             -14.00   -10400.00
04042             -10.00   -10600.00
04043             -50.00   -10600.00
04044             -82.00   -11000.00
04045             -88.00   -10800.00
04046             -22.00   -11200.00
04047              14.00   -11200.00
04048             -70.00   -11400.00
04049             -92.00   -11600.00
04050             -60.00   -11800.00
04051             -44.00   -12000.00
04052             -32.00   -12000.00
04053             -66.00   -12000.00
04054             -60.00   -12200.00
04055             -70.00   -12400.00
04056             -68.00   -12400.00
04057             -38.00   -12400.00
04058             -62.00   -12400.00
04059             -72.00   -12600.00
04060             -70.00   -12800.00
04061             -64.00   -12800.00
04062             -70.00   -12800.00
04063             -78.00   -13000.00
04064             -58.00   -13000.00
04065             -66.00   -13200.00
04066             -86.00   -13200.00
04067             -82.00   -13000.00
04068             -76.00   -13200.00
04069             -70.00   -13200.00
04070             -70.00   -13400.00
04071             -84.00   -13400.00
04072             -90.00   -13200.00
04073             -92.00   -13400.00
04074             -62.00   -13400.00
04075             -66.00   -13400.00
04076             -94.00   -13200.00
04077             -92.00   -13400.00
04078             -82.00   -13400.00
04079             -70.00   -13600.00
04080             -86.00   -13200.00
04081             -94.00   -13200.00
04082             -84.00   -13400.00
04083             -86.00   -13400.00
04084             -78.00   -13200.00
04085             -84.00   -13200.00
04086             -98.00   -13200.00
04087             -90.00   -13200.00
04088             -82.00   -13200.00
04089             -78.00   -13000.00
04090            -102.00   -13000.00
04091            -116.00   -13000.00
04092             -98.00   -12800.00
04093             -78.00   -12800.00
04094             -60.00   -12800.00
04095             -66.00   -12400.00
04096             -76.00   -12600.00
04097             -76.00   -12400.00
04098             -66.00   -12400.00
04099             -58.00   -12200.00
04100             -66.00   -12000.00
04101             -70.00   -12000.00
04102             -58.00   -12000.00
04103             -56.00   -11600.00
04104             -62.00   -11600.00
04105             -62.00   -11600.00
04106             -58.00   -11400.00
04107             -52.00   -11200.00
04108             -58.00   -11200.00
04109             -52.00   -11000.00
04110             -50.00   -10800.00
04111             -50.00   -10600.00
04112             -50.00   -10400.00
04113             -50.00   -10400.00
04114             -46.00   -10000.00
04115             -44.00   -10000.00
04116             -42.00    -9800.00
04117             -44.00    -9800.00
04118             -50.00    -9600.00
04119             -44.00    -9400.00
04120             -38.00    -9200.00
04121             -38.00    -9000.00
04122             -42.00    -8800.00
04123             -44.00    -8800.00
04124             -30.00    -8400.00
04125             -30.00    -8200.00
04126             -34.00    -8000.00
04127             -34.00    -7600.00
04128             -34.00    -7400.00
04129             -30.00    -7200.00
04130             -28.00    -7200.00
04131             -28.00    -6800.00
04132             -28.00    -6800.00
04133             -26.00    -6600.00
04134             -22.00    -6400.00
04135             -24.00    -6000.00
04136             -30.00    -5800.00
04137             -22.00    -5600.00
04138             -22.00    -5200.00
04139             -22.00    -5200.00
04140             -22.00    -4800.00
04141             -24.00    -4600.00
04142             -18.00    -4400.00
04143             -14.00    -4200.00
04144             -20.00    -4000.00
04145             -20.00    -3800.00
04146             -20.00    -3400.00
04147             -10.00    -3200.00
04148             -12.00    -3000.00
04149             -16.00    -2800.00
04150             -20.00    -2400.00
04151             -14.00    -2200.00
04152             -10.00    -2000.00
04153              -6.00    -1800.00
04154             -12.00    -1600.00
04155             -10.00    -1200.00
04156             -12.00    -1000.00
04157              -8.00     -800.00
04158             -12.00     -400.00
04159             -10.00     -200.00
04160              -4.00        0.00
04161               6.00      200.00
04162              28.00      400.00
04163              38.00      800.00
04164              -4.00      800.00
04165             -38.00     1200.00
04166             -12.00     1400.00
04167              26.00     1600.00
04168              26.00     1800.00
04169              46.00     2200.00
04170             226.00     2400.00
04171             250.00     2800.00
04172            -244.00     3000.00
04173            -250.00     3200.00
04174            -210.00     3200.00
04175             250.00     3600.00
04176             220.00     3800.00
04177            -250.00     4000.00
04178             196.00     4400.00
04179             140.00     4400.00
04180            -182.00     4800.00
04181              76.00     5200.00
04182               4.00     5200.00
04183              54.00     5800.00
04184             148.00     5400.00
04185            -134.00     6000.00
04186             -62.00     6400.00
04187              42.00     6200.00
04188              36.00     6800.00
04189             118.00     6800.00
04190             -24.00     7200.00
04191             -66.00     7200.00
04192              54.00     7600.00
04193             116.00     7800.00
04194             -28.00     8200.00
04195             -62.00     8200.00
04196             106.00     8400.00
04197              52.00     8600.00
04198             -38.00     8800.00
04199              30.00     8800.00
04200              38.00     9200.00
04201              18.00     9400.00
04202              44.00     9400.00
04203              66.00     9800.00
04204              34.00     9800.00
04205              -4.00     9800.00
04206              38.00    10200.00
04207              66.00    10400.00
04208              26.00    10400.00
04209              30.00    10600.00
04210              70.00    10800.00
04211              38.00    11000.00
04212               2.00    11200.00
04213              50.00    11200.00
04214              92.00    11600.00
04215              36.00    11600.00
04216              18.00    11600.00
04217              60.00    11800.00
04218              52.00    12000.00
04219              38.00    12000.00
04220              58.00    12200.00
04221              66.00    12200.00
04222              46.00    12400.00
04223              52.00    12400.00
04224              76.00    12600.00
04225              58.00    12600.00
04226              42.00    12600.00
04227              66.00    12800.00
04228              72.00    12800.00
04229              50.00    12800.00
04230              60.00    13000.00
04231              92.00    13200.00
04232              68.00    13200.00
04233              42.00    13200.00
04234              70.00    13200.00
04235              86.00    13200.00
04236              68.00    13200.00
04237              68.00    13400.00
04238              76.00    13400.00
04239              70.00    13400.00
04240              62.00    13400.00
04241              82.00    13400.00
04242              86.00    13400.00
04243              66.00    13400.00
04244              76.00    13400.00
04245              90.00    13400.00
04246              76.00    13400.00
04247              68.00    13400.00
04248              84.00    13400.00
04249              92.00    13400.00
04250              76.00    13400.00
04251              70.00    13400.00
04252              78.00    13200.00
04253              76.00    13200.00
04254              78.00    13200.00
04255              90.00    13200.00
04256              92.00    13200.00
04257              98.00    13000.00
04258             104.00    12800.00
04259              86.00    12800.00
04260              52.00    12800.00
04261              46.00    12600.00
04262              78.00    12600.00
04263              86.00    12600.00
04264              60.00    12600.00
04265              44.00    12400.00
04266              54.00    12400.00
04267              66.00    12000.00
04268              60.00    12000.00
04269              58.00    12000.00
04270              42.00    11800.00
04271              44.00    11600.00
04272              54.00    11400.00
04273              58.00    11600.00
04274              42.00    11200.00
04275              38.00    11200.00
04276              50.00    11000.00
04277              52.00    10800.00
04278              42.00    10800.00
04279              36.00    10400.00
04280              38.00    10200.00
04281              44.00    10200.00
04282              42.00    10000.00
04283              36.00     9600.00
04284              30.00     9600.00
04285              28.00     9600.00
04286              34.00     9200.00
04287              36.00     9200.00
04288              28.00     9000.00
04289              28.00     8800.00
04290              30.00     8400.00
04291              28.00     8400.00
04292              26.00     8000.00
04293              22.00     8000.00
04294              28.00     7600.00
04295              28.00     7600.00
04296              22.00     7200.00
04297              20.00     7000.00
04298              18.00     6800.00
04299              18.00     6800.00
04300              26.00     6400.00
04301              22.00     6200.00
04302              18.00     6000.00
04303              14.00     5600.00
04304              18.00     5600.00
04305              14.00     5200.00
04306              14.00     5000.00
04307              16.00     4600.00
04308              14.00     4600.00
04309              14.00     4400.00
04310              10.00     4000.00
04311              10.00     3800.00
04312              10.00     3600.00
04313              12.00     3400.00
04314              14.00     3200.00
04315              10.00     2800.00
04316               4.00     2400.00
04317               2.00     2400.00
04318               6.00     2000.00
04319               6.00     1800.00
04320               6.00     1600.00
04321               4.00     1400.00
04322               4.00     1200.00
04323               2.00      800.00
04324               2.00      600.00
04325               4.00      400.00
04326               4.00        0.00
04327               6.00     -200.00
04328              20.00     -400.00
04329              46.00     -400.00
04330              22.00     -800.00
04331             -22.00    -1000.00
04332             -26.00    -1400.00
04333              14.00    -1600.00
04334              36.00    -1800.00
04335              84.00    -2000.00
04336             250.00    -2200.00
04337             246.00    -2800.00
04338            -250.00    -3200.00
04339            -250.00    -3200.00
04340              30.00    -3400.00
04341             250.00    -3400.00
04342             118.00    -3400.00
04343             250.00    -4000.00
04344            -232.00    -4800.00
04345            -250.00    -4000.00
04346             250.00    -5000.00
04347             218.00    -5000.00
04348            -100.00    -4400.00
04349              58.00    -6000.00
04350            -250.00    -5400.00
04351             106.00    -5800.00
04352             154.00    -6600.00
04353            -250.00    -5800.00
04354              60.00    -7200.00
04355              18.00    -6600.00
04356              22.00    -7000.00
04357             -34.00    -7800.00
04358            -158.00    -7000.00
04359              66.00    -8000.00
04360             -30.00    -8000.00
04361              30.00    -8000.00
04362             -30.00    -8800.00
04363            -166.00    -8200.00
04364              44.00    -9000.00
04365              -6.00    -9000.00
04366             -38.00    -9000.00
04367             -58.00    -9400.00
04368             -70.00    -9200.00
04369              38.00    -9800.00
04370             -28.00    -9800.00
04371             -84.00   -10000.00
04372             -58.00   -10400.00
04373             -32.00   -10000.00
04374              -6.00   -10600.00
04375             -26.00   -10600.00
04376             -66.00   -10800.00
04377             -86.00   -10800.00
04378             -66.00   -11000.00
04379              10.00   -11200.00
04380             -20.00   -11200.00
04381            -100.00   -11400.00
04382             -70.00   -11800.00
04383             -54.00   -11600.00
04384             -30.00   -12000.00
04385             -52.00   -12000.00
04386             -66.00   -12000.00
04387             -58.00   -12200.00
04388             -76.00   -12200.00
04389             -50.00   -12400.00
04390             -50.00   -12400.00
04391             -70.00   -12600.00
04392             -70.00   -12800.00
04393             -62.00   -12800.00
04394             -62.00   -12800.00
04395             -82.00   -13000.00
04396             -72.00   -12800.00
04397             -56.00   -13000.00
04398             -80.00   -13200.00
04399             -86.00   -13200.00
04400             -78.00   -13200.00
04401             -76.00   -13400.00
04402             -66.00   -13200.00
04403             -74.00   -13200.00
04404             -82.00   -13400.00
04405             -94.00   -13400.00
04406             -84.00   -13200.00
04407             -60.00   -13400.00
04408             -82.00   -13200.00
04409             -98.00   -13400.00
04410             -86.00   -13400.00
04411             -76.00   -13400.00
04412             -76.00   -13400.00
04413             -94.00   -13400.00
04414             -90.00   -13600.00
04415             -84.00   -13200.00
04416             -84.00   -13200.00
04417             -80.00   -13200.00
04418             -92.00   -13200.00
04419             -94.00   -13200.00
04420             -86.00   -13200.00
04421             -78.00   -13000.00
04422             -86.00   -13000.00
04423            -114.00   -13000.00
04424            -108.00   -13000.00
04425             -86.00   -12800.00
04426             -70.00   -12800.00
04427             -62.00   -12800.00
04428             -76.00   -12600.00
04429             -78.00   -12600.00
04430             -70.00   -12200.00
04431             -60.00   -12400.00
04432             -62.00   -12200.00
04433             -74.00   -12200.00
04434             -66.00   -12000.00
04435             -52.00   -12000.00
04436             -60.00   -11800.00
04437             -66.00   -11600.00
04438             -62.00   -11400.00
04439             -52.00   -11400.00
04440             -54.00   -11200.00
04441             -54.00   -11000.00
04442             -50.00   -10800.00
04443             -52.00   -10800.00
04444             -50.00   -10600.00
04445             -46.00   -10600.00
04446             -50.00   -10400.00
04447             -46.00   -10200.00
04448             -44.00   -10000.00
04449             -44.00    -9800.00
04450             -48.00    -9600.00
04451             -44.00    -9400.00
04452             -36.00    -9200.00
04453             -36.00    -9000.00
04454             -38.00    -9000.00
04455             -44.00    -8800.00
04456             -38.00    -8400.00
04457             -30.00    -8400.00
04458             -36.00    -8000.00
04459             -36.00    -8000.00
04460             -36.00    -7800.00
04461             -30.00    -7600.00
04462             -22.00    -7400.00
04463             -28.00    -7200.00
04464             -36.00    -6800.00
04465             -30.00    -6600.00
04466             -26.00    -6400.00
04467             -20.00    -6200.00
04468             -28.00    -6000.00
04469             -28.00    -5600.00
04470             -22.00    -5600.00
04471             -24.00    -5200.00
04472             -20.00    -5000.00
04473             -22.00    -4600.00
04474             -22.00    -4400.00
04475             -18.00    -4400.00
04476             -20.00    -4200.00
04477             -20.00    -4000.00
04478             -22.00    -3600.00
04479             -20.00    -3400.00
04480             -12.00    -3200.00
04481             -14.00    -3000.00
04482             -20.00    -2600.00
04483             -16.00    -2400.00
04484             -12.00    -2200.00
04485             -12.00    -1800.00
04486             -10.00    -1600.00
04487             -10.00    -1600.00
04488             -10.00    -1200.00
04489              -8.00     -800.00
04490             -10.00     -600.00
04491             -16.00     -400.00
04492             -12.00        0.00
04493               4.00        0.00
04494              20.00      400.00
04495              44.00      600.00
04496              14.00      800.00
04497             -28.00      800.00
04498             -28.00     1400.00
04499              14.00     1600.00
04500              30.00     1800.00
04501              26.00     1800.00
04502              90.00     2200.00
04503             250.00     2800.00
04504             148.00     3000.00
04505            -250.00     3000.00
04506            -250.00     3200.00
04507             212.00     3600.00
04508             250.00     3800.00
04509            -136.00     4000.00
04510            -138.00     4200.00
04511             250.00     4400.00
04512             -96.00     4600.00
04513             -76.00     5000.00
04514             102.00     5000.00
04515             -36.00     5600.00
04516             154.00     5800.00
04517               6.00     5600.00
04518            -150.00     6200.00
04519              22.00     6400.00
04520              28.00     6400.00
04521              86.00     6800.00
04522              68.00     7000.00
04523             -78.00     7200.00
04524             -18.00     7200.00
04525             106.00     7600.00
04526              72.00     8000.00
04527             -84.00     8000.00
04528              18.00     8200.00
04529             120.00     8400.00
04530             -18.00     8600.00
04531             -10.00     9000.00
04532              46.00     9200.00
04533              26.00     9400.00
04534              24.00     9400.00
04535              54.00     9600.00
04536              54.00    10000.00
04537               4.00     9800.00
04538              12.00    10000.00
04539              64.00    10400.00
04540              52.00    10400.00
04541              12.00    10600.00
04542              50.00    10800.00
04543              62.00    10800.00
04544              18.00    11000.00
04545              14.00    11000.00
04546              78.00    11400.00
04547              68.00    11600.00
04548               6.00    11600.00
04549              44.00    11800.00
04550              74.00    12000.00
04551              46.00    12000.00
04552              42.00    12000.00
04553              62.00    12000.00
04554              54.00    12400.00
04555              44.00    12400.00
04556              66.00    12400.00
04557              74.00    12600.00
04558              42.00    12600.00
04559              50.00    12800.00
04560              76.00    12800.00
04561              66.00    12800.00
04562              50.00    13000.00
04563              76.00    13200.00
04564              82.00    13000.00
04565              48.00    13200.00
04566              54.00    13200.00
04567              90.00    13200.00
04568              82.00    13200.00
04569              58.00    13200.00
04570              68.00    13400.00
04571              76.00    13400.00
04572              68.00    13400.00
04573              76.00    13400.00
04574              90.00    13400.00
04575              74.00    13400.00
04576              62.00    13600.00
04577              86.00    13400.00
04578              90.00    13400.00
04579              70.00    13400.00
04580              72.00    13400.00
04581              90.00    13400.00
04582              90.00    13400.00
04583              74.00    13200.00
04584              78.00    13200.00
04585              78.00    13200.00
04586              74.00    13200.00
04587              82.00    13200.00
04588              90.00    13000.00
04589              94.00    13000.00
04590             100.00    12800.00
04591             102.00    12800.00
04592              70.00    12800.00
04593              42.00    12800.00
04594              60.00    12600.00
04595              86.00    12600.00
04596              74.00    12400.00
04597              46.00    12400.00
04598              44.00    12400.00
04599              62.00    12200.00
04600              66.00    12000.00
04601              60.00    12000.00
04602              50.00    12000.00
04603              42.00    11800.00
04604              50.00    11600.00
04605              58.00    11600.00
04606              52.00    11200.00
04607              36.00    11000.00
04608              42.00    11000.00
04609              52.00    10800.00
04610              44.00    10800.00
04611              36.00    10400.00
04612              36.00    10400.00
04613              40.00    10200.00
04614              42.00    10000.00
04615              40.00    10000.00
04616              34.00     9600.00
04617              30.00     9400.00
04618              28.00     9400.00
04619              36.00     9200.00
04620              34.00     9000.00
04621              28.00     8800.00
04622              30.00     8600.00
04623              28.00     8400.00
04624              24.00     8200.00
04625              22.00     8000.00
04626              28.00     7800.00
04627              30.00     7600.00
04628              26.00     7200.00
04629              20.00     7200.00
04630              20.00     7000.00
04631              24.00     6600.00
04632              22.00     6600.00
04633              18.00     6400.00
04634              18.00     6000.00
04635              20.00     5800.00
04636              26.00     5600.00
04637              18.00     5400.00
04638               6.00     5200.00
04639              12.00     4800.00
04640              24.00     4600.00
04641              14.00     4400.00
04642              10.00     4200.00
04643               6.00     4000.00
04644               4.00     3800.00
04645              12.00     3600.00
04646              20.00     3200.00
04647              14.00     3200.00
04648               2.00     2800.00
04649               2.00     2400.00
04650              14.00     2000.00
04651              12.00     2000.00
04652              -2.00     1800.00
04653               0.00     1400.00
04654              10.00     1200.00
04655               6.00     1000.00
04656              -2.00      800.00
04657              -2.00      400.00
04658               2.00      200.00
04659               4.00        0.00
04660              18.00     -200.00
04661              36.00     -400.00
04662              36.00     -800.00
04663             -12.00    -1000.00
04664             -30.00    -1200.00
04665               6.00    -1600.00
04666              34.00    -1800.00
04667              40.00    -1800.00
04668             164.00    -2000.00
04669             250.00    -2400.00
04670            -102.00    -3200.00
04671            -250.00    -3200.00
04672            -250.00    -3600.00
04673             250.00    -3400.00
04674             250.00    -3600.00
04675             202.00    -3600.00
04676             244.00    -4400.00
04677            -250.00    -4600.00
04678            -170.00    -4400.00
04679             250.00    -5600.00
04680             -58.00    -4400.00
04681              52.00    -5400.00
04682            -116.00    -6000.00
04683            -230.00    -5200.00
04684             250.00    -6600.00
04685            -118.00    -6000.00
04686            -118.00    -6400.00
04687             108.00    -7200.00
04688             -36.00    -6400.00
04689              36.00    -7600.00
04690            -154.00    -7200.00
04691             -36.00    -7400.00
04692              52.00    -8200.00
04693             -44.00    -7600.00
04694              58.00    -8600.00
04695            -140.00    -8400.00
04696             -62.00    -8400.00
04697              52.00    -9200.00
04698             -64.00    -8800.00
04699             -34.00    -9200.00
04700             -76.00    -9400.00
04701               2.00    -9400.00
04702              26.00   -10000.00
04703             -84.00    -9600.00
04704             -78.00   -10400.00
04705             -42.00   -10200.00
04706              -8.00   -10200.00
04707              -4.00   -10600.00
04708             -52.00   -10600.00
04709             -90.00   -11200.00
04710             -86.00   -10800.00
04711             -22.00   -11200.00
04712              24.00   -11200.00
04713             -66.00   -11400.00
04714             -94.00   -11600.00
04715             -62.00   -11600.00
04716             -44.00   -11800.00
04717             -32.00   -12000.00
04718             -66.00   -12000.00
04719             -60.00   -12200.00
04720             -70.00   -12200.00
04721             -70.00   -12400.00
04722             -38.00   -12400.00
04723             -60.00   -12400.00
04724             -70.00   -12800.00
04725             -70.00   -12800.00
04726             -66.00   -12800.00
04727             -76.00   -13000.00
04728             -82.00   -13000.00
04729             -60.00   -13000.00
04730             -60.00   -13000.00
04731             -84.00   -13000.00
04732             -78.00   -13200.00
04733             -82.00   -13200.00
04734             -74.00   -13200.00
04735             -70.00   -13200.00
04736             -84.00   -13400.00
04737             -90.00   -13400.00
04738             -90.00   -13600.00
04739             -68.00   -13400.00
04740             -72.00   -13200.00
04741            -100.00   -13400.00
04742             -90.00   -13400.00
04743             -76.00   -13400.00
04744             -74.00   -13200.00
04745             -90.00   -13400.00
04746             -98.00   -13400.00
04747             -88.00   -13600.00
04748             -90.00   -13400.00
04749             -78.00   -13200.00
04750             -82.00   -13200.00
04751             -98.00   -13200.00
04752             -92.00   -13200.00
04753             -84.00   -13000.00
04754             -78.00   -13000.00
04755            -100.00   -13000.00
04756            -116.00   -13000.00
04757            -102.00   -12800.00
04758             -84.00   -12800.00
04759             -60.00   -12800.00
04760             -62.00   -12800.00
04761             -76.00   -12600.00
04762             -74.00   -12400.00
04763             -68.00   -12400.00
04764             -60.00   -12200.00
04765             -68.00   -12200.00
04766             -66.00   -12000.00
04767             -56.00   -12000.00
04768             -58.00   -11800.00
04769             -62.00   -11600.00
04770             -64.00   -11600.00
04771             -54.00   -11400.00
04772             -50.00   -11400.00
04773             -58.00   -11000.00
04774             -54.00   -11200.00
04775             -50.00   -11000.00
04776             -52.00   -10800.00
04777             -46.00   -10600.00
04778             -48.00   -10400.00
04779             -46.00   -10200.00
04780             -38.00   -10200.00
04781             -40.00    -9800.00
04782             -42.00    -9800.00
04783             -50.00    -9600.00
04784             -42.00    -9400.00
04785             -36.00    -9200.00
04786             -36.00    -9000.00
04787             -42.00    -8800.00
04788             -40.00    -8600.00
04789             -34.00    -8400.00
04790             -34.00    -8400.00
04791             -34.00    -8000.00
04792             -32.00    -8000.00
04793             -30.00    -7600.00
04794             -30.00    -7400.00
04795             -28.00    -7200.00
04796             -34.00    -7000.00
04797             -34.00    -6800.00
04798             -26.00    -6600.00
04799             -20.00    -6400.00
04800             -26.00    -6200.00
04801             -28.00    -6000.00
04802             -22.00    -5600.00
04803             -22.00    -5400.00
04804             -22.00    -5200.00
04805             -24.00    -5000.00
04806             -26.00    -4800.00
04807             -20.00    -4400.00
04808             -18.00    -4400.00
04809             -22.00    -4000.00
04810             -18.00    -3800.00
04811             -20.00    -3600.00
04812             -12.00    -3400.00
04813             -14.00    -3000.00
04814             -18.00    -2800.00
04815             -18.00    -2600.00
04816             -12.00    -2400.00
04817             -12.00    -2000.00
04818             -12.00    -2000.00
04819             -10.00    -1600.00
04820             -10.00    -1200.00
04821             -12.00    -1200.00
04822              -4.00     -800.00
04823              -8.00     -600.00
04824             -14.00     -200.00
04825              -8.00        0.00
04826               6.00        0.00
04827              26.00      400.00
04828              42.00      600.00
04829              -2.00      800.00
04830             -34.00     1200.00
04831              -6.00     1200.00
04832              26.00     1800.00
04833              20.00     1800.00
04834              34.00     2000.00
04835             212.00     2400.00
04836             250.00     2800.00
04837            -196.00     3000.00
04838            -250.00     3200.00
04839            -250.00     3400.00
04840             250.00     3800.00
04841             250.00     4000.00
04842            -250.00     4000.00
04843             142.00     4400.00
04844             164.00     4600.00
04845            -168.00     4600.00
04846              88.00     5200.00
04847              14.00     5000.00
04848              26.00     5800.00
04849             146.00     5600.00
04850            -116.00     5800.00
04851             -54.00     6400.00
04852              52.00     6200.00
04853              22.00     6800.00
04854             106.00     7000.00
04855             -22.00     7000.00
04856             -60.00     7400.00
04857              58.00     7200.00
04858             116.00     7800.00
04859             -22.00     8000.00
04860             -68.00     8000.00
04861              98.00     8400.00
04862              58.00     8600.00
04863             -38.00     8800.00
04864              34.00     9000.00
04865              42.00     9200.00
04866              10.00     9400.00
04867              34.00     9400.00
04868              66.00     9600.00
04869              42.00     9800.00
04870              -4.00     9800.00
04871              26.00    10200.00
04872              58.00    10200.00
04873              30.00    10400.00
04874              36.00    10600.00
04875              66.00    10800.00
04876              28.00    11000.00
04877             -10.00    11000.00
04878              46.00    11200.00
04879             102.00    11400.00
04880              46.00    11600.00
04881              14.00    11600.00
04882              52.00    12000.00
04883              52.00    11800.00
04884              46.00    12000.00
04885              60.00    12000.00
04886              60.00    12200.00
04887              42.00    12400.00
04888              50.00    12400.00
04889              76.00    12400.00
04890              60.00    12600.00
04891              46.00    12600.00
04892              68.00    12800.00
04893              74.00    12800.00
04894              50.00    12800.00
04895              54.00    13000.00
04896              86.00    13200.00
04897              70.00    13200.00
04898              50.00    13200.00
04899              74.00    13200.00
04900              90.00    13200.00
04901              68.00    13200.00
04902              66.00    13400.00
04903              76.00    13400.00
04904              68.00    13400.00
04905              68.00    13400.00
04906              86.00    13400.00
04907              90.00    13400.00
04908              66.00    13400.00
04909              68.00    13400.00
04910              88.00    13400.00
04911              82.00    13600.00
04912              72.00    13400.00
04913              82.00    13400.00
04914              90.00    13400.00
04915              76.00    13400.00
04916              74.00    13200.00
04917              84.00    13400.00
04918              82.00    13200.00
04919              74.00    13200.00
04920              84.00    13200.00
04921              92.00    13200.00
04922             100.00    13000.00
04923             106.00    13000.00
04924              86.00    12800.00
04925              46.00    12800.00
04926              44.00    12600.00
04927              76.00    12600.00
04928              84.00    12600.00
04929              62.00    12400.00
04930              44.00    12400.00
04931              52.00    12400.00
04932              62.00    12000.00
04933              62.00    12000.00
04934              58.00    12000.00
04935              44.00    11800.00
04936              42.00    11600.00
04937              52.00    11200.00
04938              52.00    11400.00
04939              42.00    11200.00
04940              42.00    11000.00
04941              50.00    11000.00
04942              52.00    10800.00
04943              36.00    10600.00
04944              36.00    10400.00
04945              44.00    10200.00
04946              44.00    10200.00
04947              42.00    10000.00
04948              34.00     9600.00
04949              30.00     9600.00
04950              28.00     9400.00
04951              36.00     9200.00
04952              34.00     9000.00
04953              28.00     9000.00
04954              26.00     8600.00
04955              32.00     8600.00
04956              28.00     8400.00
04957              22.00     8200.00
04958              26.00     8000.00
04959              30.00     7800.00
04960              28.00     7400.00
04961              22.00     7200.00
04962              20.00     7200.00
04963              18.00     6800.00
04964              20.00     6800.00
04965              26.00     6400.00
04966              22.00     6200.00
04967              18.00     6000.00
04968              16.00     5600.00
04969              18.00     5600.00
04970              14.00     5200.00
04971              12.00     5000.00
04972              18.00     4800.00
04973              18.00     4600.00
04974              14.00     4400.00
04975              12.00     4000.00
04976               4.00     3800.00
04977              12.00     3600.00
04978              12.00     3400.00
04979              14.00     3000.00
04980              10.00     3000.00
04981               4.00     2600.00
04982               6.00     2400.00
04983              10.00     2000.00
04984              10.00     2000.00
04985               4.00     1600.00
04986               2.00     1400.00
04987               4.00     1000.00
04988               4.00      800.00
04989               4.00      600.00
04990               2.00      400.00
04991               0.00        0.00
04992               6.00     -200.00
04993              20.00     -400.00
04994              50.00     -400.00
04995              26.00     -800.00
04996             -22.00    -1000.00
04997             -28.00    -1200.00
04998              14.00    -1600.00
04999              36.00    -1800.00
05000              78.00    -2000.00
