Unit:(mV)
                     CH1         CH2
Frequency              ? 300.765 kHz
00001               4.00     1200.00
00002              -2.00      800.00
00003              -4.00      600.00
00004              -2.00      400.00
00005               4.00        0.00
00006              10.00     -200.00
00007              28.00     -400.00
00008              46.00     -600.00
00009               6.00    -1000.00
00010             -32.00    -1200.00
00011             -14.00    -1200.00
00012              26.00    -1600.00
00013              44.00    -1800.00
00014             114.00    -2000.00
00015             250.00    -2400.00
00016              94.00    -3000.00
00017            -250.00    -3200.00
00018            -250.00    -3600.00
00019             234.00    -3600.00
00020             250.00    -3600.00
00021              42.00    -3600.00
00022             250.00    -4000.00
00023            -250.00    -4600.00
00024            -250.00    -4200.00
00025             250.00    -5600.00
00026              92.00    -5000.00
00027              -2.00    -4800.00
00028              -2.00    -6200.00
00029            -250.00    -5200.00
00030             222.00    -6400.00
00031              18.00    -6400.00
00032            -204.00    -6000.00
00033             156.00    -7400.00
00034             -44.00    -6600.00
00035              34.00    -7200.00
00036             -30.00    -7800.00
00037            -116.00    -7200.00
00038              66.00    -8400.00
00039             -14.00    -8000.00
00040              60.00    -8400.00
00041             -70.00    -8800.00
00042            -104.00    -8400.00
00043              64.00    -9200.00
00044             -18.00    -9000.00
00045               4.00    -9400.00
00046             -60.00    -9600.00
00047             -28.00    -9600.00
00048              62.00   -10000.00
00049             -36.00    -9800.00
00050             -52.00   -10400.00
00051             -20.00   -10400.00
00052              -6.00   -10400.00
00053              12.00   -10800.00
00054              -6.00   -10800.00
00055             -44.00   -11000.00
00056             -52.00   -11200.00
00057             -22.00   -11400.00
00058              46.00   -11600.00
00059              -6.00   -11400.00
00060             -62.00   -12000.00
00061             -28.00   -12000.00
00062             -14.00   -12000.00
00063               4.00   -12200.00
00064             -22.00   -12400.00
00065             -18.00   -12400.00
00066             -22.00   -12400.00
00067             -36.00   -12800.00
00068              -4.00   -12800.00
00069             -10.00   -12800.00
00070             -30.00   -12800.00
00071             -22.00   -13000.00
00072             -12.00   -13000.00
00073             -20.00   -13200.00
00074             -36.00   -13200.00
00075             -18.00   -13400.00
00076              -2.00   -13400.00
00077             -30.00   -13200.00
00078             -30.00   -13600.00
00079             -24.00   -13600.00
00080             -20.00   -13400.00
00081             -12.00   -13600.00
00082             -20.00   -13600.00
00083             -26.00   -13600.00
00084             -36.00   -13600.00
00085             -22.00   -13600.00
00086              -2.00   -13600.00
00087             -26.00   -13600.00
00088             -36.00   -13800.00
00089             -22.00   -13600.00
00090             -12.00   -13800.00
00091             -20.00   -13600.00
00092             -34.00   -13600.00
00093             -22.00   -13600.00
00094             -22.00   -13800.00
00095             -22.00   -13600.00
00096             -14.00   -13600.00
00097             -32.00   -13600.00
00098             -30.00   -13600.00
00099             -22.00   -13600.00
00100             -14.00   -13400.00
00101             -22.00   -13400.00
00102             -30.00   -13200.00
00103             -18.00   -13200.00
00104             -18.00   -13000.00
00105             -28.00   -13000.00
00106             -28.00   -13000.00
00107             -20.00   -12800.00
00108             -14.00   -12800.00
00109             -22.00   -12800.00
00110             -22.00   -12600.00
00111             -26.00   -12600.00
00112             -28.00   -12400.00
00113             -14.00   -12400.00
00114             -18.00   -12200.00
00115             -28.00   -12000.00
00116             -28.00   -12000.00
00117             -18.00   -11600.00
00118             -12.00   -11600.00
00119             -28.00   -11400.00
00120             -24.00   -11200.00
00121             -18.00   -11000.00
00122             -20.00   -10800.00
00123             -20.00   -10800.00
00124             -22.00   -10600.00
00125             -22.00   -10600.00
00126             -18.00   -10200.00
00127             -14.00   -10400.00
00128             -14.00   -10000.00
00129             -28.00    -9800.00
00130             -22.00    -9600.00
00131             -12.00    -9600.00
00132             -14.00    -9200.00
00133             -22.00    -9200.00
00134             -22.00    -8800.00
00135             -18.00    -8600.00
00136             -12.00    -8400.00
00137             -22.00    -8200.00
00138             -20.00    -8200.00
00139             -18.00    -8000.00
00140             -12.00    -7400.00
00141              -6.00    -7400.00
00142             -16.00    -7200.00
00143             -20.00    -7000.00
00144             -16.00    -6800.00
00145              -6.00    -6400.00
00146              -6.00    -6400.00
00147             -20.00    -6000.00
00148             -14.00    -5800.00
00149             -12.00    -5600.00
00150             -12.00    -5400.00
00151             -10.00    -5000.00
00152             -14.00    -4800.00
00153             -10.00    -4400.00
00154              -8.00    -4400.00
00155             -12.00    -4000.00
00156             -12.00    -4000.00
00157             -12.00    -3600.00
00158             -12.00    -3400.00
00159              -6.00    -3200.00
00160             -10.00    -2800.00
00161             -12.00    -2600.00
00162             -12.00    -2400.00
00163              -6.00    -2200.00
00164              -6.00    -1800.00
00165              -6.00    -1600.00
00166              -6.00    -1200.00
00167              -6.00    -1000.00
00168             -10.00     -800.00
00169             -10.00     -600.00
00170              -6.00     -200.00
00171              -4.00     -200.00
00172               6.00      200.00
00173              22.00      400.00
00174              40.00      800.00
00175               6.00      800.00
00176             -28.00     1200.00
00177             -26.00     1200.00
00178              20.00     1600.00
00179              24.00     1800.00
00180              30.00     2000.00
00181             146.00     2400.00
00182             250.00     2800.00
00183             -20.00     3000.00
00184            -250.00     3200.00
00185            -250.00     3400.00
00186             250.00     3600.00
00187             250.00     4000.00
00188            -250.00     4000.00
00189            -114.00     4400.00
00190             250.00     4600.00
00191             -60.00     4800.00
00192            -114.00     5200.00
00193               4.00     5200.00
00194              -6.00     5600.00
00195             204.00     5800.00
00196             -30.00     5600.00
00197            -164.00     6400.00
00198             -16.00     6400.00
00199              44.00     6600.00
00200             144.00     7200.00
00201              -2.00     7000.00
00202            -134.00     7400.00
00203              22.00     7600.00
00204             132.00     8000.00
00205              18.00     8400.00
00206            -130.00     8400.00
00207              22.00     8600.00
00208             114.00     8600.00
00209             -22.00     8800.00
00210             -28.00     9200.00
00211               4.00     9200.00
00212              14.00     9600.00
00213              24.00     9400.00
00214              38.00    10000.00
00215              20.00    10000.00
00216             -36.00    10200.00
00217              -2.00    10200.00
00218              58.00    10400.00
00219              20.00    10800.00
00220             -26.00    10800.00
00221              26.00    10800.00
00222              30.00    11200.00
00223             -16.00    11400.00
00224              -4.00    11200.00
00225              52.00    11600.00
00226              26.00    11800.00
00227             -28.00    11800.00
00228              12.00    12000.00
00229              32.00    12200.00
00230               6.00    12400.00
00231               6.00    12400.00
00232              26.00    12400.00
00233              12.00    12600.00
00234               4.00    12600.00
00235              34.00    12800.00
00236              22.00    12800.00
00237             -10.00    12800.00
00238              10.00    13000.00
00239              32.00    13200.00
00240               6.00    13200.00
00241              -4.00    13200.00
00242              28.00    13400.00
00243              32.00    13400.00
00244              -6.00    13400.00
00245               4.00    13600.00
00246              36.00    13600.00
00247              18.00    13600.00
00248               4.00    13600.00
00249              18.00    13800.00
00250              20.00    13600.00
00251              10.00    13800.00
00252              18.00    13600.00
00253              26.00    13600.00
00254              10.00    13600.00
00255               6.00    13600.00
00256              30.00    13600.00
00257              26.00    13600.00
00258               0.00    13600.00
00259              10.00    13600.00
00260              34.00    13600.00
00261              24.00    13600.00
00262               4.00    13600.00
00263              18.00    13600.00
00264              20.00    13400.00
00265              10.00    13600.00
00266              14.00    13400.00
00267              26.00    13400.00
00268              18.00    13200.00
00269              10.00    13200.00
00270              22.00    13200.00
00271              18.00    13000.00
00272               4.00    13000.00
00273              20.00    12800.00
00274              34.00    12800.00
00275              18.00    12600.00
00276              -2.00    12600.00
00277              12.00    12600.00
00278              26.00    12400.00
00279              18.00    12400.00
00280              18.00    12200.00
00281              14.00    12000.00
00282              12.00    11800.00
00283              12.00    12000.00
00284              20.00    11600.00
00285              14.00    11600.00
00286               6.00    11200.00
00287              12.00    11000.00
00288              20.00    11000.00
00289              10.00    10800.00
00290               4.00    10800.00
00291              14.00    10600.00
00292              20.00    10400.00
00293              12.00    10200.00
00294              10.00    10000.00
00295               8.00     9800.00
00296              10.00     9600.00
00297              10.00     9400.00
00298              12.00     9200.00
00299              10.00     9200.00
00300               6.00     8800.00
00301              12.00     8800.00
00302              14.00     8600.00
00303               4.00     8400.00
00304               2.00     8000.00
00305              10.00     7800.00
00306              12.00     7600.00
00307               6.00     7400.00
00308               4.00     7200.00
00309               2.00     7000.00
00310               4.00     6800.00
00311              10.00     6800.00
00312              10.00     6400.00
00313               4.00     6000.00
00314               2.00     6000.00
00315               6.00     5600.00
00316               6.00     5400.00
00317               0.00     5200.00
00318               4.00     5000.00
00319              10.00     4600.00
00320               6.00     4600.00
00321               2.00     4400.00
00322               2.00     4000.00
00323               4.00     3800.00
00324               4.00     3400.00
00325               4.00     3200.00
00326               2.00     3000.00
00327              -2.00     2800.00
00328               2.00     2400.00
00329               2.00     2200.00
00330               4.00     2000.00
00331               2.00     1800.00
00332              -2.00     1600.00
00333               4.00     1200.00
00334               6.00      800.00
00335              -4.00      600.00
00336              -6.00      400.00
00337              -6.00        0.00
00338               6.00        0.00
00339              20.00     -200.00
00340              44.00     -600.00
00341              34.00     -800.00
00342             -22.00    -1200.00
00343             -34.00    -1400.00
00344               8.00    -1600.00
00345              38.00    -1800.00
00346              66.00    -1800.00
00347             250.00    -2200.00
00348             250.00    -2600.00
00349            -250.00    -3200.00
00350            -250.00    -3400.00
00351            -188.00    -3600.00
00352             250.00    -3400.00
00353             158.00    -3600.00
00354             166.00    -3800.00
00355             106.00    -4600.00
00356            -250.00    -4400.00
00357              42.00    -4600.00
00358             250.00    -5600.00
00359             -70.00    -4400.00
00360              90.00    -5800.00
00361            -242.00    -6000.00
00362             -54.00    -5600.00
00363             250.00    -6600.00
00364            -230.00    -5800.00
00365              28.00    -6800.00
00366              76.00    -7200.00
00367             -60.00    -6600.00
00368              68.00    -8000.00
00369            -132.00    -7400.00
00370               2.00    -7800.00
00371              22.00    -8200.00
00372               4.00    -8000.00
00373              38.00    -8800.00
00374            -140.00    -8400.00
00375              10.00    -9000.00
00376              28.00    -9200.00
00377             -22.00    -9000.00
00378             -12.00    -9800.00
00379             -68.00    -9200.00
00380              44.00    -9800.00
00381              20.00   -10000.00
00382             -68.00   -10000.00
00383             -32.00   -10600.00
00384              -8.00   -10400.00
00385               6.00   -10600.00
00386              10.00   -10800.00
00387             -30.00   -10800.00
00388             -50.00   -11200.00
00389             -46.00   -11000.00
00390              20.00   -11400.00
00391              38.00   -11600.00
00392             -50.00   -11600.00
00393             -54.00   -12000.00
00394             -22.00   -12000.00
00395               2.00   -12000.00
00396              -6.00   -12200.00
00397             -28.00   -12400.00
00398             -14.00   -12400.00
00399             -38.00   -12600.00
00400             -18.00   -12600.00
00401               6.00   -12800.00
00402             -22.00   -12800.00
00403             -30.00   -12800.00
00404             -20.00   -13000.00
00405             -12.00   -13200.00
00406             -28.00   -13200.00
00407             -26.00   -13200.00
00408              -2.00   -13200.00
00409             -18.00   -13400.00
00410             -38.00   -13600.00
00411             -22.00   -13600.00
00412             -18.00   -13400.00
00413             -14.00   -13600.00
00414             -22.00   -13600.00
00415             -26.00   -13600.00
00416             -34.00   -13800.00
00417             -36.00   -13600.00
00418              -2.00   -13600.00
00419             -12.00   -13800.00
00420             -38.00   -13800.00
00421             -30.00   -13800.00
00422             -18.00   -13600.00
00423             -10.00   -13800.00
00424             -30.00   -13600.00
00425             -28.00   -13600.00
00426             -18.00   -13600.00
00427             -28.00   -13600.00
00428             -14.00   -13600.00
00429             -22.00   -13600.00
00430             -34.00   -13400.00
00431             -28.00   -13400.00
00432             -14.00   -13400.00
00433             -12.00   -13400.00
00434             -30.00   -13400.00
00435             -28.00   -13200.00
00436             -14.00   -13200.00
00437             -24.00   -13000.00
00438             -28.00   -13000.00
00439             -22.00   -12800.00
00440             -20.00   -12800.00
00441             -20.00   -12800.00
00442             -26.00   -12600.00
00443             -22.00   -12800.00
00444             -28.00   -12400.00
00445             -22.00   -12200.00
00446             -12.00   -12200.00
00447             -24.00   -12000.00
00448             -28.00   -12000.00
00449             -24.00   -11800.00
00450             -14.00   -11600.00
00451             -20.00   -11600.00
00452             -26.00   -11200.00
00453             -20.00   -11000.00
00454             -18.00   -11000.00
00455             -20.00   -10800.00
00456             -18.00   -10800.00
00457             -22.00   -10600.00
00458             -20.00   -10400.00
00459             -18.00   -10200.00
00460             -14.00   -10000.00
00461             -20.00    -9800.00
00462             -28.00    -9600.00
00463             -18.00    -9600.00
00464             -14.00    -9200.00
00465             -18.00    -9000.00
00466             -22.00    -9000.00
00467             -20.00    -8800.00
00468             -14.00    -8400.00
00469             -14.00    -8400.00
00470             -20.00    -8200.00
00471             -18.00    -8000.00
00472             -14.00    -7600.00
00473             -10.00    -7600.00
00474             -14.00    -7400.00
00475             -20.00    -7000.00
00476             -18.00    -6800.00
00477             -10.00    -6600.00
00478              -6.00    -6400.00
00479             -18.00    -6200.00
00480             -22.00    -5800.00
00481             -14.00    -5600.00
00482             -12.00    -5400.00
00483             -12.00    -5200.00
00484             -14.00    -5000.00
00485             -12.00    -4600.00
00486             -12.00    -4600.00
00487              -6.00    -4200.00
00488             -12.00    -4000.00
00489             -12.00    -3800.00
00490             -12.00    -3600.00
00491              -6.00    -3200.00
00492             -10.00    -2800.00
00493             -14.00    -2800.00
00494             -14.00    -2400.00
00495              -6.00    -2400.00
00496              -6.00    -2000.00
00497              -6.00    -1800.00
00498              -8.00    -1600.00
00499              -4.00    -1400.00
00500              -6.00    -1000.00
00501              -8.00     -800.00
00502              -8.00     -600.00
00503              -6.00     -400.00
00504               2.00        0.00
00505              12.00      400.00
00506              36.00      600.00
00507              28.00      800.00
00508             -20.00      800.00
00509             -34.00     1200.00
00510               4.00     1400.00
00511              28.00     1800.00
00512              26.00     2000.00
00513              58.00     2200.00
00514             250.00     2600.00
00515             250.00     3000.00
00516            -250.00     3000.00
00517            -250.00     3200.00
00518             -10.00     3600.00
00519             250.00     4000.00
00520              66.00     4000.00
00521            -250.00     4000.00
00522             250.00     4600.00
00523             192.00     4600.00
00524            -184.00     5000.00
00525             -10.00     5200.00
00526             -28.00     5200.00
00527             132.00     6000.00
00528             122.00     5600.00
00529            -172.00     6200.00
00530             -86.00     6800.00
00531              26.00     6400.00
00532             104.00     6800.00
00533             110.00     7200.00
00534            -118.00     7200.00
00535             -78.00     7600.00
00536              94.00     7600.00
00537             116.00     8200.00
00538             -84.00     8200.00
00539             -86.00     8400.00
00540             106.00     8600.00
00541              44.00     8800.00
00542             -44.00     9000.00
00543             -10.00     9200.00
00544              14.00     9400.00
00545              14.00     9600.00
00546              30.00     9600.00
00547              36.00    10000.00
00548             -12.00    10200.00
00549             -28.00    10200.00
00550              36.00    10400.00
00551              46.00    10600.00
00552             -18.00    10800.00
00553              -4.00    10800.00
00554              44.00    11000.00
00555              10.00    11200.00
00556             -28.00    11200.00
00557              20.00    11800.00
00558              52.00    11800.00
00559              -6.00    11800.00
00560             -12.00    11800.00
00561              30.00    12200.00
00562              16.00    12400.00
00563               2.00    12400.00
00564              20.00    12400.00
00565              22.00    12600.00
00566               2.00    12600.00
00567              12.00    12800.00
00568              36.00    12800.00
00569               8.00    13000.00
00570              -6.00    12800.00
00571              22.00    13200.00
00572              22.00    13000.00
00573              -2.00    13200.00
00574              12.00    13400.00
00575              38.00    13200.00
00576               6.00    13600.00
00577             -12.00    13400.00
00578              26.00    13600.00
00579              38.00    13600.00
00580              10.00    13600.00
00581               4.00    13600.00
00582              18.00    13600.00
00583              14.00    13600.00
00584              12.00    13600.00
00585              26.00    13600.00
00586              20.00    13600.00
00587               2.00    13600.00
00588              20.00    13600.00
00589              36.00    13600.00
00590               8.00    13600.00
00591              -6.00    13600.00
00592              26.00    13600.00
00593              38.00    13600.00
00594              10.00    13600.00
00595               2.00    13600.00
00596              20.00    13600.00
00597              20.00    13400.00
00598              12.00    13600.00
00599              22.00    13200.00
00600              20.00    13200.00
00601               6.00    13200.00
00602              14.00    13200.00
00603              28.00    13200.00
00604              10.00    13000.00
00605               2.00    13000.00
00606              26.00    12800.00
00607              30.00    12800.00
00608              10.00    12600.00
00609               2.00    12600.00
00610              18.00    12400.00
00611              22.00    12400.00
00612              16.00    12400.00
00613              14.00    12000.00
00614              10.00    12000.00
00615               4.00    11800.00
00616              14.00    11800.00
00617              22.00    11600.00
00618              14.00    11400.00
00619               4.00    11200.00
00620              14.00    11000.00
00621              18.00    10800.00
00622              10.00    10800.00
00623              10.00    10800.00
00624              14.00    10400.00
00625              12.00    10400.00
00626              10.00    10000.00
00627              14.00     9800.00
00628              10.00     9800.00
00629               4.00     9600.00
00630               8.00     9400.00
00631              12.00     9200.00
00632              12.00     9200.00
00633              10.00     8800.00
00634              10.00     8600.00
00635               4.00     8600.00
00636               4.00     8200.00
00637              10.00     8000.00
00638              18.00     7800.00
00639              10.00     7800.00
00640               4.00     7400.00
00641               2.00     7200.00
00642               4.00     6800.00
00643              10.00     6600.00
00644              12.00     6400.00
00645               8.00     6200.00
00646               4.00     6000.00
00647               4.00     5800.00
00648               6.00     5600.00
00649               4.00     5400.00
00650               2.00     5000.00
00651               6.00     4800.00
00652              10.00     4600.00
00653               4.00     4400.00
00654              -2.00     4000.00
00655               2.00     3800.00
00656               4.00     3600.00
00657               6.00     3200.00
00658               2.00     3000.00
00659               2.00     2800.00
00660               2.00     2600.00
00661               2.00     2400.00
00662               4.00     2000.00
00663              -2.00     1800.00
00664              -2.00     1600.00
00665               4.00     1200.00
00666               4.00     1000.00
00667              -2.00      800.00
00668              -6.00      600.00
00669              -4.00      200.00
00670               4.00        0.00
00671              10.00     -200.00
00672              28.00     -400.00
00673              46.00     -600.00
00674               4.00    -1000.00
00675             -34.00    -1000.00
00676             -12.00    -1400.00
00677              28.00    -1600.00
00678              42.00    -1800.00
00679             116.00    -2000.00
00680             250.00    -2400.00
00681              66.00    -3000.00
00682            -250.00    -3200.00
00683            -250.00    -3600.00
00684             250.00    -3600.00
00685             250.00    -3600.00
00686              42.00    -3600.00
00687             250.00    -4200.00
00688            -250.00    -4800.00
00689            -250.00    -4200.00
00690             250.00    -5200.00
00691              70.00    -4600.00
00692               4.00    -4800.00
00693             -18.00    -6000.00
00694            -250.00    -5400.00
00695             236.00    -6400.00
00696              -6.00    -6400.00
00697            -190.00    -6200.00
00698             156.00    -7400.00
00699             -52.00    -6600.00
00700              36.00    -7200.00
00701             -38.00    -7800.00
00702            -108.00    -7400.00
00703              66.00    -8400.00
00704             -18.00    -8000.00
00705              60.00    -8400.00
00706             -74.00    -8800.00
00707             -92.00    -8400.00
00708              66.00    -9200.00
00709             -18.00    -9000.00
00710               2.00    -9400.00
00711             -62.00    -9600.00
00712             -22.00    -9400.00
00713              62.00   -10000.00
00714             -36.00    -9800.00
00715             -54.00   -10400.00
00716             -18.00   -10400.00
00717              -4.00   -10400.00
00718              18.00   -10800.00
00719              -6.00   -10800.00
00720             -44.00   -11200.00
00721             -54.00   -11000.00
00722             -22.00   -11400.00
00723              50.00   -11400.00
00724              -6.00   -11600.00
00725             -68.00   -11800.00
00726             -34.00   -11800.00
00727             -14.00   -12000.00
00728               6.00   -12200.00
00729             -22.00   -12200.00
00730             -18.00   -12400.00
00731             -22.00   -12600.00
00732             -36.00   -12400.00
00733               4.00   -12800.00
00734             -10.00   -12800.00
00735             -34.00   -13000.00
00736             -28.00   -13000.00
00737             -14.00   -13200.00
00738             -20.00   -13200.00
00739             -34.00   -13200.00
00740             -12.00   -13200.00
00741              -6.00   -13600.00
00742             -36.00   -13400.00
00743             -30.00   -13600.00
00744             -18.00   -13600.00
00745             -20.00   -13600.00
00746             -20.00   -13600.00
00747             -26.00   -13600.00
00748             -22.00   -13800.00
00749             -36.00   -13800.00
00750             -20.00   -13600.00
00751              -2.00   -13800.00
00752             -30.00   -13800.00
00753             -38.00   -13800.00
00754             -20.00   -13800.00
00755             -10.00   -13600.00
00756             -22.00   -13600.00
00757             -34.00   -13600.00
00758             -22.00   -13800.00
00759             -22.00   -13600.00
00760             -22.00   -13600.00
00761             -16.00   -13600.00
00762             -34.00   -13600.00
00763             -32.00   -13600.00
00764             -22.00   -13600.00
00765             -12.00   -13400.00
00766             -24.00   -13200.00
00767             -34.00   -13200.00
00768             -16.00   -13200.00
00769             -18.00   -13200.00
00770             -26.00   -13000.00
00771             -22.00   -13000.00
00772             -20.00   -12800.00
00773             -20.00   -12800.00
00774             -28.00   -12800.00
00775             -22.00   -12800.00
00776             -20.00   -12400.00
00777             -22.00   -12400.00
00778             -18.00   -12200.00
00779             -22.00   -12000.00
00780             -30.00   -12000.00
00781             -22.00   -12000.00
00782             -12.00   -11600.00
00783             -12.00   -11600.00
00784             -30.00   -11400.00
00785             -26.00   -11200.00
00786             -14.00   -11200.00
00787             -12.00   -10800.00
00788             -16.00   -10600.00
00789             -28.00   -10800.00
00790             -24.00   -10600.00
00791             -14.00   -10400.00
00792             -10.00   -10000.00
00793             -12.00   -10000.00
00794             -28.00    -9800.00
00795             -28.00    -9600.00
00796             -12.00    -9400.00
00797             -12.00    -9200.00
00798             -14.00    -9200.00
00799             -20.00    -9000.00
00800             -22.00    -8800.00
00801             -20.00    -8400.00
00802             -18.00    -8400.00
00803             -12.00    -8200.00
00804             -14.00    -7800.00
00805             -14.00    -7600.00
00806             -14.00    -7400.00
00807             -18.00    -7200.00
00808             -20.00    -6800.00
00809             -12.00    -6800.00
00810             -10.00    -6600.00
00811             -12.00    -6400.00
00812             -22.00    -6000.00
00813             -14.00    -5800.00
00814             -10.00    -5600.00
00815             -14.00    -5400.00
00816             -18.00    -5000.00
00817             -18.00    -4800.00
00818             -12.00    -4600.00
00819              -6.00    -4400.00
00820             -12.00    -4000.00
00821             -12.00    -3800.00
00822             -18.00    -3600.00
00823             -12.00    -3400.00
00824              -4.00    -3200.00
00825             -10.00    -2800.00
00826             -14.00    -2600.00
00827             -10.00    -2400.00
00828              -6.00    -2200.00
00829              -6.00    -1800.00
00830              -6.00    -1600.00
00831             -10.00    -1400.00
00832             -10.00    -1000.00
00833             -10.00     -800.00
00834              -6.00     -600.00
00835              -6.00     -400.00
00836              -4.00     -200.00
00837               2.00        0.00
00838              22.00      400.00
00839              44.00      600.00
00840               4.00      800.00
00841             -32.00     1200.00
00842             -22.00     1200.00
00843              20.00     1600.00
00844              26.00     2000.00
00845              34.00     2000.00
00846             148.00     2400.00
00847             250.00     2800.00
00848             -44.00     3000.00
00849            -250.00     3200.00
00850            -250.00     3200.00
00851             250.00     3800.00
00852             250.00     4000.00
00853            -250.00     4000.00
00854             -76.00     4400.00
00855             250.00     4600.00
00856             -86.00     4800.00
00857            -110.00     5200.00
00858              12.00     5000.00
00859              12.00     5800.00
00860             198.00     6000.00
00861             -56.00     5600.00
00862            -164.00     6600.00
00863              -6.00     6400.00
00864              54.00     6600.00
00865             146.00     7200.00
00866             -14.00     7000.00
00867            -138.00     7600.00
00868              22.00     7600.00
00869             140.00     8000.00
00870              14.00     8400.00
00871            -132.00     8200.00
00872              26.00     8600.00
00873             108.00     8800.00
00874             -26.00     8800.00
00875             -30.00     9200.00
00876               2.00     9200.00
00877              10.00     9600.00
00878              22.00     9400.00
00879              40.00     9800.00
00880              20.00    10000.00
00881             -38.00    10200.00
00882               0.00    10400.00
00883              58.00    10600.00
00884              14.00    10800.00
00885             -22.00    10800.00
00886              30.00    11000.00
00887              32.00    11200.00
00888             -20.00    11200.00
00889             -10.00    11600.00
00890              52.00    11600.00
00891              28.00    11800.00
00892             -24.00    11800.00
00893              14.00    12000.00
00894              26.00    12200.00
00895               4.00    12400.00
00896              10.00    12400.00
00897              26.00    12400.00
00898              12.00    12600.00
00899              -2.00    12600.00
00900              30.00    12800.00
00901              30.00    12800.00
00902              -4.00    13000.00
00903              10.00    13000.00
00904              30.00    13200.00
00905              10.00    13200.00
00906               4.00    13200.00
00907              30.00    13200.00
00908              28.00    13400.00
00909             -12.00    13400.00
00910               4.00    13600.00
00911              38.00    13600.00
00912              22.00    13600.00
00913               4.00    13600.00
00914              14.00    13600.00
00915              18.00    13600.00
00916              12.00    13600.00
00917              22.00    13600.00
00918              28.00    13600.00
00919               6.00    13600.00
00920               6.00    13600.00
00921              32.00    13800.00
00922              26.00    13600.00
00923               2.00    13600.00
00924              10.00    13600.00
00925              30.00    13600.00
00926              22.00    13600.00
00927               8.00    13600.00
00928              14.00    13600.00
00929              18.00    13600.00
00930              10.00    13400.00
00931              18.00    13400.00
00932              28.00    13400.00
00933              18.00    13200.00
00934              10.00    13200.00
00935              20.00    13200.00
00936              12.00    13000.00
00937               6.00    13000.00
00938              18.00    12800.00
00939              28.00    12800.00
00940              12.00    12800.00
00941               2.00    12600.00
00942              10.00    12400.00
00943              26.00    12400.00
00944              14.00    12200.00
00945              14.00    12200.00
00946              12.00    12200.00
00947              10.00    12000.00
00948              12.00    11800.00
00949              20.00    11600.00
00950              12.00    11600.00
00951               4.00    11200.00
00952              14.00    11200.00
00953              22.00    11200.00
00954              10.00    10800.00
00955               2.00    10800.00
00956              10.00    10600.00
00957              14.00    10400.00
00958              14.00    10200.00
00959              12.00    10200.00
00960              12.00    10000.00
00961               4.00     9600.00
00962               6.00     9400.00
00963              16.00     9200.00
00964              10.00     9200.00
00965               6.00     9000.00
00966              10.00     8800.00
00967              12.00     8600.00
00968               4.00     8400.00
00969               6.00     8200.00
00970              14.00     8000.00
00971              14.00     7600.00
00972               4.00     7600.00
00973               4.00     7200.00
00974               4.00     7000.00
00975               6.00     6800.00
00976              10.00     6800.00
00977              12.00     6400.00
00978               4.00     6200.00
00979               4.00     6000.00
00980               6.00     5600.00
00981               6.00     5400.00
00982               4.00     5200.00
00983               4.00     5000.00
00984              10.00     4600.00
00985               6.00     4400.00
00986               2.00     4200.00
00987              -2.00     4000.00
00988               4.00     3600.00
00989               4.00     3600.00
00990               6.00     3200.00
00991               4.00     3000.00
00992              -2.00     2800.00
00993              -2.00     2400.00
00994               6.00     2200.00
00995               4.00     2000.00
00996              -2.00     1600.00
00997               2.00     1600.00
00998               4.00     1200.00
00999               2.00      800.00
01000              -6.00      800.00
01001              -6.00      400.00
01002               2.00        0.00
01003               4.00     -200.00
01004              12.00     -400.00
01005              42.00     -600.00
01006              28.00     -800.00
01007             -22.00    -1200.00
01008             -30.00    -1200.00
01009              12.00    -1600.00
01010              34.00    -1800.00
01011              62.00    -2000.00
01012             250.00    -2200.00
01013             250.00    -2800.00
01014            -250.00    -3400.00
01015            -250.00    -3400.00
01016            -154.00    -3600.00
01017             250.00    -3400.00
01018             136.00    -3600.00
01019             182.00    -3600.00
01020              82.00    -4800.00
01021            -250.00    -4200.00
01022              70.00    -4800.00
01023             250.00    -5600.00
01024             -76.00    -4400.00
01025              92.00    -6000.00
01026            -246.00    -5800.00
01027             -28.00    -5600.00
01028             246.00    -6800.00
01029            -246.00    -6000.00
01030              44.00    -6800.00
01031              70.00    -7200.00
01032             -50.00    -6600.00
01033              62.00    -7800.00
01034            -138.00    -7200.00
01035               8.00    -8000.00
01036              22.00    -8400.00
01037              12.00    -8000.00
01038              28.00    -8800.00
01039            -146.00    -8400.00
01040              18.00    -9000.00
01041              28.00    -9200.00
01042             -18.00    -8800.00
01043             -20.00    -9800.00
01044             -68.00    -9400.00
01045              46.00    -9800.00
01046              16.00   -10000.00
01047             -66.00   -10000.00
01048             -30.00   -10600.00
01049             -12.00   -10200.00
01050               6.00   -10800.00
01051              12.00   -10800.00
01052             -28.00   -10800.00
01053             -52.00   -11200.00
01054             -50.00   -11400.00
01055              22.00   -11600.00
01056              34.00   -11400.00
01057             -50.00   -11800.00
01058             -48.00   -12000.00
01059             -22.00   -12000.00
01060              -4.00   -12000.00
01061              -6.00   -12200.00
01062             -24.00   -12200.00
01063             -12.00   -12400.00
01064             -36.00   -12600.00
01065             -18.00   -12800.00
01066               2.00   -12800.00
01067             -26.00   -12800.00
01068             -26.00   -13000.00
01069             -20.00   -13000.00
01070             -16.00   -13000.00
01071             -34.00   -13200.00
01072             -28.00   -13200.00
01073              -2.00   -13200.00
01074             -20.00   -13200.00
01075             -38.00   -13400.00
01076             -22.00   -13600.00
01077             -20.00   -13600.00
01078             -16.00   -13600.00
01079             -20.00   -13600.00
01080             -26.00   -13600.00
01081             -34.00   -13800.00
01082             -34.00   -13600.00
01083              -2.00   -13600.00
01084             -12.00   -13800.00
01085             -38.00   -13800.00
01086             -28.00   -13800.00
01087             -14.00   -13600.00
01088             -12.00   -13800.00
01089             -32.00   -13600.00
01090             -28.00   -13600.00
01091             -20.00   -13600.00
01092             -26.00   -13600.00
01093             -18.00   -13600.00
01094             -22.00   -13600.00
01095             -34.00   -13600.00
01096             -28.00   -13600.00
01097             -18.00   -13600.00
01098             -16.00   -13400.00
01099             -28.00   -13200.00
01100             -20.00   -13200.00
01101             -12.00   -13200.00
01102             -26.00   -13000.00
01103             -30.00   -13000.00
01104             -22.00   -12800.00
01105             -16.00   -12800.00
01106             -20.00   -12800.00
01107             -22.00   -12600.00
01108             -22.00   -12400.00
01109             -28.00   -12400.00
01110             -18.00   -12200.00
01111             -12.00   -12200.00
01112             -26.00   -12000.00
01113             -28.00   -12000.00
01114             -22.00   -11800.00
01115             -12.00   -11400.00
01116             -18.00   -11600.00
01117             -28.00   -11400.00
01118             -18.00   -11200.00
01119             -18.00   -10800.00
01120             -18.00   -10800.00
01121             -20.00   -10600.00
01122             -22.00   -10600.00
01123             -20.00   -10400.00
01124             -14.00   -10200.00
01125             -12.00   -10000.00
01126             -20.00    -9800.00
01127             -28.00    -9800.00
01128             -14.00    -9400.00
01129             -10.00    -9400.00
01130             -18.00    -9000.00
01131             -20.00    -9000.00
01132             -20.00    -8800.00
01133             -14.00    -8400.00
01134             -20.00    -8400.00
01135             -20.00    -8200.00
01136             -18.00    -8000.00
01137             -14.00    -7800.00
01138             -12.00    -7400.00
01139             -16.00    -7200.00
01140             -22.00    -7200.00
01141             -22.00    -6800.00
01142             -12.00    -6600.00
01143              -6.00    -6400.00
01144             -16.00    -6200.00
01145             -20.00    -6000.00
01146             -12.00    -5800.00
01147             -14.00    -5600.00
01148             -14.00    -5200.00
01149             -12.00    -5000.00
01150             -14.00    -4600.00
01151             -12.00    -4600.00
01152             -10.00    -4200.00
01153             -10.00    -4000.00
01154             -12.00    -3600.00
01155             -18.00    -3400.00
01156             -12.00    -3200.00
01157             -10.00    -2800.00
01158             -10.00    -2600.00
01159             -10.00    -2400.00
01160              -2.00    -2200.00
01161              -6.00    -2000.00
01162             -10.00    -1800.00
01163             -10.00    -1600.00
01164              -6.00    -1200.00
01165              -6.00    -1000.00
01166              -8.00     -800.00
01167              -6.00     -400.00
01168              -4.00     -200.00
01169               2.00        0.00
01170              10.00      400.00
01171              36.00      600.00
01172              26.00      800.00
01173             -20.00     1200.00
01174             -28.00     1200.00
01175              10.00     1600.00
01176              26.00     1800.00
01177              26.00     2000.00
01178              66.00     2200.00
01179             250.00     2600.00
01180             250.00     3000.00
01181            -250.00     3200.00
01182            -250.00     3200.00
01183              22.00     3600.00
01184             250.00     3800.00
01185              34.00     4000.00
01186            -250.00     4000.00
01187             250.00     4600.00
01188             170.00     4600.00
01189            -182.00     5200.00
01190              -4.00     5400.00
01191             -26.00     5400.00
01192             138.00     6000.00
01193             108.00     5600.00
01194            -180.00     6000.00
01195             -78.00     6600.00
01196              28.00     6400.00
01197             108.00     6800.00
01198             102.00     7000.00
01199            -122.00     7200.00
01200             -74.00     7600.00
01201             100.00     7600.00
01202             106.00     8200.00
01203             -92.00     8000.00
01204             -78.00     8400.00
01205             106.00     8600.00
01206              36.00     8800.00
01207             -44.00     9000.00
01208             -10.00     9200.00
01209              14.00     9600.00
01210              14.00     9600.00
01211              30.00     9600.00
01212              34.00     9800.00
01213             -12.00    10000.00
01214             -28.00    10200.00
01215              36.00    10400.00
01216              44.00    10400.00
01217             -22.00    10800.00
01218               2.00    10800.00
01219              44.00    11000.00
01220               6.00    11200.00
01221             -28.00    11400.00
01222              22.00    11600.00
01223              52.00    11800.00
01224              -4.00    11800.00
01225             -10.00    12000.00
01226              30.00    12200.00
01227              12.00    12000.00
01228              -2.00    12400.00
01229              22.00    12400.00
01230              26.00    12600.00
01231               2.00    12600.00
01232              12.00    12600.00
01233              36.00    12800.00
01234               6.00    12800.00
01235              -4.00    13000.00
01236              26.00    13200.00
01237              26.00    13200.00
01238              -2.00    13200.00
01239              14.00    13200.00
01240              42.00    13400.00
01241               6.00    13400.00
01242             -10.00    13400.00
01243              26.00    13600.00
01244              34.00    13600.00
01245              10.00    13600.00
01246               6.00    13600.00
01247              20.00    13800.00
01248              12.00    13600.00
01249              12.00    13600.00
01250              28.00    13600.00
01251              20.00    13600.00
01252               2.00    13600.00
01253              24.00    13600.00
01254              34.00    13600.00
01255              10.00    13600.00
01256               2.00    13600.00
01257              26.00    13600.00
01258              30.00    13600.00
01259               6.00    13600.00
01260              10.00    13400.00
01261              18.00    13600.00
01262              14.00    13400.00
01263              18.00    13400.00
01264              20.00    13400.00
01265              14.00    13200.00
01266               8.00    13200.00
01267              22.00    13200.00
01268              20.00    13000.00
01269               4.00    13000.00
01270               6.00    13000.00
01271              28.00    12800.00
01272              26.00    12800.00
01273               4.00    12600.00
01274               4.00    12600.00
01275              20.00    12400.00
01276              20.00    12400.00
01277              18.00    12000.00
01278              18.00    12000.00
01279               4.00    12000.00
01280               4.00    11800.00
01281              22.00    11800.00
01282              22.00    11600.00
01283               6.00    11200.00
01284               4.00    11200.00
01285              18.00    11200.00
01286              18.00    10800.00
01287              12.00    10800.00
01288              10.00    10800.00
01289              14.00    10400.00
01290              12.00    10400.00
01291              10.00    10200.00
01292              14.00    10000.00
01293              12.00     9800.00
01294               6.00     9400.00
01295              10.00     9600.00
01296              10.00     9200.00
01297               6.00     8800.00
01298              12.00     8800.00
01299              14.00     8800.00
01300               6.00     8400.00
01301               2.00     8400.00
01302               8.00     8000.00
01303              18.00     7800.00
01304              12.00     7600.00
01305              10.00     7200.00
01306               4.00     7200.00
01307               4.00     7000.00
01308              12.00     6800.00
01309              16.00     6400.00
01310               6.00     6200.00
01311              -2.00     6000.00
01312               2.00     5800.00
01313              10.00     5600.00
01314               4.00     5400.00
01315               4.00     5200.00
01316              10.00     4800.00
01317              10.00     4600.00
01318               4.00     4400.00
01319               2.00     4000.00
01320               2.00     3800.00
01321               2.00     3600.00
01322               4.00     3400.00
01323               6.00     3000.00
01324               4.00     2800.00
01325              -4.00     2800.00
01326               2.00     2200.00
01327               4.00     2200.00
01328               2.00     1800.00
01329              -2.00     1600.00
01330               2.00     1200.00
01331               4.00     1000.00
01332              -4.00      600.00
01333              -6.00      600.00
01334              -4.00      400.00
01335               2.00        0.00
01336              12.00     -200.00
01337              28.00     -400.00
01338              44.00     -800.00
01339               0.00    -1000.00
01340             -34.00    -1200.00
01341             -12.00    -1400.00
01342              24.00    -1800.00
01343              42.00    -1800.00
01344             124.00    -2000.00
01345             250.00    -2400.00
01346              40.00    -3000.00
01347            -250.00    -3200.00
01348            -250.00    -3400.00
01349             250.00    -3600.00
01350             250.00    -3600.00
01351              50.00    -3600.00
01352             250.00    -4200.00
01353            -250.00    -4800.00
01354            -250.00    -4200.00
01355             250.00    -5600.00
01356              54.00    -5000.00
01357              20.00    -5000.00
01358             -34.00    -6200.00
01359            -250.00    -5400.00
01360             250.00    -6400.00
01361             -34.00    -6200.00
01362            -174.00    -6000.00
01363             156.00    -7400.00
01364             -60.00    -6600.00
01365              46.00    -7400.00
01366             -44.00    -7800.00
01367            -100.00    -7200.00
01368              68.00    -8400.00
01369             -22.00    -8000.00
01370              58.00    -8400.00
01371             -82.00    -8800.00
01372             -84.00    -8400.00
01373              68.00    -9400.00
01374             -20.00    -9000.00
01375               0.00    -9400.00
01376             -62.00    -9600.00
01377             -12.00    -9400.00
01378              62.00   -10000.00
01379             -44.00   -10000.00
01380             -58.00   -10200.00
01381             -18.00   -10400.00
01382              -2.00   -10400.00
01383              14.00   -10800.00
01384             -10.00   -10800.00
01385             -44.00   -11200.00
01386             -54.00   -11200.00
01387             -20.00   -11400.00
01388              52.00   -11400.00
01389             -12.00   -11400.00
01390             -68.00   -12000.00
01391             -30.00   -12000.00
01392             -12.00   -12000.00
01393               2.00   -12200.00
01394             -22.00   -12200.00
01395             -20.00   -12400.00
01396             -24.00   -12400.00
01397             -36.00   -12600.00
01398               2.00   -12800.00
01399             -14.00   -12800.00
01400             -34.00   -12800.00
01401             -26.00   -13000.00
01402             -14.00   -13000.00
01403             -22.00   -13200.00
01404             -38.00   -13200.00
01405             -14.00   -13200.00
01406              -6.00   -13200.00
01407             -36.00   -13400.00
01408             -30.00   -13600.00
01409             -20.00   -13600.00
01410             -14.00   -13600.00
01411             -18.00   -13600.00
01412             -26.00   -13600.00
01413             -26.00   -13600.00
01414             -36.00   -13600.00
01415             -12.00   -13800.00
01416              -2.00   -13600.00
01417             -34.00   -13600.00
01418             -38.00   -13800.00
01419             -20.00   -13600.00
01420              -8.00   -13800.00
01421             -20.00   -13800.00
01422             -36.00   -13600.00
01423             -22.00   -13600.00
01424             -22.00   -13600.00
01425             -20.00   -13600.00
01426             -14.00   -13600.00
01427             -30.00   -13600.00
01428             -30.00   -13600.00
01429             -24.00   -13400.00
01430             -12.00   -13200.00
01431             -20.00   -13200.00
01432             -28.00   -13200.00
01433             -14.00   -13200.00
01434             -18.00   -13000.00
01435             -26.00   -13000.00
01436             -22.00   -12800.00
01437             -18.00   -12800.00
01438             -18.00   -12800.00
01439             -22.00   -12600.00
01440             -20.00   -12600.00
01441             -22.00   -12400.00
01442             -26.00   -12400.00
01443             -12.00   -12200.00
01444             -18.00   -12000.00
01445             -28.00   -12000.00
01446             -24.00   -12000.00
01447             -20.00   -11600.00
01448             -14.00   -11400.00
01449             -26.00   -11400.00
01450             -22.00   -11200.00
01451             -14.00   -11000.00
01452             -14.00   -10800.00
01453             -20.00   -10800.00
01454             -20.00   -10600.00
01455             -20.00   -10400.00
01456             -18.00   -10200.00
01457             -14.00   -10000.00
01458             -14.00   -10000.00
01459             -28.00    -9800.00
01460             -20.00    -9800.00
01461             -10.00    -9600.00
01462             -18.00    -9200.00
01463             -22.00    -9000.00
01464             -20.00    -9000.00
01465             -12.00    -8600.00
01466             -14.00    -8400.00
01467             -22.00    -8200.00
01468             -20.00    -8000.00
01469             -20.00    -8000.00
01470             -12.00    -7600.00
01471             -12.00    -7400.00
01472             -22.00    -7200.00
01473             -22.00    -7000.00
01474             -14.00    -6800.00
01475              -6.00    -6400.00
01476             -12.00    -6200.00
01477             -20.00    -6000.00
01478             -14.00    -5600.00
01479             -14.00    -5600.00
01480             -14.00    -5200.00
01481             -14.00    -5000.00
01482             -14.00    -4600.00
01483             -12.00    -4600.00
01484              -6.00    -4400.00
01485             -14.00    -4200.00
01486             -16.00    -4000.00
01487             -14.00    -3600.00
01488             -10.00    -3400.00
01489              -2.00    -3200.00
01490             -10.00    -2800.00
01491             -18.00    -2600.00
01492             -12.00    -2400.00
01493              -6.00    -2000.00
01494              -4.00    -1800.00
01495             -10.00    -1600.00
01496             -12.00    -1400.00
01497             -12.00    -1000.00
01498              -6.00     -800.00
01499              -2.00     -600.00
01500              -6.00     -400.00
01501              -6.00        0.00
01502               2.00      200.00
01503              26.00      400.00
01504              46.00      600.00
01505               4.00     1000.00
01506             -36.00     1000.00
01507             -20.00     1400.00
01508              26.00     1600.00
01509              26.00     1800.00
01510              34.00     2000.00
01511             156.00     2200.00
01512             250.00     2800.00
01513             -70.00     3000.00
01514            -250.00     3200.00
01515            -250.00     3400.00
01516             250.00     3600.00
01517             250.00     4000.00
01518            -250.00     4000.00
01519             -46.00     4400.00
01520             250.00     4600.00
01521            -102.00     4600.00
01522            -102.00     5400.00
01523               6.00     5200.00
01524              20.00     5800.00
01525             196.00     5800.00
01526             -70.00     5600.00
01527            -162.00     6600.00
01528              -4.00     6400.00
01529              54.00     6600.00
01530             146.00     7000.00
01531             -24.00     7000.00
01532            -138.00     7400.00
01533              26.00     7600.00
01534             138.00     8000.00
01535               8.00     8200.00
01536            -130.00     8400.00
01537              32.00     8600.00
01538             100.00     8600.00
01539             -34.00     8800.00
01540             -28.00     9200.00
01541               8.00     9200.00
01542              12.00     9600.00
01543              20.00     9600.00
01544              36.00     9800.00
01545              14.00    10000.00
01546             -36.00    10200.00
01547               6.00    10200.00
01548              54.00    10600.00
01549              10.00    10800.00
01550             -26.00    10800.00
01551              34.00    11000.00
01552              36.00    11200.00
01553             -20.00    11200.00
01554              -8.00    11600.00
01555              52.00    11800.00
01556              24.00    11800.00
01557             -20.00    11800.00
01558              20.00    12000.00
01559              26.00    12200.00
01560               0.00    12400.00
01561              10.00    12400.00
01562              32.00    12600.00
01563              14.00    12800.00
01564               2.00    12600.00
01565              28.00    12800.00
01566              22.00    12800.00
01567              -4.00    13000.00
01568              12.00    13000.00
01569              34.00    13200.00
01570               6.00    13200.00
01571               2.00    13200.00
01572              34.00    13200.00
01573              30.00    13400.00
01574             -10.00    13400.00
01575               4.00    13400.00
01576              38.00    13600.00
01577              20.00    13600.00
01578               6.00    13600.00
01579              18.00    13600.00
01580              18.00    13600.00
01581              10.00    13600.00
01582              22.00    13600.00
01583              28.00    13800.00
01584               6.00    13600.00
01585              10.00    13600.00
01586              30.00    13600.00
01587              22.00    13600.00
01588              -2.00    13800.00
01589              10.00    13600.00
01590              34.00    13600.00
01591              20.00    13600.00
01592               2.00    13600.00
01593              14.00    13600.00
01594              16.00    13200.00
01595              14.00    13400.00
01596              20.00    13400.00
01597              20.00    13400.00
01598              12.00    13200.00
01599              12.00    13200.00
01600              26.00    13200.00
01601              12.00    13200.00
01602               4.00    12800.00
01603              18.00    12800.00
01604              28.00    12800.00
01605              16.00    12600.00
01606               4.00    12600.00
01607              12.00    12400.00
01608              20.00    12400.00
01609              14.00    12200.00
01610              16.00    12000.00
01611              14.00    12000.00
01612               6.00    12000.00
01613              10.00    11800.00
01614              20.00    11800.00
01615              14.00    11600.00
01616               6.00    11200.00
01617              16.00    11000.00
01618              20.00    11000.00
01619               6.00    10800.00
01620               4.00    10600.00
01621              18.00    10600.00
01622              18.00    10400.00
01623              14.00    10200.00
01624              12.00    10200.00
01625              12.00    10000.00
01626               6.00     9600.00
01627              12.00     9400.00
01628              16.00     9200.00
01629              10.00     9200.00
01630               6.00     8800.00
01631              12.00     8600.00
01632              10.00     8600.00
01633               4.00     8400.00
01634               4.00     8200.00
01635              14.00     7800.00
01636              14.00     7800.00
01637              10.00     7400.00
01638               6.00     7200.00
01639               6.00     7000.00
01640               8.00     6800.00
01641              10.00     6600.00
01642              12.00     6200.00
01643               4.00     6200.00
01644               4.00     6000.00
01645               8.00     5600.00
01646               6.00     5400.00
01647               2.00     5400.00
01648               4.00     4800.00
01649              12.00     4600.00
01650               6.00     4400.00
01651               2.00     4200.00
01652              -2.00     4000.00
01653               4.00     3600.00
01654               6.00     3600.00
01655               6.00     3000.00
01656               4.00     2800.00
01657               2.00     2800.00
01658              -6.00     2400.00
01659               4.00     2200.00
01660               2.00     2000.00
01661              -4.00     1600.00
01662              -2.00     1400.00
01663               4.00     1200.00
01664               2.00      800.00
01665              -4.00      600.00
01666              -4.00      400.00
01667              -2.00      200.00
01668               4.00     -200.00
01669              16.00     -400.00
01670              42.00     -600.00
01671              26.00     -800.00
01672             -22.00    -1000.00
01673             -34.00    -1200.00
01674              14.00    -1600.00
01675              36.00    -1800.00
01676              68.00    -2000.00
01677             250.00    -2000.00
01678             250.00    -2800.00
01679            -250.00    -3200.00
01680            -250.00    -3400.00
01681            -118.00    -3600.00
01682             250.00    -3400.00
01683             124.00    -3400.00
01684             198.00    -3800.00
01685              58.00    -4600.00
01686            -250.00    -4200.00
01687             108.00    -4800.00
01688             250.00    -5600.00
01689             -78.00    -4600.00
01690              92.00    -5800.00
01691            -250.00    -5600.00
01692              -4.00    -5800.00
01693             234.00    -6800.00
01694            -250.00    -5800.00
01695              58.00    -6800.00
01696              62.00    -7000.00
01697             -42.00    -6600.00
01698              60.00    -8000.00
01699            -142.00    -7200.00
01700              16.00    -7800.00
01701              20.00    -8200.00
01702              20.00    -8000.00
01703              22.00    -9000.00
01704            -146.00    -8400.00
01705              22.00    -9000.00
01706              26.00    -9200.00
01707             -12.00    -9000.00
01708             -20.00    -9600.00
01709             -70.00    -9200.00
01710              52.00    -9800.00
01711              14.00   -10000.00
01712             -62.00   -10000.00
01713             -28.00   -10400.00
01714             -12.00   -10200.00
01715               6.00   -10800.00
01716              10.00   -10800.00
01717             -30.00   -10800.00
01718             -50.00   -11200.00
01719             -50.00   -11400.00
01720              22.00   -11400.00
01721              34.00   -11600.00
01722             -58.00   -11600.00
01723             -46.00   -12000.00
01724             -24.00   -12000.00
01725              -4.00   -12200.00
01726             -10.00   -12400.00
01727             -26.00   -12400.00
01728             -12.00   -12400.00
01729             -38.00   -12600.00
01730             -18.00   -12800.00
01731              -4.00   -12800.00
01732             -28.00   -12800.00
01733             -28.00   -13000.00
01734             -18.00   -13000.00
01735             -14.00   -13200.00
01736             -34.00   -13200.00
01737             -30.00   -13200.00
01738              -2.00   -13400.00
01739             -20.00   -13600.00
01740             -38.00   -13600.00
01741             -24.00   -13600.00
01742             -22.00   -13600.00
01743             -16.00   -13600.00
01744             -22.00   -13600.00
01745             -22.00   -13800.00
01746             -30.00   -13800.00
01747             -30.00   -13800.00
01748              -2.00   -13600.00
01749             -14.00   -13600.00
01750             -38.00   -13800.00
01751             -28.00   -13600.00
01752             -12.00   -13600.00
01753             -14.00   -13600.00
01754             -30.00   -13800.00
01755             -28.00   -13600.00
01756             -20.00   -13600.00
01757             -22.00   -13600.00
01758             -18.00   -13600.00
01759             -22.00   -13600.00
01760             -28.00   -13400.00
01761             -28.00   -13600.00
01762             -14.00   -13600.00
01763             -16.00   -13200.00
01764             -30.00   -13200.00
01765             -20.00   -13200.00
01766             -10.00   -13200.00
01767             -26.00   -13000.00
01768             -30.00   -13000.00
01769             -22.00   -12800.00
01770             -12.00   -12800.00
01771             -18.00   -12800.00
01772             -26.00   -12600.00
01773             -26.00   -12400.00
01774             -28.00   -12400.00
01775             -12.00   -12200.00
01776             -10.00   -12200.00
01777             -28.00   -12000.00
01778             -34.00   -12000.00
01779             -22.00   -12000.00
01780             -10.00   -11600.00
01781             -20.00   -11400.00
01782             -28.00   -11200.00
01783             -20.00   -11200.00
01784             -18.00   -11000.00
01785             -18.00   -10800.00
01786             -20.00   -10800.00
01787             -24.00   -10600.00
01788             -22.00   -10400.00
01789             -18.00   -10200.00
01790             -14.00   -10000.00
01791             -22.00    -9800.00
01792             -28.00    -9800.00
01793             -18.00    -9600.00
01794             -12.00    -9400.00
01795             -18.00    -9200.00
01796             -22.00    -9000.00
01797             -20.00    -8800.00
01798             -12.00    -8600.00
01799             -18.00    -8200.00
01800             -22.00    -8200.00
01801             -20.00    -8000.00
01802             -16.00    -8000.00
01803             -10.00    -7400.00
01804             -14.00    -7400.00
01805             -22.00    -7200.00
01806             -20.00    -6800.00
01807             -10.00    -6600.00
01808              -6.00    -6400.00
01809             -18.00    -6000.00
01810             -22.00    -6000.00
01811             -14.00    -5600.00
01812             -14.00    -5600.00
01813             -10.00    -5200.00
01814             -12.00    -5000.00
01815             -12.00    -4800.00
01816             -10.00    -4400.00
01817             -12.00    -4400.00
01818             -14.00    -4000.00
01819             -12.00    -3800.00
01820             -12.00    -3600.00
01821              -6.00    -3200.00
01822              -6.00    -3000.00
01823             -16.00    -2800.00
01824             -12.00    -2400.00
01825              -6.00    -2200.00
01826              -4.00    -2000.00
01827              -6.00    -1600.00
01828              -6.00    -1600.00
01829              -6.00    -1200.00
01830              -6.00    -1000.00
01831              -6.00     -800.00
01832              -6.00     -400.00
01833              -6.00        0.00
01834               2.00        0.00
01835              14.00        0.00
01836              42.00      600.00
01837              26.00      800.00
01838             -20.00     1000.00
01839             -30.00     1200.00
01840               6.00     1400.00
01841              28.00     1800.00
01842              26.00     2000.00
01843              66.00     2200.00
01844             250.00     2600.00
01845             242.00     3000.00
01846            -250.00     3200.00
01847            -250.00     3400.00
01848              58.00     3600.00
01849             250.00     3800.00
01850              -2.00     4000.00
01851            -250.00     4000.00
01852             250.00     4400.00
01853             142.00     4600.00
01854            -186.00     5200.00
01855               2.00     5200.00
01856             -26.00     5400.00
01857             146.00     6000.00
01858             100.00     5800.00
01859            -180.00     6200.00
01860             -72.00     6400.00
01861              26.00     6400.00
01862             110.00     6800.00
01863              94.00     7200.00
01864            -126.00     7600.00
01865             -66.00     7600.00
01866             102.00     7600.00
01867             102.00     8200.00
01868             -94.00     8000.00
01869             -68.00     8400.00
01870             110.00     8600.00
01871              26.00     8800.00
01872             -42.00     9000.00
01873              -6.00     9200.00
01874              14.00     9400.00
01875              12.00     9600.00
01876              30.00     9600.00
01877              32.00    10000.00
01878             -14.00    10200.00
01879             -22.00    10200.00
01880              38.00    10600.00
01881              42.00    10800.00
01882             -20.00    10800.00
01883               4.00    11000.00
01884              46.00    11000.00
01885               4.00    11200.00
01886             -28.00    11200.00
01887              28.00    11600.00
01888              48.00    11800.00
01889             -10.00    11800.00
01890              -4.00    12000.00
01891              34.00    12000.00
01892              12.00    12400.00
01893              -2.00    12400.00
01894              22.00    12400.00
01895              28.00    12600.00
01896               4.00    12600.00
01897              12.00    12600.00
01898              34.00    12800.00
01899               4.00    12800.00
01900               2.00    13000.00
01901              28.00    12800.00
01902              20.00    13200.00
01903              -2.00    13200.00
01904              18.00    13200.00
01905              42.00    13600.00
01906               6.00    13400.00
01907             -10.00    13400.00
01908              28.00    13600.00
01909              32.00    13600.00
01910              10.00    13800.00
01911              10.00    13600.00
01912              20.00    13800.00
01913              12.00    13600.00
01914              10.00    13600.00
01915              28.00    13600.00
01916              20.00    13800.00
01917               2.00    13600.00
01918              20.00    13600.00
01919              28.00    13600.00
01920               6.00    13800.00
01921              -2.00    13600.00
01922              26.00    13600.00
01923              30.00    13600.00
01924               8.00    13600.00
01925               6.00    13400.00
01926              20.00    13600.00
01927              12.00    13400.00
01928              14.00    13400.00
01929              20.00    13200.00
01930              18.00    13400.00
01931              10.00    13200.00
01932              20.00    13200.00
01933              20.00    13200.00
01934               4.00    12800.00
01935               6.00    12800.00
01936              28.00    12800.00
01937              24.00    12600.00
01938               6.00    12800.00
01939               4.00    12400.00
01940              18.00    12400.00
01941              18.00    12400.00
01942              18.00    12400.00
01943              18.00    12000.00
01944              12.00    12000.00
01945               8.00    11800.00
01946              18.00    11800.00
01947              20.00    11600.00
01948              12.00    11200.00
01949              12.00    11200.00
01950              20.00    11000.00
01951              14.00    11000.00
01952               4.00    10800.00
01953              10.00    10800.00
01954              18.00    10400.00
01955              14.00    10200.00
01956              10.00    10200.00
01957              12.00     9800.00
01958              10.00     9600.00
01959              12.00     9400.00
01960              18.00     9200.00
01961              12.00     9200.00
01962               4.00     9000.00
01963               8.00     8800.00
01964              14.00     8600.00
01965              12.00     8400.00
01966               2.00     8200.00
01967              10.00     8000.00
01968              18.00     7800.00
01969              14.00     7600.00
01970               8.00     7200.00
01971               4.00     7200.00
01972               4.00     7000.00
01973              10.00     6800.00
01974              12.00     6400.00
01975              10.00     6200.00
01976               4.00     6000.00
01977               4.00     6000.00
01978              10.00     5600.00
01979               4.00     5200.00
01980               4.00     5200.00
01981               6.00     4800.00
01982              10.00     4400.00
01983               4.00     4200.00
01984              -2.00     4000.00
01985               2.00     3800.00
01986               2.00     3600.00
01987               4.00     3200.00
01988               4.00     3000.00
01989               0.00     2800.00
01990              -2.00     2600.00
01991               2.00     2400.00
01992               2.00     2000.00
01993              -2.00     1800.00
01994              -4.00     1600.00
01995               2.00     1400.00
01996               2.00      800.00
01997              -4.00      800.00
01998              -4.00      600.00
01999              -2.00      200.00
02000               2.00        0.00
02001              10.00     -200.00
02002              28.00     -400.00
02003              44.00     -800.00
02004               0.00    -1000.00
02005             -38.00    -1200.00
02006             -12.00    -1400.00
02007              26.00    -1600.00
02008              46.00    -1800.00
02009             136.00    -2000.00
02010             250.00    -2400.00
02011               4.00    -3000.00
02012            -250.00    -3200.00
02013            -250.00    -3600.00
02014             250.00    -3600.00
02015             250.00    -3600.00
02016              58.00    -3600.00
02017             250.00    -4200.00
02018            -250.00    -4800.00
02019            -250.00    -4200.00
02020             250.00    -5600.00
02021              36.00    -4600.00
02022              28.00    -5000.00
02023             -52.00    -6200.00
02024            -250.00    -5400.00
02025             250.00    -6400.00
02026             -52.00    -6400.00
02027            -158.00    -6000.00
02028             154.00    -7400.00
02029             -60.00    -6600.00
02030              52.00    -7400.00
02031             -54.00    -7800.00
02032             -92.00    -7200.00
02033              64.00    -8400.00
02034             -18.00    -7800.00
02035              66.00    -8600.00
02036             -90.00    -8600.00
02037             -76.00    -8600.00
02038              66.00    -9400.00
02039             -20.00    -8800.00
02040               2.00    -9200.00
02041             -66.00    -9800.00
02042              -6.00    -9600.00
02043              62.00   -10000.00
02044             -46.00    -9800.00
02045             -50.00   -10400.00
02046             -18.00   -10400.00
02047              -6.00   -10400.00
02048              14.00   -10800.00
02049             -14.00   -10800.00
02050             -46.00   -11200.00
02051             -54.00   -11000.00
02052             -14.00   -11400.00
02053              52.00   -11600.00
02054             -18.00   -11600.00
02055             -68.00   -12000.00
02056             -30.00   -12000.00
02057             -12.00   -12000.00
02058               0.00   -12200.00
02059             -28.00   -12400.00
02060             -18.00   -12400.00
02061             -28.00   -12600.00
02062             -36.00   -12800.00
02063               2.00   -12800.00
02064             -16.00   -12800.00
02065             -30.00   -13000.00
02066             -22.00   -13200.00
02067             -18.00   -13000.00
02068             -24.00   -13200.00
02069             -36.00   -13200.00
02070             -12.00   -13200.00
02071              -6.00   -13400.00
02072             -36.00   -13600.00
02073             -30.00   -13400.00
02074             -18.00   -13400.00
02075             -20.00   -13600.00
02076             -16.00   -13600.00
02077             -26.00   -13600.00
02078             -26.00   -13600.00
02079             -34.00   -13600.00
02080             -18.00   -13800.00
02081              -2.00   -13800.00
02082             -28.00   -13600.00
02083             -38.00   -13600.00
02084             -22.00   -13600.00
02085              -8.00   -13600.00
02086             -22.00   -13800.00
02087             -28.00   -13600.00
02088             -16.00   -13600.00
02089             -28.00   -13600.00
02090             -22.00   -13600.00
02091             -16.00   -13600.00
02092             -26.00   -13600.00
02093             -28.00   -13600.00
02094             -26.00   -13200.00
02095             -18.00   -13400.00
02096             -22.00   -13200.00
02097             -20.00   -13200.00
02098              -8.00   -13200.00
02099             -26.00   -13000.00
02100             -36.00   -13000.00
02101             -26.00   -13000.00
02102              -8.00   -12800.00
02103             -10.00   -12600.00
02104             -28.00   -12800.00
02105             -28.00   -12800.00
02106             -28.00   -12400.00
02107             -22.00   -12400.00
02108              -6.00   -12200.00
02109             -12.00   -12000.00
02110             -30.00   -12000.00
02111             -34.00   -12000.00
02112             -18.00   -11600.00
02113             -12.00   -11600.00
02114             -22.00   -11400.00
02115             -22.00   -11200.00
02116             -18.00   -11200.00
02117             -22.00   -10800.00
02118             -20.00   -10800.00
02119             -22.00   -10600.00
02120             -18.00   -10400.00
02121             -18.00   -10400.00
02122             -18.00   -10400.00
02123             -22.00   -10000.00
02124             -28.00    -9800.00
02125             -18.00    -9600.00
02126              -4.00    -9600.00
02127             -20.00    -9200.00
02128             -30.00    -9200.00
02129             -22.00    -8800.00
02130              -6.00    -8400.00
02131             -10.00    -8600.00
02132             -20.00    -8200.00
02133             -22.00    -8200.00
02134             -22.00    -7800.00
02135             -12.00    -7800.00
02136              -6.00    -7400.00
02137             -16.00    -7200.00
02138             -26.00    -7200.00
02139             -20.00    -6800.00
02140              -6.00    -6600.00
02141              -6.00    -6400.00
02142             -18.00    -6000.00
02143             -20.00    -5800.00
02144             -12.00    -5600.00
02145             -12.00    -5400.00
02146             -12.00    -5200.00
02147             -14.00    -4800.00
02148             -10.00    -4400.00
02149             -10.00    -4400.00
02150             -10.00    -4200.00
02151              -6.00    -3800.00
02152             -12.00    -3600.00
02153             -10.00    -3200.00
02154              -6.00    -3000.00
02155             -10.00    -2800.00
02156             -10.00    -2600.00
02157              -4.00    -2400.00
02158              -6.00    -2000.00
02159              -6.00    -1800.00
02160              -8.00    -1600.00
02161              -6.00    -1400.00
02162              -4.00    -1000.00
02163              -4.00     -800.00
02164              -6.00     -400.00
02165             -10.00     -200.00
02166              -4.00     -200.00
02167               4.00      200.00
02168              28.00      400.00
02169              44.00      600.00
02170               0.00      800.00
02171             -36.00     1200.00
02172             -18.00     1400.00
02173              24.00     1800.00
02174              28.00     1800.00
02175              34.00     2200.00
02176             166.00     2400.00
02177             250.00     2800.00
02178            -100.00     3000.00
02179            -250.00     3200.00
02180            -250.00     3200.00
02181             250.00     3600.00
02182             250.00     4000.00
02183            -250.00     4000.00
02184             -14.00     4400.00
02185             250.00     4400.00
02186            -118.00     4800.00
02187             -92.00     5400.00
02188               2.00     5200.00
02189              26.00     5800.00
02190             194.00     5800.00
02191             -84.00     5600.00
02192            -156.00     6400.00
02193              -2.00     6400.00
02194              58.00     6600.00
02195             142.00     7000.00
02196             -34.00     7000.00
02197            -128.00     7600.00
02198              34.00     7400.00
02199             132.00     7800.00
02200              -2.00     8200.00
02201            -124.00     8200.00
02202              42.00     8400.00
02203              98.00     8800.00
02204             -30.00     8800.00
02205             -26.00     9200.00
02206               4.00     9400.00
02207              14.00     9600.00
02208              26.00     9600.00
02209              32.00    10000.00
02210              10.00    10000.00
02211             -30.00    10200.00
02212              12.00    10400.00
02213              54.00    10600.00
02214               4.00    10600.00
02215             -20.00    10800.00
02216              38.00    11000.00
02217              30.00    11200.00
02218             -26.00    11200.00
02219              -6.00    11600.00
02220              52.00    11800.00
02221              26.00    11800.00
02222             -18.00    12000.00
02223              18.00    12000.00
02224              20.00    12200.00
02225               2.00    12400.00
02226              16.00    12400.00
02227              34.00    12600.00
02228              10.00    12600.00
02229              -2.00    12600.00
02230              28.00    12800.00
02231              26.00    12800.00
02232              -2.00    12800.00
02233              14.00    13000.00
02234              26.00    13200.00
02235               2.00    13200.00
02236               4.00    13200.00
02237              38.00    13400.00
02238              28.00    13400.00
02239             -12.00    13400.00
02240               4.00    13600.00
02241              36.00    13600.00
02242              26.00    13600.00
02243               6.00    13600.00
02244              16.00    13600.00
02245              12.00    13600.00
02246               2.00    13600.00
02247              18.00    13600.00
02248              30.00    13600.00
02249               8.00    13600.00
02250              10.00    13600.00
02251              30.00    13600.00
02252              18.00    14000.00
02253              -4.00    13600.00
02254               6.00    13400.00
02255              28.00    13600.00
02256              14.00    13600.00
02257               4.00    13600.00
02258              18.00    13600.00
02259              18.00    13400.00
02260              20.00    13400.00
02261              28.00    13200.00
02262              36.00    13200.00
02263              20.00    13400.00
02264               8.00    13200.00
02265               8.00    13200.00
02266             -10.00    13000.00
02267             -16.00    13000.00
02268              12.00    12800.00
02269              36.00    12800.00
02270              30.00    12800.00
02271              20.00    12400.00
02272              28.00    12400.00
02273              26.00    12600.00
02274              12.00    12000.00
02275              -2.00    12000.00
02276              -8.00    12000.00
02277             -10.00    11800.00
02278              10.00    11800.00
02279              34.00    11600.00
02280              36.00    11600.00
02281              22.00    11200.00
02282              26.00    11200.00
02283              20.00    11000.00
02284               2.00    10800.00
02285              -6.00    10800.00
02286               2.00    10400.00
02287              12.00    10200.00
02288              20.00    10200.00
02289              22.00    10000.00
02290              20.00    10000.00
02291              16.00     9600.00
02292              12.00     9600.00
02293              10.00     9200.00
02294               4.00     9000.00
02295               4.00     8800.00
02296              12.00     8800.00
02297              14.00     8600.00
02298              10.00     8200.00
02299               4.00     8200.00
02300              12.00     7800.00
02301              16.00     7600.00
02302               6.00     7400.00
02303               2.00     7200.00
02304               4.00     7000.00
02305               6.00     6800.00
02306              12.00     6400.00
02307              12.00     6400.00
02308               4.00     6200.00
02309              -2.00     5800.00
02310               2.00     5600.00
02311              10.00     5400.00
02312               4.00     5200.00
02313               4.00     4800.00
02314              10.00     4600.00
02315               6.00     4400.00
02316              -2.00     4000.00
02317              -2.00     3800.00
02318               2.00     3600.00
02319               2.00     3400.00
02320               2.00     3200.00
02321               2.00     3000.00
02322              -2.00     2800.00
02323               4.00     2400.00
02324               4.00     2200.00
02325               2.00     1800.00
02326              -4.00     1600.00
02327               0.00     1400.00
02328               2.00     1000.00
02329              -4.00      800.00
02330              -8.00      600.00
02331              -6.00      400.00
02332               4.00        0.00
02333              10.00        0.00
02334              20.00     -200.00
02335              50.00     -400.00
02336              28.00     -800.00
02337             -22.00    -1200.00
02338             -38.00    -1200.00
02339               6.00    -1600.00
02340              34.00    -1800.00
02341              70.00    -2000.00
02342             250.00    -2000.00
02343             250.00    -2800.00
02344            -250.00    -3200.00
02345            -250.00    -3400.00
02346             -86.00    -3600.00
02347             250.00    -3400.00
02348             110.00    -3600.00
02349             212.00    -4000.00
02350              26.00    -4600.00
02351            -250.00    -4200.00
02352             142.00    -4800.00
02353             250.00    -5400.00
02354             -70.00    -4400.00
02355              86.00    -6000.00
02356            -250.00    -5600.00
02357              20.00    -5800.00
02358             222.00    -6800.00
02359            -250.00    -5800.00
02360              76.00    -6800.00
02361              52.00    -6800.00
02362             -38.00    -6600.00
02363              56.00    -8000.00
02364            -146.00    -7200.00
02365              22.00    -8000.00
02366              18.00    -8200.00
02367              22.00    -8000.00
02368              18.00    -8800.00
02369            -142.00    -8200.00
02370              30.00    -9000.00
02371              20.00    -9200.00
02372             -14.00    -9000.00
02373             -22.00    -9800.00
02374             -68.00    -9400.00
02375              52.00    -9800.00
02376               6.00   -10000.00
02377             -62.00   -10000.00
02378             -28.00   -10400.00
02379             -12.00   -10200.00
02380               4.00   -10600.00
02381               4.00   -10800.00
02382             -34.00   -11000.00
02383             -52.00   -11200.00
02384             -46.00   -11200.00
02385              28.00   -11600.00
02386              30.00   -11600.00
02387             -60.00   -11800.00
02388             -46.00   -12000.00
02389             -20.00   -12000.00
02390               0.00   -12200.00
02391             -12.00   -12200.00
02392             -28.00   -12400.00
02393             -12.00   -12600.00
02394             -42.00   -12600.00
02395             -14.00   -12600.00
02396               2.00   -12800.00
02397             -28.00   -13000.00
02398             -28.00   -13000.00
02399             -20.00   -13000.00
02400             -18.00   -13200.00
02401             -36.00   -13200.00
02402             -26.00   -13200.00
02403               0.00   -13400.00
02404             -22.00   -13200.00
02405             -40.00   -13600.00
02406             -26.00   -13600.00
02407             -20.00   -13600.00
02408             -14.00   -13600.00
02409             -20.00   -13600.00
02410             -20.00   -13600.00
02411             -34.00   -13600.00
02412             -34.00   -13600.00
02413               2.00   -13800.00
02414             -18.00   -13600.00
02415             -38.00   -13600.00
02416             -24.00   -13600.00
02417             -14.00   -13800.00
02418             -18.00   -13800.00
02419             -30.00   -13600.00
02420             -26.00   -13600.00
02421             -20.00   -13600.00
02422             -26.00   -13600.00
02423             -14.00   -13600.00
02424             -20.00   -13600.00
02425             -28.00   -13400.00
02426             -28.00   -13600.00
02427             -22.00   -13400.00
02428             -18.00   -13200.00
02429             -30.00   -13200.00
02430             -12.00   -13200.00
02431             -10.00   -13000.00
02432             -32.00   -13200.00
02433             -36.00   -13000.00
02434             -20.00   -12800.00
02435              -6.00   -12800.00
02436             -18.00   -12800.00
02437             -30.00   -12600.00
02438             -28.00   -12600.00
02439             -26.00   -12400.00
02440             -12.00   -12400.00
02441             -12.00   -12200.00
02442             -32.00   -12000.00
02443             -34.00   -12000.00
02444             -18.00   -11800.00
02445              -6.00   -11600.00
02446             -22.00   -11400.00
02447             -36.00   -11400.00
02448             -22.00   -11000.00
02449              -8.00   -11200.00
02450             -12.00   -10800.00
02451             -26.00   -10800.00
02452             -34.00   -10600.00
02453             -22.00   -10400.00
02454             -12.00   -10400.00
02455              -6.00   -10000.00
02456             -22.00    -9800.00
02457             -34.00    -9600.00
02458             -22.00    -9600.00
02459              -8.00    -9200.00
02460             -14.00    -9200.00
02461             -22.00    -9000.00
02462             -26.00    -8800.00
02463             -18.00    -8400.00
02464             -14.00    -8400.00
02465             -12.00    -8200.00
02466             -16.00    -8000.00
02467             -18.00    -7800.00
02468             -12.00    -7400.00
02469             -12.00    -7400.00
02470             -20.00    -7000.00
02471             -20.00    -7000.00
02472             -12.00    -6600.00
02473             -10.00    -6600.00
02474             -14.00    -6000.00
02475             -18.00    -6000.00
02476             -10.00    -5800.00
02477             -12.00    -5600.00
02478             -10.00    -5200.00
02479             -14.00    -5000.00
02480             -14.00    -4600.00
02481             -10.00    -4400.00
02482              -6.00    -4400.00
02483             -10.00    -4000.00
02484             -10.00    -3800.00
02485             -12.00    -3600.00
02486              -4.00    -3200.00
02487              -6.00    -3000.00
02488             -12.00    -2600.00
02489             -12.00    -2600.00
02490              -4.00    -2200.00
02491              -6.00    -2000.00
02492              -6.00    -1800.00
02493              -8.00    -1600.00
02494              -4.00    -1200.00
02495              -6.00     -800.00
02496              -6.00     -800.00
02497              -6.00     -400.00
02498              -6.00        0.00
02499               2.00      200.00
02500              14.00      400.00
02501              42.00      600.00
02502              26.00      800.00
02503             -22.00     1000.00
02504             -30.00     1400.00
02505              10.00     1400.00
02506              28.00     1800.00
02507              26.00     2000.00
02508              68.00     2200.00
02509             250.00     2600.00
02510             220.00     3000.00
02511            -250.00     3000.00
02512            -250.00     3200.00
02513              86.00     3400.00
02514             250.00     4000.00
02515             -38.00     4000.00
02516            -250.00     4000.00
02517             250.00     4400.00
02518             124.00     4800.00
02519            -182.00     5000.00
02520               2.00     5200.00
02521             -28.00     5400.00
02522             162.00     6000.00
02523              86.00     5600.00
02524            -188.00     6200.00
02525             -68.00     6600.00
02526              34.00     6400.00
02527             116.00     7000.00
02528              84.00     7000.00
02529            -130.00     7200.00
02530             -60.00     7400.00
02531             106.00     7600.00
02532             100.00     8400.00
02533             -94.00     8000.00
02534             -66.00     8400.00
02535             108.00     8800.00
02536              26.00     8800.00
02537             -38.00     9000.00
02538              -6.00     9000.00
02539              10.00     9600.00
02540              18.00     9400.00
02541              36.00     9600.00
02542              28.00    10000.00
02543             -20.00    10000.00
02544             -22.00    10200.00
02545              44.00    10400.00
02546              44.00    10600.00
02547             -18.00    10800.00
02548               6.00    11000.00
02549              38.00    11200.00
02550               4.00    11200.00
02551             -20.00    11400.00
02552              30.00    11400.00
02553              44.00    11800.00
02554             -12.00    11800.00
02555              -4.00    12000.00
02556              34.00    12000.00
02557              14.00    12400.00
02558               2.00    12400.00
02559              20.00    12400.00
02560              26.00    12600.00
02561               4.00    12600.00
02562              18.00    12600.00
02563              34.00    12800.00
02564               2.00    13000.00
02565               2.00    13200.00
02566              30.00    13000.00
02567              20.00    13200.00
02568              -4.00    13200.00
02569              12.00    13200.00
02570              36.00    13400.00
02571               4.00    13400.00
02572              -6.00    13600.00
02573              28.00    13600.00
02574              34.00    13600.00
02575               6.00    13600.00
02576               6.00    13600.00
02577              18.00    13800.00
02578              12.00    13800.00
02579              10.00    13600.00
02580              26.00    13600.00
02581              18.00    13600.00
02582               2.00    13600.00
02583              22.00    13600.00
02584              30.00    13600.00
02585               8.00    13800.00
02586               2.00    13600.00
02587              26.00    13600.00
02588              28.00    13600.00
02589               8.00    13600.00
02590               6.00    13600.00
02591              16.00    13400.00
02592              14.00    13400.00
02593              18.00    13400.00
02594              20.00    13200.00
02595              16.00    13400.00
02596              10.00    13200.00
02597              20.00    13200.00
02598              22.00    13200.00
02599               4.00    13000.00
02600              10.00    12800.00
02601              26.00    12800.00
02602              22.00    12600.00
02603               4.00    12600.00
02604               6.00    12600.00
02605              20.00    12400.00
02606              20.00    12400.00
02607              12.00    12200.00
02608              18.00    12000.00
02609              10.00    12000.00
02610               6.00    11800.00
02611              18.00    11800.00
02612              18.00    11600.00
02613              10.00    11400.00
02614              12.00    11200.00
02615              22.00    11000.00
02616              16.00    10800.00
02617               4.00    10800.00
02618              10.00    10400.00
02619              20.00    10400.00
02620              18.00    10400.00
02621              12.00    10200.00
02622              10.00    10000.00
02623              10.00     9600.00
02624              12.00     9600.00
02625              12.00     9400.00
02626              12.00     9200.00
02627               6.00     9000.00
02628              12.00     8800.00
02629              18.00     8600.00
02630               8.00     8400.00
02631               2.00     8200.00
02632               6.00     8000.00
02633              18.00     7800.00
02634              14.00     7600.00
02635               4.00     7200.00
02636               2.00     7200.00
02637               2.00     6800.00
02638              10.00     6800.00
02639              14.00     6400.00
02640               6.00     6200.00
02641               2.00     6000.00
02642               4.00     5800.00
02643              10.00     5400.00
02644               4.00     5400.00
02645              -4.00     5000.00
02646               2.00     4800.00
02647               6.00     4600.00
02648               6.00     4200.00
02649               2.00     3800.00
02650              -4.00     3800.00
02651              -2.00     3600.00
02652               6.00     3200.00
02653              10.00     3200.00
02654               2.00     2800.00
02655              -6.00     2600.00
02656              -2.00     2200.00
02657               4.00     2000.00
02658               2.00     1800.00
02659               0.00     1600.00
02660              -2.00     1400.00
02661               0.00     1000.00
02662              -4.00      600.00
02663              -4.00      600.00
02664              -2.00      200.00
02665               4.00        0.00
02666              10.00     -400.00
02667              30.00     -400.00
02668              44.00     -800.00
02669               2.00    -1000.00
02670             -34.00    -1000.00
02671             -10.00    -1600.00
02672              28.00    -1600.00
02673              46.00    -2000.00
02674             146.00    -2000.00
02675             250.00    -2600.00
02676             -22.00    -3200.00
02677            -250.00    -3200.00
02678            -250.00    -3600.00
02679             250.00    -3600.00
02680             250.00    -3600.00
02681              62.00    -3600.00
02682             250.00    -4200.00
02683            -250.00    -4400.00
02684            -250.00    -4400.00
02685             250.00    -5600.00
02686              20.00    -4800.00
02687              36.00    -5200.00
02688             -68.00    -6200.00
02689            -250.00    -5200.00
02690             250.00    -6400.00
02691             -74.00    -6400.00
02692            -146.00    -6200.00
02693             154.00    -7400.00
02694             -66.00    -6400.00
02695              58.00    -7400.00
02696             -62.00    -7800.00
02697             -86.00    -7200.00
02698              62.00    -8400.00
02699             -18.00    -7800.00
02700              62.00    -8600.00
02701            -100.00    -8600.00
02702             -72.00    -8400.00
02703              64.00    -9600.00
02704             -22.00    -9000.00
02705              -2.00    -9600.00
02706             -68.00    -9600.00
02707              -6.00    -9600.00
02708              58.00   -10000.00
02709             -50.00    -9800.00
02710             -50.00   -10400.00
02711             -18.00   -10400.00
02712              -4.00   -10400.00
02713              14.00   -10800.00
02714             -14.00   -10800.00
02715             -44.00   -11200.00
02716             -54.00   -11200.00
02717             -14.00   -11400.00
02718              50.00   -11600.00
02719             -22.00   -11600.00
02720             -66.00   -12000.00
02721             -28.00   -12000.00
02722             -12.00   -12000.00
02723               0.00   -12200.00
02724             -22.00   -12400.00
02725             -18.00   -12400.00
02726             -28.00   -12400.00
02727             -30.00   -12800.00
02728               4.00   -12800.00
02729             -14.00   -12800.00
02730             -34.00   -12800.00
02731             -28.00   -13000.00
02732             -18.00   -13000.00
02733             -20.00   -13200.00
02734             -30.00   -13200.00
02735             -12.00   -13200.00
02736             -12.00   -13400.00
02737             -38.00   -13200.00
02738             -28.00   -13400.00
02739             -14.00   -13400.00
02740             -18.00   -13600.00
02741             -20.00   -13800.00
02742             -26.00   -13600.00
02743             -28.00   -13600.00
02744             -30.00   -13800.00
02745             -10.00   -13600.00
02746              -4.00   -13600.00
02747             -36.00   -13600.00
02748             -36.00   -13800.00
02749             -18.00   -13600.00
02750              -6.00   -13600.00
02751             -22.00   -13600.00
02752             -36.00   -13600.00
02753             -22.00   -13600.00
02754             -22.00   -13600.00
02755             -12.00   -13600.00
02756             -14.00   -13600.00
02757             -30.00   -13600.00
02758             -36.00   -13400.00
02759             -26.00   -13400.00
02760             -10.00   -13200.00
02761             -18.00   -13200.00
02762             -28.00   -13400.00
02763             -18.00   -13200.00
02764             -22.00   -13000.00
02765             -28.00   -13000.00
02766             -22.00   -13000.00
02767             -18.00   -12800.00
02768             -14.00   -12800.00
02769             -26.00   -12600.00
02770             -28.00   -12400.00
02771             -28.00   -12400.00
02772             -20.00   -12400.00
02773             -10.00   -12200.00
02774             -22.00   -12000.00
02775             -34.00   -12000.00
02776             -28.00   -12000.00
02777             -16.00   -11800.00
02778             -12.00   -11600.00
02779             -28.00   -11400.00
02780             -28.00   -11400.00
02781             -18.00   -11000.00
02782             -14.00   -10800.00
02783             -18.00   -10800.00
02784             -22.00   -10600.00
02785             -26.00   -10400.00
02786             -20.00   -10200.00
02787             -14.00   -10000.00
02788             -14.00   -10000.00
02789             -26.00    -9800.00
02790             -22.00    -9800.00
02791             -16.00    -9200.00
02792             -14.00    -9200.00
02793             -18.00    -9000.00
02794             -22.00    -8800.00
02795             -18.00    -8600.00
02796             -16.00    -8400.00
02797             -18.00    -8200.00
02798             -14.00    -8200.00
02799             -16.00    -7800.00
02800             -12.00    -7600.00
02801             -14.00    -7200.00
02802             -20.00    -7200.00
02803             -20.00    -6800.00
02804             -12.00    -6800.00
02805              -6.00    -6400.00
02806             -10.00    -6200.00
02807             -22.00    -6000.00
02808             -14.00    -5600.00
02809             -12.00    -5600.00
02810             -12.00    -5200.00
02811             -12.00    -5000.00
02812             -14.00    -4800.00
02813             -12.00    -4400.00
02814              -6.00    -4400.00
02815             -10.00    -4000.00
02816             -10.00    -4000.00
02817             -12.00    -3600.00
02818              -8.00    -3400.00
02819              -6.00    -3200.00
02820             -12.00    -2800.00
02821             -12.00    -2600.00
02822              -6.00    -2400.00
02823              -6.00    -2000.00
02824              -6.00    -2000.00
02825              -6.00    -1600.00
02826              -4.00    -1200.00
02827              -6.00    -1200.00
02828              -6.00     -800.00
02829              -6.00     -600.00
02830              -8.00     -400.00
02831              -4.00        0.00
02832               6.00      200.00
02833              26.00      400.00
02834              42.00      600.00
02835              -2.00      800.00
02836             -36.00     1200.00
02837             -12.00     1400.00
02838              26.00     1600.00
02839              22.00     1800.00
02840              30.00     2000.00
02841             174.00     2400.00
02842             250.00     2800.00
02843            -124.00     3000.00
02844            -250.00     3000.00
02845            -250.00     3200.00
02846             250.00     3600.00
02847             250.00     4000.00
02848            -250.00     4000.00
02849              14.00     4400.00
02850             250.00     4400.00
02851            -132.00     4800.00
02852             -84.00     5200.00
02853               4.00     5200.00
02854              36.00     5800.00
02855             192.00     5800.00
02856             -92.00     5600.00
02857            -150.00     6600.00
02858               4.00     6400.00
02859              62.00     6600.00
02860             146.00     7200.00
02861             -42.00     7000.00
02862            -130.00     7600.00
02863              36.00     7600.00
02864             138.00     8000.00
02865             -10.00     8200.00
02866            -122.00     8200.00
02867              50.00     8600.00
02868              92.00     8800.00
02869             -36.00     8800.00
02870             -22.00     9200.00
02871              10.00     9200.00
02872              12.00     9400.00
02873              26.00     9600.00
02874              38.00     9800.00
02875              12.00    10000.00
02876             -36.00    10000.00
02877              14.00    10400.00
02878              56.00    10400.00
02879               4.00    10800.00
02880             -20.00    10800.00
02881              36.00    11000.00
02882              30.00    11200.00
02883             -22.00    11200.00
02884              -4.00    11200.00
02885              54.00    11600.00
02886              20.00    11800.00
02887             -20.00    11800.00
02888              20.00    12200.00
02889              26.00    12000.00
02890               0.00    12200.00
02891              12.00    12400.00
02892              30.00    12600.00
02893              12.00    12600.00
02894               2.00    12600.00
02895              30.00    12800.00
02896              22.00    12800.00
02897              -4.00    12800.00
02898              12.00    13200.00
02899              30.00    13200.00
02900               4.00    13200.00
02901               2.00    13200.00
02902              34.00    13400.00
02903              26.00    13400.00
02904             -10.00    13400.00
02905               6.00    13200.00
02906              36.00    13400.00
02907              18.00    13600.00
02908               4.00    13600.00
02909              14.00    13600.00
02910              12.00    13600.00
02911               6.00    13600.00
02912              20.00    13600.00
02913              28.00    13800.00
02914               4.00    13600.00
02915               6.00    13600.00
02916              30.00    13600.00
02917              20.00    13600.00
02918               0.00    13600.00
02919              14.00    13600.00
02920              34.00    13600.00
02921              14.00    13600.00
02922               4.00    13400.00
02923              18.00    13600.00
02924              18.00    13400.00
02925              12.00    13200.00
02926              18.00    13400.00
02927              20.00    13400.00
02928              12.00    13200.00
02929              14.00    13200.00
02930              24.00    13200.00
02931              12.00    13000.00
02932               4.00    12800.00
02933              20.00    12800.00
02934              28.00    12800.00
02935              14.00    12600.00
02936               4.00    12600.00
02937              14.00    12400.00
02938              20.00    12400.00
02939              14.00    12400.00
02940              20.00    12200.00
02941              12.00    12000.00
02942               8.00    12000.00
02943              12.00    11600.00
02944              20.00    11600.00
02945              12.00    11400.00
02946               8.00    11200.00
02947              20.00    11200.00
02948              20.00    11000.00
02949              10.00    10800.00
02950              10.00    10800.00
02951              18.00    10400.00
02952              16.00    10400.00
02953              14.00    10200.00
02954              12.00    10000.00
02955              10.00     9800.00
02956              10.00     9600.00
02957              12.00     9400.00
02958              14.00     9400.00
02959              10.00     9200.00
02960               8.00     9000.00
02961              12.00     8600.00
02962              12.00     8400.00
02963               4.00     8400.00
02964               2.00     8000.00
02965              12.00     7800.00
02966              14.00     7600.00
02967               6.00     7600.00
02968               4.00     7200.00
02969               4.00     7000.00
02970               6.00     6800.00
02971              10.00     6400.00
02972               8.00     6400.00
02973               6.00     6000.00
02974               2.00     6000.00
02975               6.00     5600.00
02976               6.00     5400.00
02977              -2.00     5200.00
02978               4.00     4800.00
02979              10.00     4600.00
02980               4.00     4400.00
02981               2.00     4200.00
02982              -2.00     3800.00
02983               2.00     3600.00
02984               6.00     3400.00
02985               6.00     3000.00
02986               4.00     2800.00
02987              -2.00     2800.00
02988               0.00     2400.00
02989               6.00     2200.00
02990               2.00     2000.00
02991              -4.00     1800.00
02992               2.00     1600.00
02993               4.00     1200.00
02994              -2.00      800.00
02995              -6.00      600.00
02996              -2.00      400.00
02997               2.00        0.00
02998              10.00     -200.00
02999              20.00     -400.00
03000              44.00     -600.00
03001              24.00     -800.00
03002             -26.00    -1000.00
03003             -28.00    -1200.00
03004              18.00    -1600.00
03005              36.00    -1800.00
03006              74.00    -2000.00
03007             250.00    -2200.00
03008             250.00    -2800.00
03009            -250.00    -3200.00
03010            -250.00    -3200.00
03011             -54.00    -3600.00
03012             250.00    -3400.00
03013             100.00    -3600.00
03014             224.00    -3800.00
03015              -4.00    -4600.00
03016            -250.00    -4200.00
03017             170.00    -4800.00
03018             250.00    -5200.00
03019             -70.00    -4400.00
03020              88.00    -6000.00
03021            -250.00    -5600.00
03022              46.00    -5800.00
03023             206.00    -6600.00
03024            -250.00    -5800.00
03025              86.00    -7000.00
03026              42.00    -7000.00
03027             -30.00    -6800.00
03028              50.00    -8000.00
03029            -148.00    -7200.00
03030              30.00    -8000.00
03031              14.00    -8200.00
03032              26.00    -8000.00
03033              10.00    -8800.00
03034            -146.00    -8400.00
03035              34.00    -9000.00
03036              18.00    -9000.00
03037             -10.00    -9000.00
03038             -26.00    -9800.00
03039             -66.00    -9200.00
03040              54.00    -9800.00
03041               2.00   -10000.00
03042             -66.00   -10000.00
03043             -28.00   -10400.00
03044             -12.00   -10400.00
03045               8.00   -10800.00
03046               4.00   -10800.00
03047             -34.00   -10800.00
03048             -52.00   -11200.00
03049             -46.00   -11200.00
03050              30.00   -11400.00
03051              28.00   -11600.00
03052             -62.00   -11600.00
03053             -46.00   -12000.00
03054             -22.00   -12000.00
03055              -2.00   -12200.00
03056             -12.00   -12400.00
03057             -22.00   -12400.00
03058             -14.00   -12600.00
03059             -40.00   -12400.00
03060             -14.00   -12600.00
03061               0.00   -12800.00
03062             -26.00   -12800.00
03063             -30.00   -13000.00
03064             -18.00   -13000.00
03065             -18.00   -13200.00
03066             -30.00   -13200.00
03067             -22.00   -13200.00
03068               2.00   -13400.00
03069             -24.00   -13400.00
03070             -38.00   -13400.00
03071             -20.00   -13600.00
03072             -20.00   -13600.00
03073             -12.00   -13600.00
03074             -20.00   -13600.00
03075             -26.00   -13600.00
03076             -32.00   -13600.00
03077             -28.00   -13800.00
03078               4.00   -13600.00
03079             -18.00   -13600.00
03080             -40.00   -13600.00
03081             -26.00   -13800.00
03082             -10.00   -13600.00
03083             -12.00   -13600.00
03084             -30.00   -13600.00
03085             -26.00   -13600.00
03086             -20.00   -13600.00
03087             -26.00   -13600.00
03088             -14.00   -13800.00
03089             -26.00   -13600.00
03090             -30.00   -13600.00
03091             -26.00   -13400.00
03092             -16.00   -13400.00
03093             -14.00   -13200.00
03094             -32.00   -13000.00
03095             -22.00   -13200.00
03096             -14.00   -13000.00
03097             -26.00   -13000.00
03098             -26.00   -13000.00
03099             -26.00   -13000.00
03100             -18.00   -12800.00
03101             -22.00   -12800.00
03102             -26.00   -12600.00
03103             -22.00   -12600.00
03104             -26.00   -12400.00
03105             -20.00   -12400.00
03106             -18.00   -12200.00
03107             -28.00   -12000.00
03108             -28.00   -12000.00
03109             -22.00   -12000.00
03110             -12.00   -11600.00
03111             -20.00   -11400.00
03112             -26.00   -11400.00
03113             -20.00   -11200.00
03114             -22.00   -11000.00
03115             -22.00   -10800.00
03116             -20.00   -10600.00
03117             -22.00   -10600.00
03118             -18.00   -10200.00
03119             -12.00   -10200.00
03120             -14.00   -10000.00
03121             -28.00    -9800.00
03122             -28.00    -9600.00
03123             -16.00    -9600.00
03124             -12.00    -9200.00
03125             -18.00    -9200.00
03126             -22.00    -9000.00
03127             -16.00    -8600.00
03128             -14.00    -8600.00
03129             -18.00    -8200.00
03130             -16.00    -8000.00
03131             -18.00    -8000.00
03132             -18.00    -7600.00
03133             -10.00    -7400.00
03134             -12.00    -7200.00
03135             -20.00    -7000.00
03136             -18.00    -6800.00
03137             -10.00    -6600.00
03138             -10.00    -6200.00
03139             -18.00    -6000.00
03140             -16.00    -6000.00
03141             -10.00    -5800.00
03142             -12.00    -5600.00
03143             -12.00    -5200.00
03144             -14.00    -5000.00
03145             -12.00    -4600.00
03146             -10.00    -4400.00
03147              -6.00    -4200.00
03148             -12.00    -4000.00
03149             -12.00    -3600.00
03150             -10.00    -3400.00
03151              -4.00    -3200.00
03152             -10.00    -3000.00
03153             -16.00    -2800.00
03154             -10.00    -2400.00
03155              -4.00    -2400.00
03156              -6.00    -2000.00
03157              -6.00    -1800.00
03158             -10.00    -1400.00
03159             -10.00    -1200.00
03160              -6.00    -1000.00
03161              -6.00     -800.00
03162              -6.00     -400.00
03163              -8.00     -200.00
03164              -2.00        0.00
03165              14.00      400.00
03166              42.00      600.00
03167              22.00      800.00
03168             -28.00     1000.00
03169             -34.00     1200.00
03170              12.00     1600.00
03171              28.00     1800.00
03172              26.00     2000.00
03173              74.00     2200.00
03174             250.00     2800.00
03175             204.00     3200.00
03176            -250.00     3000.00
03177            -250.00     3200.00
03178             118.00     3600.00
03179             250.00     4000.00
03180             -66.00     4000.00
03181            -250.00     4200.00
03182             250.00     4600.00
03183             102.00     4600.00
03184            -180.00     5000.00
03185              10.00     5400.00
03186             -28.00     5400.00
03187             162.00     6000.00
03188              74.00     5600.00
03189            -186.00     6200.00
03190             -60.00     6400.00
03191              36.00     6400.00
03192             118.00     7000.00
03193              82.00     7000.00
03194            -134.00     7400.00
03195             -54.00     7600.00
03196             116.00     7600.00
03197              94.00     8200.00
03198            -102.00     8200.00
03199             -54.00     8400.00
03200             114.00     8600.00
03201              20.00     8800.00
03202             -42.00     9200.00
03203              -4.00     9200.00
03204              12.00     9400.00
03205              16.00     9600.00
03206              36.00     9600.00
03207              28.00    10000.00
03208             -18.00    10000.00
03209             -22.00    10200.00
03210              42.00    10400.00
03211              42.00    10800.00
03212             -26.00    10800.00
03213               6.00    10800.00
03214              46.00    11000.00
03215               4.00    11200.00
03216             -22.00    11400.00
03217              30.00    11600.00
03218              44.00    11600.00
03219             -12.00    11600.00
03220              -2.00    12000.00
03221              34.00    12000.00
03222              12.00    12200.00
03223               0.00    12400.00
03224              20.00    12400.00
03225              24.00    12600.00
03226               2.00    12600.00
03227              18.00    12600.00
03228              34.00    12800.00
03229               0.00    12800.00
03230              -4.00    13000.00
03231              26.00    13200.00
03232              20.00    13200.00
03233              -2.00    13200.00
03234              18.00    13200.00
03235              36.00    13400.00
03236               2.00    13400.00
03237             -12.00    13400.00
03238              28.00    13400.00
03239              30.00    13200.00
03240               4.00    13600.00
03241               8.00    13600.00
03242              26.00    13800.00
03243              14.00    13600.00
03244              12.00    13600.00
03245              22.00    13600.00
03246              10.00    13600.00
03247               2.00    13600.00
03248              26.00    13600.00
03249              34.00    13600.00
03250               6.00    13600.00
03251              -2.00    13600.00
03252              26.00    13400.00
03253              34.00    13600.00
03254              10.00    13600.00
03255               6.00    13600.00
03256              14.00    13600.00
03257              12.00    13400.00
03258              18.00    13400.00
03259              22.00    13400.00
03260              18.00    13200.00
03261              10.00    13200.00
03262              20.00    13200.00
03263              22.00    13200.00
03264              10.00    13000.00
03265              12.00    12800.00
03266              26.00    12800.00
03267              18.00    12600.00
03268               4.00    12600.00
03269              10.00    12400.00
03270              22.00    12400.00
03271              20.00    12400.00
03272              18.00    12200.00
03273              14.00    12000.00
03274              10.00    11800.00
03275              10.00    11800.00
03276              18.00    11800.00
03277              14.00    11400.00
03278               6.00    11200.00
03279              12.00    11200.00
03280              26.00    11000.00
03281              18.00    10800.00
03282               6.00    10800.00
03283               6.00    10600.00
03284              14.00    10400.00
03285              18.00    10200.00
03286              14.00    10000.00
03287              10.00    10000.00
03288               6.00     9600.00
03289               6.00     9400.00
03290              14.00     9200.00
03291              12.00     9200.00
03292               6.00     8800.00
03293              10.00     8800.00
03294              12.00     8600.00
03295               4.00     8400.00
03296               2.00     8000.00
03297               8.00     7800.00
03298              16.00     7800.00
03299              10.00     7600.00
03300               6.00     7400.00
03301               4.00     7000.00
03302               4.00     6800.00
03303               6.00     6600.00
03304              10.00     6400.00
03305               6.00     6200.00
03306               4.00     6000.00
03307               6.00     5600.00
03308               6.00     5600.00
03309               4.00     5200.00
03310               2.00     5000.00
03311               6.00     4800.00
03312               6.00     4600.00
03313               2.00     4200.00
03314               0.00     4000.00
03315               0.00     3800.00
03316               4.00     3600.00
03317               8.00     3400.00
03318               6.00     3000.00
03319               0.00     2800.00
03320              -4.00     2400.00
03321               2.00     2400.00
03322               4.00     2000.00
03323               2.00     2000.00
03324              -4.00     1600.00
03325               2.00     1400.00
03326               2.00     1000.00
03327               0.00      800.00
03328              -2.00      400.00
03329              -2.00      400.00
03330               4.00        0.00
03331              12.00     -400.00
03332              32.00     -400.00
03333              44.00     -600.00
03334              -2.00    -1000.00
03335             -30.00    -1200.00
03336              -6.00    -1400.00
03337              30.00    -1600.00
03338              50.00    -2000.00
03339             150.00    -2000.00
03340             250.00    -2600.00
03341             -52.00    -3200.00
03342            -250.00    -3200.00
03343            -250.00    -3600.00
03344             250.00    -3400.00
03345             250.00    -3600.00
03346              68.00    -3600.00
03347             250.00    -4400.00
03348            -250.00    -4800.00
03349            -250.00    -4400.00
03350             250.00    -5600.00
03351               6.00    -4800.00
03352              42.00    -5200.00
03353             -86.00    -6000.00
03354            -236.00    -5400.00
03355             250.00    -6600.00
03356             -94.00    -6400.00
03357            -134.00    -6200.00
03358             150.00    -7400.00
03359             -68.00    -6400.00
03360              64.00    -7600.00
03361             -72.00    -7800.00
03362             -84.00    -7400.00
03363              64.00    -8400.00
03364             -18.00    -8000.00
03365              62.00    -8600.00
03366            -106.00    -8400.00
03367             -66.00    -8600.00
03368              60.00    -9400.00
03369             -22.00    -8800.00
03370               2.00    -9600.00
03371             -70.00    -9600.00
03372              -2.00    -9600.00
03373              54.00   -10000.00
03374             -48.00    -9800.00
03375             -48.00   -10400.00
03376             -18.00   -10400.00
03377              -2.00   -10400.00
03378              18.00   -10800.00
03379             -14.00   -10800.00
03380             -46.00   -11200.00
03381             -58.00   -11200.00
03382             -10.00   -11400.00
03383              50.00   -11600.00
03384             -22.00   -11600.00
03385             -66.00   -12000.00
03386             -28.00   -12000.00
03387             -12.00   -12000.00
03388               4.00   -12200.00
03389             -22.00   -12400.00
03390             -18.00   -12400.00
03391             -30.00   -12400.00
03392             -34.00   -12600.00
03393               4.00   -12800.00
03394             -14.00   -12800.00
03395             -30.00   -12800.00
03396             -26.00   -13200.00
03397             -18.00   -13000.00
03398             -26.00   -13200.00
03399             -30.00   -13200.00
03400              -8.00   -13200.00
03401             -10.00   -13200.00
03402             -38.00   -13400.00
03403             -26.00   -13400.00
03404             -18.00   -13400.00
03405             -18.00   -13600.00
03406             -18.00   -13600.00
03407             -26.00   -13600.00
03408             -28.00   -13600.00
03409             -32.00   -13600.00
03410             -10.00   -13600.00
03411              -4.00   -13800.00
03412             -36.00   -13800.00
03413             -34.00   -13800.00
03414             -18.00   -13600.00
03415              -6.00   -13600.00
03416             -22.00   -13600.00
03417             -36.00   -13600.00
03418             -22.00   -13600.00
03419             -24.00   -13600.00
03420             -18.00   -13600.00
03421             -18.00   -13600.00
03422             -34.00   -13400.00
03423             -30.00   -13400.00
03424             -22.00   -13600.00
03425             -12.00   -13400.00
03426             -26.00   -13200.00
03427             -30.00   -13200.00
03428             -18.00   -13200.00
03429             -22.00   -13200.00
03430             -28.00   -13000.00
03431             -22.00   -12800.00
03432             -20.00   -12800.00
03433             -20.00   -12600.00
03434             -22.00   -12800.00
03435             -22.00   -12800.00
03436             -28.00   -12400.00
03437             -26.00   -12200.00
03438             -14.00   -12400.00
03439             -22.00   -12000.00
03440             -30.00   -12000.00
03441             -26.00   -11800.00
03442             -18.00   -11600.00
03443             -18.00   -11600.00
03444             -30.00   -11400.00
03445             -22.00   -11200.00
03446             -14.00   -11000.00
03447             -18.00   -10800.00
03448             -20.00   -10800.00
03449             -24.00   -10600.00
03450             -22.00   -10400.00
03451             -18.00   -10400.00
03452             -12.00   -10000.00
03453             -14.00   -10000.00
03454             -28.00    -9600.00
03455             -20.00    -9600.00
03456             -12.00    -9600.00
03457             -16.00    -9200.00
03458             -20.00    -9000.00
03459             -22.00    -8800.00
03460             -14.00    -8600.00
03461             -18.00    -8400.00
03462             -18.00    -8400.00
03463             -18.00    -8000.00
03464             -18.00    -7800.00
03465             -10.00    -7400.00
03466             -12.00    -7400.00
03467             -20.00    -7200.00
03468             -18.00    -6800.00
03469             -12.00    -6600.00
03470              -8.00    -6400.00
03471             -10.00    -6400.00
03472             -20.00    -6000.00
03473             -14.00    -5800.00
03474             -12.00    -5600.00
03475             -12.00    -5400.00
03476             -12.00    -5200.00
03477             -14.00    -4800.00
03478             -10.00    -4600.00
03479              -6.00    -4400.00
03480             -12.00    -4200.00
03481             -12.00    -4000.00
03482             -12.00    -3600.00
03483             -10.00    -3400.00
03484              -6.00    -3200.00
03485             -12.00    -3000.00
03486             -12.00    -2600.00
03487             -10.00    -2200.00
03488              -6.00    -2000.00
03489              -6.00    -2000.00
03490              -6.00    -1600.00
03491              -6.00    -1400.00
03492              -6.00    -1000.00
03493              -6.00     -800.00
03494              -4.00     -400.00
03495              -6.00     -200.00
03496              -2.00        0.00
03497               4.00      200.00
03498              26.00      400.00
03499              44.00      600.00
03500              -4.00      800.00
03501             -38.00      800.00
03502             -12.00     1400.00
03503              26.00     1800.00
03504              26.00     1800.00
03505              36.00     2000.00
03506             182.00     2400.00
03507             250.00     3000.00
03508            -150.00     3200.00
03509            -250.00     3200.00
03510            -250.00     3400.00
03511             250.00     3800.00
03512             250.00     4000.00
03513            -250.00     4000.00
03514              38.00     4400.00
03515             250.00     4600.00
03516            -140.00     4800.00
03517             -76.00     5400.00
03518               2.00     5200.00
03519              44.00     5800.00
03520             188.00     6000.00
03521            -100.00     5800.00
03522            -142.00     6400.00
03523               4.00     6400.00
03524              62.00     6800.00
03525             146.00     7200.00
03526             -50.00     7200.00
03527            -126.00     7600.00
03528              46.00     7600.00
03529             136.00     8000.00
03530             -18.00     8200.00
03531            -120.00     8200.00
03532              54.00     8600.00
03533              90.00     8800.00
03534             -36.00     8800.00
03535             -22.00     9200.00
03536              10.00     9200.00
03537              14.00     9600.00
03538              26.00     9600.00
03539              36.00     9800.00
03540              12.00    10200.00
03541             -34.00    10200.00
03542              14.00    10400.00
03543              54.00    10400.00
03544               2.00    10800.00
03545             -20.00    10800.00
03546              42.00    11000.00
03547              30.00    11000.00
03548             -24.00    11400.00
03549              -4.00    11400.00
03550              52.00    11800.00
03551              18.00    11800.00
03552             -22.00    12000.00
03553              22.00    12000.00
03554              24.00    12000.00
03555              -4.00    12200.00
03556              12.00    12400.00
03557              28.00    12400.00
03558              10.00    12800.00
03559               2.00    12400.00
03560              30.00    12800.00
03561              18.00    12800.00
03562              -6.00    13000.00
03563              12.00    13000.00
03564              28.00    13200.00
03565               6.00    13200.00
03566               2.00    13200.00
03567              34.00    13200.00
03568              22.00    13400.00
03569             -12.00    13600.00
03570              10.00    13600.00
03571              38.00    13600.00
03572              18.00    13600.00
03573               2.00    13600.00
03574              14.00    13600.00
03575              14.00    13600.00
03576              10.00    13600.00
03577              24.00    13800.00
03578              30.00    13600.00
03579               4.00    13600.00
03580               6.00    13600.00
03581              28.00    13600.00
03582              20.00    13600.00
03583              -2.00    13600.00
03584              14.00    13600.00
03585              34.00    13600.00
03586              16.00    13600.00
03587               4.00    13600.00
03588              20.00    13600.00
03589              20.00    13400.00
03590              12.00    13600.00
03591              18.00    13400.00
03592              20.00    13400.00
03593              12.00    13200.00
03594              18.00    13200.00
03595              26.00    13200.00
03596              10.00    13000.00
03597               4.00    12800.00
03598              24.00    12800.00
03599              32.00    12800.00
03600              14.00    12600.00
03601               2.00    12600.00
03602              14.00    12600.00
03603              20.00    12400.00
03604              16.00    12200.00
03605              20.00    12200.00
03606              12.00    12000.00
03607               6.00    12000.00
03608              12.00    11800.00
03609              22.00    11600.00
03610              12.00    11400.00
03611               6.00    11200.00
03612              18.00    11000.00
03613              20.00    11000.00
03614               6.00    10800.00
03615               6.00    10800.00
03616              14.00    10400.00
03617              14.00    10200.00
03618              12.00    10000.00
03619              12.00    10000.00
03620               8.00     9800.00
03621               6.00     9600.00
03622              10.00     9400.00
03623              14.00     9200.00
03624              10.00     9200.00
03625               6.00     8800.00
03626              14.00     8800.00
03627              12.00     8400.00
03628               2.00     8400.00
03629               2.00     7800.00
03630              14.00     7800.00
03631              12.00     7800.00
03632               8.00     7600.00
03633               4.00     7200.00
03634               4.00     7000.00
03635               4.00     6800.00
03636              10.00     6600.00
03637              10.00     6200.00
03638               4.00     6000.00
03639               2.00     6000.00
03640               8.00     5600.00
03641               6.00     5600.00
03642               2.00     5200.00
03643               2.00     4800.00
03644              10.00     4600.00
03645               6.00     4400.00
03646               2.00     4200.00
03647              -4.00     3800.00
03648               2.00     3600.00
03649               6.00     3600.00
03650               8.00     3200.00
03651               4.00     2800.00
03652              -2.00     2800.00
03653               2.00     2400.00
03654               4.00     2200.00
03655               4.00     2000.00
03656              -2.00     1800.00
03657               2.00     1600.00
03658               4.00     1000.00
03659               2.00      800.00
03660              -6.00      600.00
03661              -4.00      400.00
03662               2.00        0.00
03663              10.00     -200.00
03664              20.00     -400.00
03665              50.00     -400.00
03666              22.00     -800.00
03667             -22.00    -1200.00
03668             -28.00    -1200.00
03669              20.00    -1600.00
03670              42.00    -1800.00
03671              76.00    -2000.00
03672             250.00    -2400.00
03673             250.00    -2800.00
03674            -250.00    -3200.00
03675            -250.00    -3400.00
03676             -22.00    -3600.00
03677             250.00    -3600.00
03678              86.00    -3600.00
03679             236.00    -4000.00
03680             -30.00    -4800.00
03681            -250.00    -4200.00
03682             194.00    -4800.00
03683             250.00    -5400.00
03684             -68.00    -4600.00
03685              82.00    -6000.00
03686            -250.00    -5800.00
03687              66.00    -5800.00
03688             188.00    -6800.00
03689            -250.00    -5800.00
03690              98.00    -7000.00
03691              34.00    -6800.00
03692             -26.00    -6800.00
03693              42.00    -8000.00
03694            -146.00    -7200.00
03695              36.00    -8000.00
03696               8.00    -8200.00
03697              28.00    -8000.00
03698              -4.00    -8800.00
03699            -142.00    -8400.00
03700              44.00    -9000.00
03701              12.00    -9200.00
03702             -12.00    -9000.00
03703             -36.00    -9800.00
03704             -60.00    -9400.00
03705              60.00   -10000.00
03706              -2.00   -10000.00
03707             -66.00   -10000.00
03708             -26.00   -10400.00
03709             -10.00   -10200.00
03710              10.00   -10800.00
03711              10.00   -10800.00
03712             -36.00   -11000.00
03713             -52.00   -11200.00
03714             -44.00   -11200.00
03715              34.00   -11600.00
03716              26.00   -11400.00
03717             -62.00   -11600.00
03718             -42.00   -12000.00
03719             -18.00   -12000.00
03720               2.00   -12000.00
03721             -12.00   -12400.00
03722             -22.00   -12400.00
03723             -12.00   -12400.00
03724             -38.00   -12600.00
03725             -12.00   -12800.00
03726              -2.00   -12600.00
03727             -28.00   -12800.00
03728             -28.00   -13000.00
03729             -18.00   -13000.00
03730             -18.00   -13000.00
03731             -36.00   -13200.00
03732             -22.00   -13200.00
03733               2.00   -13200.00
03734             -22.00   -13200.00
03735             -38.00   -13600.00
03736             -22.00   -13600.00
03737             -20.00   -13200.00
03738             -14.00   -13600.00
03739             -20.00   -13600.00
03740             -26.00   -13600.00
03741             -36.00   -13600.00
03742             -28.00   -13600.00
03743               2.00   -13800.00
03744             -20.00   -13600.00
03745             -40.00   -13600.00
03746             -28.00   -13600.00
03747             -12.00   -13800.00
03748             -14.00   -13600.00
03749             -30.00   -13600.00
03750             -26.00   -13800.00
03751             -22.00   -13600.00
03752             -26.00   -13600.00
03753             -14.00   -13600.00
03754             -24.00   -13400.00
03755             -34.00   -13600.00
03756             -28.00   -13400.00
03757             -16.00   -13200.00
03758             -18.00   -13200.00
03759             -30.00   -13200.00
03760             -20.00   -13200.00
03761             -14.00   -13200.00
03762             -28.00   -13000.00
03763             -28.00   -13000.00
03764             -22.00   -12800.00
03765             -16.00   -12800.00
03766             -22.00   -12800.00
03767             -28.00   -12600.00
03768             -26.00   -12600.00
03769             -28.00   -12400.00
03770             -16.00   -12200.00
03771             -12.00   -12200.00
03772             -28.00   -12000.00
03773             -28.00   -12000.00
03774             -24.00   -11800.00
03775             -12.00   -11600.00
03776             -20.00   -11400.00
03777             -28.00   -11400.00
03778             -20.00   -11200.00
03779             -20.00   -11000.00
03780             -20.00   -10800.00
03781             -20.00   -10600.00
03782             -22.00   -10600.00
03783             -20.00   -10400.00
03784             -14.00   -10200.00
03785             -16.00   -10000.00
03786             -22.00    -9800.00
03787             -26.00    -9600.00
03788             -14.00    -9600.00
03789             -12.00    -9200.00
03790             -18.00    -9200.00
03791             -22.00    -8800.00
03792             -18.00    -8800.00
03793             -14.00    -8400.00
03794             -18.00    -8200.00
03795             -20.00    -8200.00
03796             -18.00    -7800.00
03797             -12.00    -7600.00
03798             -10.00    -7400.00
03799             -14.00    -7200.00
03800             -20.00    -7200.00
03801             -18.00    -6800.00
03802             -12.00    -6600.00
03803              -6.00    -6400.00
03804             -14.00    -6000.00
03805             -20.00    -5800.00
03806             -12.00    -5600.00
03807             -12.00    -5400.00
03808             -12.00    -5000.00
03809             -14.00    -4800.00
03810             -14.00    -4600.00
03811             -10.00    -4400.00
03812             -12.00    -4200.00
03813             -12.00    -4000.00
03814             -12.00    -3800.00
03815             -12.00    -3600.00
03816              -6.00    -3200.00
03817             -10.00    -3000.00
03818             -14.00    -2800.00
03819             -12.00    -2400.00
03820              -6.00    -2400.00
03821             -10.00    -2000.00
03822              -8.00    -1800.00
03823              -6.00    -1600.00
03824              -6.00    -1200.00
03825              -8.00     -800.00
03826             -10.00     -800.00
03827              -6.00     -400.00
03828              -6.00     -200.00
03829               2.00        0.00
03830              14.00      400.00
03831              42.00      400.00
03832              20.00      800.00
03833             -28.00     1200.00
03834             -30.00     1200.00
03835              12.00     1600.00
03836              26.00     1600.00
03837              26.00     2000.00
03838              82.00     2400.00
03839             250.00     2800.00
03840             188.00     3000.00
03841            -250.00     3000.00
03842            -250.00     3200.00
03843             150.00     3600.00
03844             250.00     3800.00
03845             -90.00     4000.00
03846            -250.00     4200.00
03847             250.00     4600.00
03848              86.00     4600.00
03849            -174.00     5200.00
03850              12.00     5200.00
03851             -28.00     5400.00
03852             166.00     6000.00
03853              64.00     5600.00
03854            -182.00     6200.00
03855             -52.00     6600.00
03856              30.00     6400.00
03857             122.00     7000.00
03858              72.00     7000.00
03859            -136.00     7400.00
03860             -44.00     7400.00
03861             116.00     7600.00
03862              84.00     8400.00
03863            -108.00     8200.00
03864             -46.00     8400.00
03865             118.00     8600.00
03866              14.00     8800.00
03867             -38.00     9200.00
03868              -2.00     9200.00
03869              12.00     9400.00
03870              18.00     9400.00
03871              34.00     9600.00
03872              30.00    10000.00
03873             -20.00    10200.00
03874             -22.00    10200.00
03875              46.00    10400.00
03876              36.00    10800.00
03877             -26.00    10800.00
03878              12.00    10800.00
03879              44.00    11000.00
03880              -4.00    11200.00
03881             -28.00    11400.00
03882              32.00    11600.00
03883              46.00    11800.00
03884             -12.00    11800.00
03885              -2.00    12000.00
03886              30.00    12000.00
03887              10.00    12400.00
03888               0.00    12400.00
03889              24.00    12400.00
03890              22.00    12600.00
03891              -2.00    12600.00
03892              16.00    12800.00
03893              34.00    12800.00
03894               2.00    12800.00
03895               2.00    12800.00
03896              28.00    13200.00
03897              20.00    13000.00
03898              -2.00    13200.00
03899              20.00    13400.00
03900              36.00    13400.00
03901               2.00    13400.00
03902              -6.00    13600.00
03903              30.00    13600.00
03904              28.00    13600.00
03905               4.00    13600.00
03906              10.00    13600.00
03907              20.00    13600.00
03908              12.00    13600.00
03909              14.00    13600.00
03910              28.00    13600.00
03911              16.00    13600.00
03912               2.00    13600.00
03913              22.00    13600.00
03914              28.00    13600.00
03915               6.00    13600.00
03916               2.00    13600.00
03917              28.00    13600.00
03918              30.00    13600.00
03919               8.00    13600.00
03920              10.00    13400.00
03921              20.00    13400.00
03922              12.00    13400.00
03923              18.00    13400.00
03924              20.00    13200.00
03925              14.00    13200.00
03926              10.00    13200.00
03927              22.00    13200.00
03928              22.00    13200.00
03929               6.00    13000.00
03930              10.00    12800.00
03931              26.00    12800.00
03932              20.00    12800.00
03933               4.00    12600.00
03934               6.00    12400.00
03935              22.00    12400.00
03936              18.00    12400.00
03937              14.00    12000.00
03938              18.00    12200.00
03939              10.00    12000.00
03940              10.00    11800.00
03941              18.00    11600.00
03942              14.00    11400.00
03943               6.00    11600.00
03944              12.00    11200.00
03945              22.00    11000.00
03946              12.00    10800.00
03947               2.00    10800.00
03948              10.00    10400.00
03949              18.00    10400.00
03950              14.00    10200.00
03951              12.00    10000.00
03952               8.00    10000.00
03953               4.00     9600.00
03954               6.00     9400.00
03955              12.00     9400.00
03956              12.00     9200.00
03957               4.00     9000.00
03958              10.00     8800.00
03959              12.00     8600.00
03960               8.00     8200.00
03961               2.00     8200.00
03962               8.00     7800.00
03963              14.00     7600.00
03964               6.00     7600.00
03965               4.00     7200.00
03966               4.00     7000.00
03967               4.00     6800.00
03968              10.00     6600.00
03969              10.00     6400.00
03970              10.00     6200.00
03971               4.00     6000.00
03972               4.00     5600.00
03973              10.00     5600.00
03974               2.00     5200.00
03975               2.00     5200.00
03976               6.00     4600.00
03977              10.00     4600.00
03978               4.00     4400.00
03979              -2.00     4000.00
03980               0.00     3800.00
03981               4.00     3600.00
03982               6.00     3200.00
03983               4.00     3000.00
03984               0.00     2800.00
03985              -2.00     2400.00
03986               6.00     2400.00
03987               4.00     2000.00
03988               2.00     1800.00
03989               2.00     1600.00
03990               0.00     1400.00
03991               2.00     1000.00
03992              -2.00      600.00
03993              -6.00      600.00
03994              -4.00      400.00
03995               6.00        0.00
03996              12.00     -400.00
03997              34.00     -400.00
03998              42.00     -800.00
03999              -4.00    -1000.00
04000             -36.00    -1200.00
04001              -6.00    -1400.00
04002              30.00    -1800.00
04003              50.00    -2000.00
04004             154.00    -2000.00
04005             250.00    -2600.00
04006             -78.00    -3200.00
04007            -250.00    -3200.00
04008            -250.00    -3600.00
04009             250.00    -3600.00
04010             250.00    -3400.00
04011              82.00    -3600.00
04012             250.00    -4400.00
04013            -250.00    -4600.00
04014            -250.00    -4400.00
04015             250.00    -5400.00
04016              -8.00    -4800.00
04017              48.00    -5200.00
04018            -134.00    -6200.00
04019            -250.00    -5200.00
04020             250.00    -6600.00
04021             -54.00    -6400.00
04022            -108.00    -6000.00
04023              58.00    -7400.00
04024             -70.00    -6400.00
04025             106.00    -7800.00
04026            -120.00    -7800.00
04027            -138.00    -7400.00
04028              68.00    -8400.00
04029              54.00    -7800.00
04030              94.00    -8800.00
04031            -126.00    -8400.00
04032             -68.00    -8400.00
04033              66.00    -9400.00
04034             -22.00    -8800.00
04035              -6.00    -9600.00
04036             -98.00    -9600.00
04037             -20.00    -9600.00
04038              38.00   -10000.00
04039             -14.00    -9800.00
04040              -6.00   -10400.00
04041             -20.00   -10400.00
04042             -18.00   -10400.00
04043              -4.00   -10800.00
04044              -6.00   -10600.00
04045             -44.00   -11200.00
04046             -50.00   -11000.00
04047             -12.00   -11400.00
04048              42.00   -11400.00
04049             -24.00   -11600.00
04050             -58.00   -12000.00
04051             -18.00   -12000.00
04052              -6.00   -12000.00
04053               6.00   -12200.00
04054             -36.00   -12400.00
04055             -30.00   -12200.00
04056             -28.00   -12600.00
04057             -10.00   -12400.00
04058              14.00   -12800.00
04059             -26.00   -12800.00
04060             -54.00   -13000.00
04061             -28.00   -13000.00
04062               6.00   -13000.00
04063              -4.00   -13200.00
04064             -38.00   -13000.00
04065             -30.00   -13200.00
04066             -14.00   -13400.00
04067             -22.00   -13400.00
04068             -12.00   -13600.00
04069             -30.00   -13600.00
04070             -34.00   -13600.00
04071             -26.00   -13600.00
04072             -18.00   -13600.00
04073             -12.00   -13600.00
04074             -30.00   -13600.00
04075             -22.00   -13800.00
04076             -16.00   -13800.00
04077             -30.00   -13600.00
04078             -30.00   -13800.00
04079             -22.00   -13600.00
04080             -18.00   -13800.00
04081             -28.00   -13600.00
04082             -28.00   -13600.00
04083             -18.00   -13600.00
04084             -22.00   -13800.00
04085             -20.00   -13600.00
04086             -20.00   -13600.00
04087             -34.00   -13600.00
04088             -36.00   -13400.00
04089             -28.00   -13200.00
04090             -12.00   -13400.00
04091             -20.00   -13200.00
04092             -28.00   -13200.00
04093             -18.00   -13200.00
04094             -22.00   -13000.00
04095             -28.00   -12800.00
04096             -22.00   -12800.00
04097             -22.00   -12800.00
04098             -22.00   -12800.00
04099             -26.00   -12800.00
04100             -22.00   -12800.00
04101             -24.00   -12600.00
04102             -22.00   -12400.00
04103             -12.00   -12200.00
04104             -28.00   -12000.00
04105             -30.00   -12000.00
04106             -22.00   -12000.00
04107             -16.00   -11600.00
04108             -14.00   -11600.00
04109             -26.00   -11400.00
04110             -22.00   -11200.00
04111             -20.00   -11000.00
04112             -18.00   -10800.00
04113             -18.00   -10600.00
04114             -22.00   -10600.00
04115             -26.00   -10400.00
04116             -18.00   -10400.00
04117             -12.00   -10000.00
04118             -18.00   -10000.00
04119             -26.00    -9600.00
04120             -18.00    -9600.00
04121             -12.00    -9200.00
04122             -20.00    -9200.00
04123             -20.00    -9000.00
04124             -22.00    -9000.00
04125             -18.00    -8400.00
04126             -14.00    -8400.00
04127             -12.00    -8200.00
04128             -16.00    -8000.00
04129             -20.00    -7800.00
04130             -14.00    -7600.00
04131             -12.00    -7200.00
04132             -18.00    -7200.00
04133             -22.00    -6800.00
04134             -18.00    -6600.00
04135             -10.00    -6400.00
04136             -12.00    -6400.00
04137             -20.00    -6000.00
04138             -14.00    -5800.00
04139             -14.00    -5600.00
04140             -14.00    -5200.00
04141             -14.00    -5000.00
04142             -14.00    -4800.00
04143             -12.00    -4600.00
04144             -12.00    -4400.00
04145             -12.00    -4000.00
04146             -12.00    -4000.00
04147             -12.00    -3600.00
04148              -4.00    -3400.00
04149              -6.00    -3000.00
04150             -14.00    -2800.00
04151             -16.00    -2600.00
04152             -10.00    -2400.00
04153              -4.00    -2000.00
04154              -4.00    -1800.00
04155              -8.00    -1600.00
04156              -8.00    -1200.00
04157             -12.00    -1000.00
04158              -6.00     -800.00
04159              -4.00     -600.00
04160              -6.00     -200.00
04161              -6.00        0.00
04162               6.00      200.00
04163              28.00      600.00
04164              42.00      800.00
04165              -2.00     1000.00
04166             -34.00     1200.00
04167             -18.00     1400.00
04168              22.00     1600.00
04169              30.00     1800.00
04170              42.00     2000.00
04171             190.00     2400.00
04172             250.00     2800.00
04173            -172.00     3000.00
04174            -250.00     3200.00
04175            -250.00     3200.00
04176             250.00     3800.00
04177             250.00     4000.00
04178            -250.00     4200.00
04179              64.00     4400.00
04180             250.00     4600.00
04181            -148.00     4800.00
04182             -68.00     5400.00
04183              -4.00     5200.00
04184              54.00     6000.00
04185             186.00     5800.00
04186            -108.00     5800.00
04187            -138.00     6400.00
04188               4.00     6400.00
04189              68.00     6800.00
04190             146.00     7000.00
04191             -56.00     7200.00
04192            -124.00     7400.00
04193              52.00     7600.00
04194             138.00     8200.00
04195             -22.00     8200.00
04196            -120.00     8200.00
04197              60.00     8600.00
04198              84.00     8600.00
04199             -38.00     9200.00
04200             -20.00     9200.00
04201              10.00     9200.00
04202              12.00     9600.00
04203              26.00     9400.00
04204              36.00     9800.00
04205               4.00    10000.00
04206             -38.00    10000.00
04207              20.00    10200.00
04208              58.00    10600.00
04209               2.00    10600.00
04210             -22.00    10800.00
04211              38.00    11000.00
04212              26.00    11200.00
04213             -26.00    11200.00
04214               4.00    11400.00
04215              54.00    11800.00
04216              12.00    11800.00
04217             -22.00    12000.00
04218              20.00    12000.00
04219              22.00    12200.00
04220               4.00    12400.00
04221              18.00    12400.00
04222              28.00    12600.00
04223               4.00    12600.00
04224              -2.00    12400.00
04225              36.00    12800.00
04226              20.00    12800.00
04227              -4.00    12800.00
04228              14.00    13000.00
04229              24.00    13200.00
04230               2.00    13200.00
04231               6.00    13400.00
04232              40.00    13200.00
04233              24.00    13400.00
04234             -14.00    13400.00
04235              10.00    13400.00
04236              36.00    13600.00
04237              20.00    13600.00
04238               6.00    13600.00
04239              18.00    13600.00
04240              14.00    13600.00
04241              10.00    13800.00
04242              26.00    13800.00
04243              30.00    13600.00
04244               6.00    13800.00
04245              10.00    13600.00
04246              30.00    13600.00
04247              16.00    13600.00
04248              -2.00    13600.00
04249              18.00    13600.00
04250              34.00    13600.00
04251              16.00    13600.00
04252               6.00    13600.00
04253              20.00    13600.00
04254              18.00    13400.00
04255              12.00    13600.00
04256              20.00    13400.00
04257              20.00    13400.00
04258              12.00    13200.00
04259              18.00    13200.00
04260              28.00    13000.00
04261              10.00    13000.00
04262               2.00    12800.00
04263              20.00    12800.00
04264              28.00    12800.00
04265              12.00    12600.00
04266               4.00    12600.00
04267              10.00    12400.00
04268              18.00    12400.00
04269              14.00    12200.00
04270              20.00    12200.00
04271              10.00    12000.00
04272               6.00    12000.00
04273              10.00    11800.00
04274              18.00    11600.00
04275              12.00    11600.00
04276              10.00    11200.00
04277              18.00    11200.00
04278              14.00    11000.00
04279               4.00    10800.00
04280               8.00    10800.00
04281              18.00    10400.00
04282              18.00    10400.00
04283              12.00    10200.00
04284               6.00    10000.00
04285               4.00     9800.00
04286              10.00     9600.00
04287              12.00     9600.00
04288              18.00     9200.00
04289               4.00     9200.00
04290               4.00     8800.00
04291              12.00     8600.00
04292              14.00     8600.00
04293               6.00     8400.00
04294               4.00     8000.00
04295              12.00     7800.00
04296              14.00     7600.00
04297               4.00     7400.00
04298               4.00     7000.00
04299               6.00     7000.00
04300              10.00     6800.00
04301               8.00     6400.00
04302              12.00     6400.00
04303               8.00     6200.00
04304               4.00     6000.00
04305               6.00     5600.00
04306               4.00     5400.00
04307               2.00     5000.00
04308               4.00     5000.00
04309              12.00     4400.00
04310              10.00     4400.00
04311               2.00     4200.00
04312              -4.00     3800.00
04313               4.00     3600.00
04314               8.00     3400.00
04315               6.00     3200.00
04316               2.00     3000.00
04317              -4.00     2800.00
04318              -2.00     2400.00
04319               8.00     2200.00
04320               4.00     2000.00
04321              -2.00     1600.00
04322              -2.00     1400.00
04323               2.00     1200.00
04324               4.00      800.00
04325              -2.00      800.00
04326              -2.00      400.00
04327              -2.00        0.00
04328               6.00     -200.00
04329              20.00     -400.00
04330              50.00     -600.00
04331              22.00     -800.00
04332             -28.00    -1000.00
04333             -30.00    -1200.00
04334              18.00    -1600.00
04335              38.00    -1800.00
04336              78.00    -1800.00
04337             250.00    -2200.00
04338             250.00    -2800.00
04339            -250.00    -3200.00
04340            -250.00    -3400.00
04341               4.00    -3600.00
04342             250.00    -3400.00
04343              74.00    -3600.00
04344             240.00    -4000.00
04345             -58.00    -4800.00
04346            -250.00    -4200.00
04347             216.00    -5000.00
04348             244.00    -5200.00
04349             -66.00    -4400.00
04350              74.00    -6000.00
04351            -250.00    -5600.00
04352              84.00    -5800.00
04353             178.00    -6600.00
04354            -250.00    -5800.00
04355             106.00    -7200.00
04356              20.00    -6800.00
04357             -20.00    -6800.00
04358              36.00    -8000.00
04359            -144.00    -7200.00
04360              42.00    -8000.00
04361               4.00    -8200.00
04362              36.00    -8000.00
04363              -6.00    -8800.00
04364            -140.00    -8200.00
04365              44.00    -9200.00
04366              12.00    -9200.00
04367             -10.00    -9000.00
04368             -34.00    -9800.00
04369             -54.00    -9400.00
04370              60.00    -9800.00
04371              -4.00   -10000.00
04372             -62.00   -10000.00
04373             -26.00   -10600.00
04374             -12.00   -10400.00
04375              10.00   -10800.00
04376               6.00   -10800.00
04377             -34.00   -10800.00
04378             -52.00   -11200.00
04379             -42.00   -11200.00
04380              36.00   -11400.00
04381              24.00   -11600.00
04382             -60.00   -11600.00
04383             -40.00   -12000.00
04384             -22.00   -12000.00
04385               2.00   -12000.00
04386             -12.00   -12200.00
04387             -20.00   -12400.00
04388             -12.00   -12400.00
04389             -40.00   -12600.00
04390             -12.00   -12800.00
04391              -2.00   -12800.00
04392             -26.00   -12800.00
04393             -26.00   -13000.00
04394             -20.00   -13000.00
04395             -22.00   -13000.00
04396             -36.00   -13200.00
04397             -18.00   -13200.00
04398               0.00   -13400.00
04399             -28.00   -13600.00
04400             -36.00   -13600.00
04401             -20.00   -13600.00
04402             -20.00   -13600.00
04403             -18.00   -13600.00
04404             -28.00   -13600.00
04405             -26.00   -13600.00
04406             -30.00   -13600.00
04407             -26.00   -13600.00
04408              -2.00   -13800.00
04409             -26.00   -13600.00
04410             -38.00   -13800.00
04411             -22.00   -13800.00
04412             -10.00   -13600.00
04413             -16.00   -13600.00
04414             -34.00   -13600.00
04415             -28.00   -13600.00
04416             -20.00   -13600.00
04417             -24.00   -13600.00
04418             -14.00   -13600.00
04419             -26.00   -13600.00
04420             -30.00   -13600.00
04421             -26.00   -13200.00
04422             -18.00   -13400.00
04423             -14.00   -13200.00
04424             -30.00   -13200.00
04425             -20.00   -13200.00
04426             -14.00   -13000.00
04427             -30.00   -13000.00
04428             -30.00   -12800.00
04429             -20.00   -12800.00
04430              -6.00   -12800.00
04431             -22.00   -12800.00
04432             -28.00   -12600.00
04433             -22.00   -12600.00
04434             -22.00   -12400.00
04435             -18.00   -12400.00
04436             -12.00   -12000.00
04437             -24.00   -12000.00
04438             -32.00   -12000.00
04439             -24.00   -11600.00
04440              -8.00   -11600.00
04441             -18.00   -11400.00
04442             -30.00   -11200.00
04443             -20.00   -11200.00
04444             -12.00   -11000.00
04445             -12.00   -10800.00
04446             -26.00   -10600.00
04447             -28.00   -10600.00
04448             -14.00   -10400.00
04449             -12.00   -10000.00
04450             -14.00   -10000.00
04451             -22.00    -9800.00
04452             -28.00    -9600.00
04453             -18.00    -9600.00
04454              -6.00    -9200.00
04455             -12.00    -9000.00
04456             -28.00    -8800.00
04457             -26.00    -8800.00
04458             -10.00    -8400.00
04459             -12.00    -8200.00
04460             -18.00    -8000.00
04461             -20.00    -7800.00
04462             -20.00    -7600.00
04463             -12.00    -7400.00
04464             -14.00    -7200.00
04465             -18.00    -7000.00
04466             -18.00    -6800.00
04467             -18.00    -6400.00
04468             -10.00    -6400.00
04469             -14.00    -6000.00
04470             -18.00    -5800.00
04471             -18.00    -5600.00
04472             -18.00    -5400.00
04473             -14.00    -5200.00
04474             -12.00    -4800.00
04475             -10.00    -4600.00
04476              -8.00    -4400.00
04477             -14.00    -4200.00
04478             -18.00    -4000.00
04479             -18.00    -3600.00
04480             -12.00    -3400.00
04481              -2.00    -3200.00
04482             -10.00    -3000.00
04483             -14.00    -2600.00
04484             -12.00    -2600.00
04485              -8.00    -2000.00
04486              -6.00    -2000.00
04487              -6.00    -1600.00
04488             -10.00    -1400.00
04489              -6.00    -1200.00
04490              -6.00    -1000.00
04491              -6.00     -400.00
04492              -6.00     -400.00
04493              -4.00     -200.00
04494               0.00        0.00
04495              12.00      400.00
04496              44.00      600.00
04497              24.00      800.00
04498             -28.00     1000.00
04499             -34.00     1200.00
04500              12.00     1600.00
04501              30.00     1800.00
04502              30.00     2000.00
04503              88.00     2200.00
04504             250.00     2800.00
04505             166.00     3000.00
04506            -250.00     3200.00
04507            -250.00     3400.00
04508             180.00     3600.00
04509             250.00     4000.00
04510            -116.00     4000.00
04511            -250.00     4000.00
04512             250.00     4600.00
04513              70.00     4400.00
04514            -166.00     5200.00
04515              12.00     5400.00
04516             -28.00     5400.00
04517             170.00     6000.00
04518              58.00     5600.00
04519            -180.00     6200.00
04520             -44.00     6600.00
04521              30.00     6400.00
04522             126.00     7000.00
04523              66.00     7200.00
04524            -140.00     7600.00
04525             -36.00     7400.00
04526             118.00     7800.00
04527              74.00     8000.00
04528            -116.00     8200.00
04529             -38.00     8400.00
04530             118.00     8800.00
04531              10.00     8600.00
04532             -38.00     9000.00
04533              -2.00     9200.00
04534              12.00     9400.00
04535              18.00     9400.00
04536              34.00     9600.00
04537              28.00    10000.00
04538             -22.00    10200.00
04539             -18.00    10200.00
04540              50.00    10400.00
04541              34.00    10600.00
04542             -28.00    10800.00
04543              14.00    10800.00
04544              46.00    11000.00
04545              -4.00    11200.00
04546             -26.00    11200.00
04547              34.00    11600.00
04548              44.00    11800.00
04549             -14.00    11800.00
04550               4.00    12000.00
04551              34.00    12000.00
04552               4.00    12200.00
04553               2.00    12400.00
04554              26.00    12400.00
04555              26.00    12600.00
04556              -2.00    12600.00
04557              18.00    12800.00
04558              30.00    12800.00
04559               2.00    12800.00
04560               4.00    13000.00
04561              34.00    13200.00
04562              18.00    13200.00
04563              -4.00    13200.00
04564              20.00    13200.00
04565              36.00    13600.00
04566               2.00    13400.00
04567              -2.00    13400.00
04568              36.00    13600.00
04569              28.00    13600.00
04570               2.00    13600.00
04571              12.00    13600.00
04572              22.00    13800.00
04573              18.00    13600.00
04574              18.00    13600.00
04575              22.00    13600.00
04576              10.00    13800.00
04577               6.00    13600.00
04578              34.00    13600.00
04579              34.00    13600.00
04580               0.00    13800.00
04581              -2.00    13600.00
04582              34.00    13600.00
04583              34.00    13600.00
04584               6.00    13600.00
04585               4.00    13400.00
04586              18.00    13600.00
04587              20.00    13600.00
04588              26.00    13400.00
04589              20.00    13200.00
04590               4.00    13400.00
04591               4.00    13200.00
04592              28.00    13200.00
04593              30.00    13000.00
04594               4.00    12800.00
04595               2.00    12800.00
04596              22.00    12800.00
04597              22.00    12800.00
04598              12.00    12600.00
04599              10.00    12400.00
04600              18.00    12400.00
04601              12.00    12400.00
04602              18.00    12200.00
04603              20.00    12000.00
04604              10.00    11800.00
04605               4.00    11800.00
04606              18.00    11600.00
04607              14.00    11600.00
04608              10.00    11200.00
04609              12.00    11200.00
04610              22.00    11200.00
04611              10.00    10800.00
04612               4.00    10800.00
04613              12.00    10600.00
04614              18.00    10400.00
04615              14.00    10200.00
04616               8.00    10200.00
04617              10.00    10000.00
04618               8.00     9600.00
04619              10.00     9400.00
04620              18.00     9400.00
04621              12.00     9200.00
04622               4.00     9000.00
04623              10.00     8800.00
04624              12.00     8800.00
04625               6.00     8400.00
04626               4.00     8200.00
04627              12.00     8000.00
04628              12.00     7800.00
04629              10.00     7600.00
04630               6.00     7200.00
04631               4.00     7200.00
04632               6.00     6800.00
04633              12.00     6600.00
04634              12.00     6400.00
04635               4.00     6200.00
04636               2.00     6000.00
04637              10.00     5600.00
04638              12.00     5600.00
04639               2.00     5200.00
04640               2.00     5000.00
04641               8.00     4800.00
04642               6.00     4400.00
04643               4.00     4400.00
04644               2.00     4000.00
04645               2.00     3800.00
04646               2.00     3600.00
04647               4.00     3200.00
04648               6.00     3000.00
04649               4.00     2800.00
04650              -2.00     2800.00
04651               2.00     2200.00
04652               4.00     2000.00
04653              -2.00     2000.00
04654               2.00     1400.00
04655               4.00     1200.00
04656              -2.00     1000.00
04657              -6.00      800.00
04658              -6.00      600.00
04659              -2.00      200.00
04660               4.00        0.00
04661              12.00     -200.00
04662              34.00     -600.00
04663              40.00     -800.00
04664              -4.00    -1000.00
04665             -34.00    -1200.00
04666              -4.00    -1400.00
04667              28.00    -1600.00
04668              52.00    -1800.00
04669             170.00    -2200.00
04670             250.00    -2600.00
04671            -108.00    -3000.00
04672            -250.00    -3200.00
04673            -250.00    -3600.00
04674             250.00    -3600.00
04675             250.00    -3600.00
04676              84.00    -3600.00
04677             250.00    -4400.00
04678            -250.00    -4600.00
04679            -212.00    -4400.00
04680             250.00    -5600.00
04681             -14.00    -4800.00
04682              60.00    -5200.00
04683            -116.00    -6000.00
04684            -212.00    -5400.00
04685             250.00    -6600.00
04686            -126.00    -6200.00
04687            -102.00    -6400.00
04688             140.00    -7400.00
04689             -74.00    -6400.00
04690              68.00    -7600.00
04691             -86.00    -7600.00
04692             -62.00    -7600.00
04693              62.00    -8400.00
04694             -14.00    -7800.00
04695              60.00    -8400.00
04696            -116.00    -8400.00
04697             -46.00    -8400.00
04698              62.00    -9600.00
04699             -22.00    -8800.00
04700              -6.00    -9600.00
04701             -76.00    -9600.00
04702              10.00    -9600.00
04703              58.00   -10000.00
04704             -50.00    -9800.00
04705             -44.00   -10400.00
04706             -18.00   -10400.00
04707              -2.00   -10400.00
04708              18.00   -10800.00
04709             -12.00   -10800.00
04710             -46.00   -11200.00
04711             -56.00   -11200.00
04712             -10.00   -11400.00
04713              52.00   -11400.00
04714             -22.00   -11600.00
04715             -60.00   -12000.00
04716             -28.00   -12000.00
04717             -12.00   -12000.00
04718               2.00   -12200.00
04719             -22.00   -12400.00
04720             -12.00   -12400.00
04721             -28.00   -12400.00
04722             -34.00   -12600.00
04723               4.00   -12800.00
04724             -18.00   -12800.00
04725             -28.00   -13000.00
04726             -20.00   -13000.00
04727             -18.00   -13000.00
04728             -30.00   -13200.00
04729             -34.00   -13200.00
04730              -6.00   -13200.00
04731              -6.00   -13400.00
04732             -38.00   -13200.00
04733             -30.00   -13600.00
04734             -22.00   -13600.00
04735             -18.00   -13600.00
04736             -12.00   -13400.00
04737             -22.00   -13600.00
04738             -30.00   -13800.00
04739             -40.00   -13600.00
04740              -8.00   -13600.00
04741              -2.00   -13600.00
04742             -34.00   -13600.00
04743             -36.00   -13600.00
04744             -22.00   -13600.00
04745             -12.00   -13800.00
04746             -22.00   -13600.00
04747             -30.00   -13600.00
04748             -22.00   -13600.00
04749             -30.00   -13600.00
04750             -18.00   -13600.00
04751             -14.00   -13600.00
04752             -30.00   -13400.00
04753             -28.00   -13400.00
04754             -22.00   -13400.00
04755             -14.00   -13200.00
04756             -26.00   -13200.00
04757             -26.00   -13200.00
04758             -12.00   -13200.00
04759             -24.00   -13000.00
04760             -30.00   -13000.00
04761             -20.00   -12800.00
04762             -14.00   -12800.00
04763             -14.00   -12800.00
04764             -24.00   -12800.00
04765             -24.00   -12600.00
04766             -28.00   -12400.00
04767             -22.00   -12400.00
04768             -10.00   -12200.00
04769             -20.00   -12000.00
04770             -28.00   -12000.00
04771             -26.00   -11800.00
04772             -14.00   -11600.00
04773             -12.00   -11600.00
04774             -22.00   -11400.00
04775             -22.00   -11000.00
04776             -18.00   -11000.00
04777             -18.00   -10800.00
04778             -18.00   -10800.00
04779             -22.00   -10400.00
04780             -22.00   -10400.00
04781             -18.00   -10000.00
04782             -14.00   -10000.00
04783             -16.00    -9800.00
04784             -26.00    -9800.00
04785             -22.00    -9600.00
04786             -14.00    -9200.00
04787             -20.00    -9200.00
04788             -20.00    -9000.00
04789             -20.00    -8800.00
04790             -14.00    -8600.00
04791             -18.00    -8400.00
04792             -20.00    -8200.00
04793             -18.00    -8000.00
04794             -18.00    -8000.00
04795             -12.00    -7600.00
04796             -14.00    -7200.00
04797             -20.00    -7200.00
04798             -20.00    -6800.00
04799             -14.00    -6800.00
04800             -10.00    -6400.00
04801             -12.00    -6200.00
04802             -20.00    -6000.00
04803             -16.00    -5600.00
04804             -12.00    -5600.00
04805             -12.00    -5200.00
04806             -14.00    -5000.00
04807             -14.00    -4800.00
04808             -12.00    -4400.00
04809             -10.00    -4200.00
04810             -12.00    -4000.00
04811             -10.00    -4000.00
04812             -14.00    -3600.00
04813              -6.00    -3200.00
04814              -8.00    -2800.00
04815             -10.00    -2800.00
04816             -12.00    -2600.00
04817             -10.00    -2400.00
04818              -6.00    -2000.00
04819              -6.00    -1800.00
04820             -10.00    -1600.00
04821              -8.00    -1400.00
04822             -10.00    -1000.00
04823              -4.00     -800.00
04824              -6.00     -400.00
04825              -6.00     -200.00
04826              -6.00        0.00
04827              10.00      200.00
04828              32.00      400.00
04829              42.00      800.00
04830              -4.00      800.00
04831             -38.00     1200.00
04832             -12.00     1400.00
04833              26.00     1800.00
04834              28.00     2000.00
04835              38.00     2000.00
04836             202.00     2400.00
04837             250.00     3000.00
04838            -198.00     3000.00
04839            -250.00     3200.00
04840            -250.00     3600.00
04841             250.00     3800.00
04842             250.00     4000.00
04843            -250.00     4000.00
04844              86.00     4400.00
04845             250.00     4600.00
04846            -158.00     4800.00
04847             -62.00     5400.00
04848              -4.00     5200.00
04849              62.00     6000.00
04850             180.00     6000.00
04851            -116.00     5800.00
04852            -132.00     6600.00
04853               6.00     6400.00
04854              68.00     6800.00
04855             142.00     7000.00
04856             -66.00     7200.00
04857            -120.00     7600.00
04858              58.00     7400.00
04859             134.00     7800.00
04860             -30.00     8400.00
04861            -118.00     8200.00
04862              68.00     8600.00
04863              84.00     8800.00
04864             -40.00     8800.00
04865             -20.00     9200.00
04866              10.00     9200.00
04867              10.00     9600.00
04868              26.00     9400.00
04869              38.00    10000.00
04870               4.00    10000.00
04871             -36.00    10000.00
04872              18.00    10200.00
04873              52.00    10400.00
04874              -4.00    10600.00
04875             -18.00    10800.00
04876              42.00    11000.00
04877              26.00    11200.00
04878             -28.00    11200.00
04879               4.00    11600.00
04880              52.00    11800.00
04881              14.00    11800.00
04882             -18.00    12000.00
04883              28.00    12000.00
04884              22.00    12200.00
04885              -2.00    12200.00
04886              14.00    12400.00
04887              30.00    12600.00
04888              12.00    12600.00
04889               4.00    12800.00
04890              34.00    12800.00
04891              20.00    12800.00
04892              -4.00    13000.00
04893              20.00    13200.00
04894              30.00    13000.00
04895               2.00    13200.00
04896               4.00    13200.00
04897              36.00    13400.00
04898              24.00    13400.00
04899             -12.00    13600.00
04900              12.00    13600.00
04901              38.00    13600.00
04902              18.00    13600.00
04903               6.00    13600.00
04904              18.00    13800.00
04905              18.00    13600.00
04906               6.00    13600.00
04907              22.00    13600.00
04908              28.00    13600.00
04909               4.00    13600.00
04910              16.00    13800.00
04911              32.00    13600.00
04912              18.00    13600.00
04913              -4.00    13600.00
04914              18.00    13600.00
04915              36.00    13600.00
04916              16.00    13600.00
04917               4.00    13600.00
04918              14.00    13600.00
04919              14.00    13400.00
04920              14.00    13400.00
04921              20.00    13200.00
04922              18.00    13400.00
04923              10.00    13200.00
04924              16.00    13200.00
04925              26.00    13200.00
04926              10.00    12800.00
04927               4.00    12800.00
04928              18.00    12800.00
04929              26.00    12800.00
04930              10.00    12600.00
04931               4.00    12600.00
04932              14.00    12400.00
04933              20.00    12400.00
04934              14.00    12200.00
04935              18.00    12200.00
04936              10.00    12000.00
04937               6.00    12000.00
04938              14.00    11600.00
04939              18.00    11600.00
04940              10.00    11200.00
04941               4.00    11200.00
04942              18.00    11000.00
04943              20.00    11000.00
04944               6.00    10800.00
04945               6.00    10600.00
04946              18.00    10400.00
04947              14.00    10200.00
04948              10.00    10200.00
04949              12.00    10000.00
04950               8.00     9800.00
04951               8.00     9600.00
04952              10.00     9400.00
04953              14.00     9200.00
04954              10.00     9000.00
04955               8.00     8800.00
04956              14.00     8800.00
04957              10.00     8400.00
04958               4.00     8200.00
04959               4.00     8200.00
04960              14.00     8000.00
04961              14.00     7600.00
04962               8.00     7400.00
04963               4.00     7200.00
04964               4.00     7000.00
04965               4.00     6600.00
04966              12.00     6400.00
04967              14.00     6200.00
04968               6.00     6000.00
04969               2.00     6000.00
04970               4.00     5600.00
04971               6.00     5400.00
04972               6.00     5200.00
04973               4.00     4800.00
04974               6.00     4800.00
04975               4.00     4400.00
04976               2.00     4400.00
04977               0.00     4000.00
04978               4.00     3800.00
04979               6.00     3400.00
04980               4.00     3200.00
04981               4.00     3000.00
04982              -2.00     2800.00
04983              -4.00     2400.00
04984               2.00     2200.00
04985               2.00     1800.00
04986               2.00     1800.00
04987               4.00     1400.00
04988              -2.00     1200.00
04989              -4.00      800.00
04990              -4.00      600.00
04991               0.00      400.00
04992               4.00        0.00
04993               6.00     -200.00
04994              14.00     -400.00
04995              44.00     -600.00
04996              18.00     -800.00
04997             -22.00    -1200.00
04998             -26.00    -1400.00
04999              14.00    -1600.00
05000              34.00    -1800.00
