Unit:(mV)
                     CH1         CH2
Frequency              ? 300.755 kHz
00001               6.00      800.00
00002               0.00      600.00
00003              -2.00      400.00
00004               2.00        0.00
00005              12.00     -200.00
00006              26.00     -400.00
00007              50.00     -600.00
00008              18.00     -800.00
00009             -28.00    -1000.00
00010             -22.00    -1200.00
00011              20.00    -1800.00
00012              38.00    -1600.00
00013              86.00    -2000.00
00014             250.00    -2400.00
00015             218.00    -2800.00
00016            -250.00    -3200.00
00017            -250.00    -3400.00
00018              78.00    -3600.00
00019             250.00    -3400.00
00020              90.00    -3400.00
00021             250.00    -4000.00
00022            -218.00    -4800.00
00023            -250.00    -4200.00
00024             250.00    -5000.00
00025             202.00    -5000.00
00026             -66.00    -4600.00
00027              12.00    -6000.00
00028            -250.00    -5400.00
00029             170.00    -6000.00
00030             116.00    -6600.00
00031            -250.00    -5800.00
00032             108.00    -7200.00
00033             -18.00    -6600.00
00034               4.00    -7000.00
00035               2.00    -8000.00
00036            -170.00    -7200.00
00037              38.00    -8200.00
00038              -4.00    -8000.00
00039              38.00    -8200.00
00040             -52.00    -8800.00
00041            -156.00    -8200.00
00042              50.00    -9200.00
00043             -10.00    -9000.00
00044             -26.00    -9000.00
00045             -68.00    -9800.00
00046             -70.00    -9200.00
00047              48.00    -9800.00
00048             -34.00    -9800.00
00049             -84.00   -10000.00
00050             -54.00   -10400.00
00051             -38.00   -10400.00
00052              -4.00   -10800.00
00053             -20.00   -10600.00
00054             -70.00   -11000.00
00055             -90.00   -11200.00
00056             -62.00   -11200.00
00057              18.00   -11400.00
00058             -20.00   -11400.00
00059            -102.00   -11600.00
00060             -74.00   -11800.00
00061             -52.00   -12000.00
00062             -28.00   -12000.00
00063             -52.00   -12000.00
00064             -62.00   -12200.00
00065             -60.00   -12400.00
00066             -78.00   -12400.00
00067             -46.00   -12400.00
00068             -48.00   -12800.00
00069             -78.00   -12800.00
00070             -74.00   -13000.00
00071             -60.00   -13000.00
00072             -66.00   -13000.00
00073             -86.00   -13200.00
00074             -74.00   -13200.00
00075             -52.00   -13200.00
00076             -82.00   -13200.00
00077             -90.00   -13400.00
00078             -82.00   -13200.00
00079             -78.00   -13400.00
00080             -68.00   -13600.00
00081             -76.00   -13400.00
00082             -86.00   -13400.00
00083             -98.00   -13800.00
00084             -84.00   -13600.00
00085             -54.00   -13600.00
00086             -84.00   -13600.00
00087            -102.00   -13600.00
00088             -86.00   -13600.00
00089             -76.00   -13600.00
00090             -82.00   -13600.00
00091             -96.00   -13600.00
00092             -90.00   -13600.00
00093             -90.00   -13600.00
00094             -90.00   -13600.00
00095             -76.00   -13600.00
00096             -92.00   -13400.00
00097             -94.00   -13200.00
00098             -84.00   -13200.00
00099             -78.00   -13200.00
00100             -94.00   -13200.00
00101            -124.00   -13200.00
00102            -114.00   -13000.00
00103             -92.00   -13000.00
00104             -64.00   -12800.00
00105             -54.00   -12800.00
00106             -74.00   -12800.00
00107             -84.00   -12800.00
00108             -74.00   -12600.00
00109             -54.00   -12400.00
00110             -60.00   -12400.00
00111             -78.00   -12200.00
00112             -66.00   -12200.00
00113             -52.00   -12000.00
00114             -58.00   -11800.00
00115             -62.00   -11600.00
00116             -62.00   -11400.00
00117             -52.00   -11400.00
00118             -52.00   -11000.00
00119             -52.00   -11200.00
00120             -46.00   -11000.00
00121             -52.00   -10800.00
00122             -52.00   -10800.00
00123             -46.00   -10600.00
00124             -50.00   -10400.00
00125             -46.00   -10200.00
00126             -42.00   -10000.00
00127             -38.00   -10000.00
00128             -50.00    -9800.00
00129             -50.00    -9600.00
00130             -36.00    -9400.00
00131             -36.00    -9200.00
00132             -38.00    -9000.00
00133             -42.00    -9000.00
00134             -36.00    -8800.00
00135             -36.00    -8400.00
00136             -36.00    -8200.00
00137             -30.00    -8000.00
00138             -34.00    -8000.00
00139             -28.00    -7800.00
00140             -26.00    -7400.00
00141             -34.00    -7200.00
00142             -34.00    -7000.00
00143             -30.00    -6800.00
00144             -22.00    -6400.00
00145             -22.00    -6400.00
00146             -30.00    -6000.00
00147             -30.00    -5800.00
00148             -22.00    -5600.00
00149             -22.00    -5400.00
00150             -22.00    -5200.00
00151             -26.00    -4800.00
00152             -26.00    -4600.00
00153             -20.00    -4400.00
00154             -20.00    -4200.00
00155             -20.00    -4000.00
00156             -20.00    -3600.00
00157             -18.00    -3400.00
00158             -10.00    -3200.00
00159             -18.00    -3200.00
00160             -20.00    -2600.00
00161             -14.00    -2400.00
00162             -12.00    -2200.00
00163             -12.00    -2000.00
00164             -10.00    -1600.00
00165             -10.00    -1400.00
00166             -10.00    -1200.00
00167             -10.00     -800.00
00168              -6.00     -800.00
00169             -10.00     -400.00
00170              -6.00     -200.00
00171               2.00        0.00
00172              18.00      400.00
00173              44.00      600.00
00174              18.00      800.00
00175             -28.00     1200.00
00176             -28.00     1200.00
00177              18.00     1600.00
00178              30.00     1800.00
00179              30.00     2000.00
00180             106.00     2200.00
00181             250.00     2800.00
00182             114.00     3000.00
00183            -250.00     3200.00
00184            -250.00     3200.00
00185             250.00     3600.00
00186             250.00     3800.00
00187            -184.00     4000.00
00188            -188.00     4200.00
00189             250.00     4400.00
00190             -28.00     4600.00
00191            -106.00     5200.00
00192              52.00     5200.00
00193             -18.00     5600.00
00194             170.00     6000.00
00195              14.00     5600.00
00196            -140.00     6400.00
00197             -12.00     6400.00
00198              24.00     6400.00
00199             150.00     7000.00
00200              54.00     7000.00
00201            -126.00     7400.00
00202               4.00     7400.00
00203             132.00     7800.00
00204              52.00     8200.00
00205             -86.00     8000.00
00206              10.00     8400.00
00207             106.00     8800.00
00208               2.00     8800.00
00209               2.00     8800.00
00210              22.00     9200.00
00211              20.00     9400.00
00212              36.00     9400.00
00213              60.00     9600.00
00214              54.00    10000.00
00215              -6.00    10200.00
00216               6.00    10200.00
00217              76.00    10400.00
00218              52.00    10400.00
00219              -2.00    10800.00
00220              54.00    10800.00
00221              66.00    11000.00
00222              12.00    11200.00
00223              14.00    11200.00
00224              78.00    11600.00
00225              66.00    11600.00
00226              12.00    11600.00
00227              44.00    12000.00
00228              68.00    12000.00
00229              42.00    12200.00
00230              42.00    12200.00
00231              68.00    12400.00
00232              58.00    12400.00
00233              40.00    12400.00
00234              68.00    12600.00
00235              78.00    12800.00
00236              42.00    12800.00
00237              52.00    12800.00
00238              78.00    13000.00
00239              62.00    13200.00
00240              48.00    13000.00
00241              78.00    13200.00
00242              86.00    13200.00
00243              50.00    13200.00
00244              54.00    13400.00
00245              90.00    13400.00
00246              82.00    13400.00
00247              66.00    13600.00
00248              74.00    13600.00
00249              78.00    13600.00
00250              68.00    13600.00
00251              76.00    13600.00
00252              94.00    13600.00
00253              74.00    13600.00
00254              66.00    13400.00
00255              90.00    13600.00
00256              90.00    13600.00
00257              68.00    13600.00
00258              74.00    13600.00
00259              98.00    13400.00
00260              90.00    13600.00
00261              68.00    13600.00
00262              80.00    13400.00
00263              82.00    13400.00
00264              74.00    13400.00
00265              82.00    13200.00
00266              98.00    13200.00
00267             100.00    13200.00
00268             108.00    13000.00
00269             106.00    13200.00
00270              58.00    13000.00
00271              34.00    12800.00
00272              68.00    12600.00
00273              98.00    12800.00
00274              66.00    12600.00
00275              32.00    12400.00
00276              42.00    12400.00
00277              70.00    12400.00
00278              70.00    12000.00
00279              54.00    12000.00
00280              40.00    12000.00
00281              38.00    11800.00
00282              58.00    11800.00
00283              66.00    11600.00
00284              42.00    11200.00
00285              22.00    11200.00
00286              38.00    11200.00
00287              60.00    11000.00
00288              50.00    10800.00
00289              30.00    10600.00
00290              26.00    10400.00
00291              42.00    10200.00
00292              50.00    10200.00
00293              44.00    10000.00
00294              30.00     9800.00
00295              18.00     9600.00
00296              26.00     9400.00
00297              42.00     9400.00
00298              38.00     9200.00
00299              26.00     9000.00
00300              26.00     8600.00
00301              30.00     8600.00
00302              28.00     8400.00
00303              26.00     8200.00
00304              26.00     8000.00
00305              28.00     7800.00
00306              26.00     7400.00
00307              22.00     7200.00
00308              14.00     7000.00
00309              14.00     6800.00
00310              26.00     6600.00
00311              34.00     6400.00
00312              26.00     6000.00
00313              14.00     6000.00
00314              10.00     5600.00
00315              10.00     5400.00
00316              14.00     5400.00
00317              18.00     5000.00
00318              20.00     4600.00
00319              12.00     4400.00
00320              16.00     4200.00
00321              16.00     4000.00
00322               6.00     3600.00
00323               4.00     3600.00
00324               6.00     3200.00
00325              12.00     2800.00
00326              10.00     2600.00
00327              10.00     2600.00
00328              10.00     2200.00
00329               6.00     2000.00
00330               2.00     1600.00
00331               4.00     1600.00
00332               4.00     1400.00
00333               4.00      800.00
00334               2.00      800.00
00335               0.00      400.00
00336              -4.00        0.00
00337               4.00        0.00
00338              18.00     -200.00
00339              36.00     -400.00
00340              36.00     -800.00
00341             -12.00    -1000.00
00342             -36.00    -1200.00
00343               2.00    -1600.00
00344              30.00    -1800.00
00345              54.00    -1800.00
00346             186.00    -2000.00
00347             250.00    -2600.00
00348            -178.00    -3200.00
00349            -250.00    -3400.00
00350            -250.00    -3600.00
00351             250.00    -3600.00
00352             250.00    -3600.00
00353             142.00    -3600.00
00354             182.00    -4400.00
00355            -250.00    -4400.00
00356            -106.00    -4400.00
00357             250.00    -5600.00
00358             -52.00    -4800.00
00359              44.00    -5200.00
00360            -190.00    -6000.00
00361            -150.00    -5400.00
00362             250.00    -6600.00
00363            -196.00    -6000.00
00364             -78.00    -6400.00
00365             110.00    -7200.00
00366             -70.00    -6400.00
00367              70.00    -7600.00
00368            -134.00    -7400.00
00369             -62.00    -7400.00
00370              42.00    -8400.00
00371             -10.00    -7600.00
00372              38.00    -8400.00
00373            -160.00    -8400.00
00374             -44.00    -8600.00
00375              50.00    -9200.00
00376             -36.00    -8800.00
00377             -28.00    -9600.00
00378            -102.00    -9400.00
00379               2.00    -9600.00
00380              26.00   -10000.00
00381             -76.00    -9800.00
00382             -66.00   -10400.00
00383             -46.00   -10200.00
00384             -20.00   -10400.00
00385               2.00   -10800.00
00386             -46.00   -10600.00
00387             -90.00   -11200.00
00388             -86.00   -11200.00
00389             -14.00   -11400.00
00390              26.00   -11400.00
00391             -70.00   -11600.00
00392             -98.00   -11600.00
00393             -62.00   -11800.00
00394             -42.00   -12000.00
00395             -28.00   -12200.00
00396             -62.00   -12200.00
00397             -60.00   -12200.00
00398             -76.00   -12400.00
00399             -64.00   -12400.00
00400             -34.00   -12400.00
00401             -68.00   -12600.00
00402             -82.00   -12800.00
00403             -68.00   -13000.00
00404             -60.00   -13000.00
00405             -72.00   -13000.00
00406             -84.00   -13000.00
00407             -60.00   -13200.00
00408             -66.00   -13200.00
00409             -90.00   -13200.00
00410             -84.00   -13200.00
00411             -82.00   -13400.00
00412             -74.00   -13400.00
00413             -70.00   -13600.00
00414             -82.00   -13400.00
00415             -90.00   -13600.00
00416             -98.00   -13600.00
00417             -68.00   -13600.00
00418             -66.00   -13600.00
00419             -94.00   -13400.00
00420             -92.00   -13600.00
00421             -82.00   -13600.00
00422             -76.00   -13600.00
00423             -92.00   -13600.00
00424             -94.00   -13600.00
00425             -84.00   -13400.00
00426             -86.00   -13400.00
00427             -82.00   -13600.00
00428             -84.00   -13200.00
00429             -96.00   -13400.00
00430             -90.00   -13200.00
00431             -84.00   -13200.00
00432             -78.00   -13200.00
00433            -110.00   -13200.00
00434            -124.00   -13000.00
00435            -102.00   -13000.00
00436             -76.00   -12800.00
00437             -54.00   -12800.00
00438             -66.00   -12800.00
00439             -86.00   -12800.00
00440             -76.00   -12800.00
00441             -62.00   -12600.00
00442             -52.00   -12400.00
00443             -66.00   -12400.00
00444             -76.00   -12200.00
00445             -58.00   -12400.00
00446             -54.00   -11800.00
00447             -60.00   -12000.00
00448             -62.00   -11600.00
00449             -58.00   -11400.00
00450             -52.00   -11400.00
00451             -54.00   -11200.00
00452             -52.00   -11000.00
00453             -50.00   -10800.00
00454             -50.00   -10800.00
00455             -46.00   -10800.00
00456             -46.00   -10400.00
00457             -46.00   -10400.00
00458             -46.00   -10000.00
00459             -44.00   -10000.00
00460             -44.00    -9800.00
00461             -46.00    -9600.00
00462             -38.00    -9400.00
00463             -34.00    -9200.00
00464             -42.00    -9000.00
00465             -44.00    -8800.00
00466             -44.00    -8800.00
00467             -30.00    -8400.00
00468             -32.00    -8200.00
00469             -42.00    -8000.00
00470             -36.00    -8000.00
00471             -36.00    -7600.00
00472             -28.00    -7400.00
00473             -22.00    -7400.00
00474             -36.00    -7200.00
00475             -38.00    -7000.00
00476             -28.00    -6600.00
00477             -18.00    -6400.00
00478             -24.00    -6000.00
00479             -34.00    -5800.00
00480             -30.00    -5600.00
00481             -26.00    -5600.00
00482             -18.00    -5200.00
00483             -20.00    -4800.00
00484             -26.00    -4600.00
00485             -22.00    -4400.00
00486             -18.00    -4200.00
00487             -18.00    -4000.00
00488             -14.00    -3800.00
00489             -20.00    -3600.00
00490             -18.00    -3200.00
00491             -14.00    -3200.00
00492             -16.00    -2800.00
00493             -12.00    -2600.00
00494             -12.00    -2400.00
00495             -12.00    -2000.00
00496             -10.00    -1800.00
00497             -12.00    -1600.00
00498             -10.00    -1200.00
00499              -8.00    -1000.00
00500             -10.00     -800.00
00501             -12.00     -400.00
00502             -10.00     -200.00
00503              -2.00        0.00
00504              10.00      400.00
00505              34.00      600.00
00506              38.00      600.00
00507             -12.00     1000.00
00508             -34.00     1200.00
00509              -4.00     1400.00
00510              30.00     1800.00
00511              28.00     1800.00
00512              44.00     2200.00
00513             234.00     2400.00
00514             250.00     2800.00
00515            -250.00     3200.00
00516            -250.00     3200.00
00517            -180.00     3400.00
00518             250.00     3800.00
00519             226.00     4000.00
00520            -250.00     4000.00
00521             170.00     4400.00
00522             226.00     4600.00
00523            -160.00     5000.00
00524              14.00     5200.00
00525              -6.00     5400.00
00526              72.00     6000.00
00527             154.00     5600.00
00528            -118.00     6000.00
00529             -76.00     6400.00
00530               8.00     6400.00
00531              76.00     6800.00
00532             156.00     7000.00
00533             -76.00     7000.00
00534             -88.00     7200.00
00535              84.00     7600.00
00536             122.00     8000.00
00537             -36.00     8200.00
00538             -64.00     8200.00
00539              90.00     8600.00
00540              58.00     8600.00
00541             -16.00     8800.00
00542              18.00     9000.00
00543              26.00     9200.00
00544              26.00     9600.00
00545              46.00     9400.00
00546              60.00     9800.00
00547              26.00    10000.00
00548             -14.00    10000.00
00549              50.00    10200.00
00550              76.00    10400.00
00551              12.00    10800.00
00552              20.00    10800.00
00553              74.00    11000.00
00554              42.00    11200.00
00555              -2.00    11000.00
00556              50.00    11200.00
00557              90.00    11600.00
00558              32.00    11800.00
00559              20.00    11800.00
00560              66.00    12000.00
00561              54.00    12000.00
00562              36.00    12200.00
00563              58.00    12400.00
00564              68.00    12600.00
00565              44.00    12400.00
00566              50.00    12600.00
00567              80.00    12800.00
00568              58.00    12800.00
00569              38.00    12800.00
00570              70.00    13000.00
00571              76.00    13000.00
00572              50.00    13200.00
00573              64.00    13200.00
00574              90.00    13400.00
00575              68.00    13200.00
00576              44.00    13400.00
00577              76.00    13400.00
00578              92.00    13400.00
00579              70.00    13400.00
00580              66.00    13400.00
00581              78.00    13400.00
00582              74.00    13600.00
00583              68.00    13400.00
00584              86.00    13400.00
00585              84.00    13600.00
00586              66.00    13600.00
00587              78.00    13600.00
00588              94.00    13600.00
00589              78.00    13600.00
00590              66.00    13600.00
00591              86.00    13600.00
00592              98.00    13600.00
00593              76.00    13400.00
00594              72.00    13400.00
00595              82.00    13200.00
00596              78.00    13400.00
00597              76.00    13200.00
00598              90.00    13200.00
00599              94.00    13200.00
00600             102.00    13200.00
00601             108.00    13200.00
00602              86.00    13000.00
00603              42.00    12800.00
00604              42.00    12800.00
00605              78.00    12600.00
00606              90.00    12600.00
00607              52.00    12600.00
00608              38.00    12400.00
00609              58.00    12400.00
00610              68.00    12400.00
00611              60.00    12000.00
00612              52.00    12000.00
00613              42.00    11800.00
00614              48.00    11800.00
00615              52.00    11800.00
00616              50.00    11600.00
00617              36.00    11200.00
00618              42.00    11000.00
00619              58.00    11200.00
00620              50.00    11000.00
00621              28.00    10800.00
00622              30.00    10600.00
00623              46.00    10400.00
00624              48.00    10200.00
00625              38.00    10200.00
00626              34.00    10000.00
00627              26.00     9600.00
00628              28.00     9600.00
00629              42.00     9400.00
00630              44.00     9400.00
00631              26.00     8800.00
00632              20.00     8800.00
00633              28.00     8600.00
00634              36.00     8400.00
00635              26.00     8400.00
00636              20.00     8000.00
00637              28.00     7800.00
00638              26.00     7600.00
00639              26.00     7400.00
00640              24.00     7200.00
00641              20.00     7000.00
00642              20.00     6600.00
00643              22.00     6400.00
00644              20.00     6400.00
00645              18.00     6000.00
00646              20.00     5800.00
00647              20.00     5600.00
00648              12.00     5400.00
00649              10.00     5000.00
00650              18.00     4800.00
00651              22.00     4600.00
00652              16.00     4400.00
00653               6.00     4200.00
00654               4.00     3800.00
00655              10.00     3600.00
00656              14.00     3400.00
00657              14.00     3000.00
00658              10.00     3000.00
00659               2.00     2600.00
00660               2.00     2400.00
00661              12.00     2200.00
00662              10.00     1800.00
00663               6.00     1600.00
00664               4.00     1400.00
00665               2.00     1000.00
00666               2.00      800.00
00667              -4.00      600.00
00668              -2.00      400.00
00669               4.00        0.00
00670              10.00     -200.00
00671              18.00     -400.00
00672              48.00     -600.00
00673              18.00     -800.00
00674             -28.00    -1200.00
00675             -28.00    -1200.00
00676              20.00    -1600.00
00677              38.00    -1800.00
00678              92.00    -2000.00
00679             250.00    -2400.00
00680             210.00    -2800.00
00681            -250.00    -3000.00
00682            -250.00    -3400.00
00683              88.00    -3600.00
00684             250.00    -3400.00
00685              86.00    -3600.00
00686             250.00    -4000.00
00687            -230.00    -4800.00
00688            -250.00    -4200.00
00689             250.00    -5000.00
00690             196.00    -5200.00
00691             -60.00    -4600.00
00692               6.00    -6000.00
00693            -250.00    -5200.00
00694             180.00    -6000.00
00695             108.00    -6600.00
00696            -250.00    -5600.00
00697             110.00    -7200.00
00698             -14.00    -6600.00
00699              10.00    -6800.00
00700               0.00    -8000.00
00701            -166.00    -7200.00
00702              40.00    -8000.00
00703              -6.00    -8000.00
00704              42.00    -8200.00
00705             -54.00    -8800.00
00706            -154.00    -8200.00
00707              50.00    -9200.00
00708             -12.00    -8800.00
00709             -22.00    -9000.00
00710             -68.00    -9600.00
00711             -68.00    -9200.00
00712              50.00   -10000.00
00713             -36.00    -9800.00
00714             -82.00   -10000.00
00715             -52.00   -10400.00
00716             -36.00   -10200.00
00717              -2.00   -10800.00
00718             -22.00   -10600.00
00719             -70.00   -10800.00
00720             -86.00   -11200.00
00721             -62.00   -11000.00
00722              20.00   -11400.00
00723             -20.00   -11600.00
00724            -102.00   -11600.00
00725             -76.00   -11800.00
00726             -52.00   -12000.00
00727             -30.00   -12000.00
00728             -54.00   -12200.00
00729             -62.00   -12200.00
00730             -58.00   -12400.00
00731             -82.00   -12400.00
00732             -46.00   -12400.00
00733             -46.00   -12600.00
00734             -76.00   -12800.00
00735             -70.00   -12800.00
00736             -62.00   -13000.00
00737             -68.00   -13000.00
00738             -86.00   -13000.00
00739             -70.00   -13000.00
00740             -54.00   -13200.00
00741             -88.00   -13200.00
00742             -90.00   -13400.00
00743             -74.00   -13600.00
00744             -76.00   -13400.00
00745             -72.00   -13400.00
00746             -76.00   -13400.00
00747             -84.00   -13600.00
00748            -100.00   -13600.00
00749             -84.00   -13600.00
00750             -62.00   -13400.00
00751             -82.00   -13600.00
00752             -98.00   -13600.00
00753             -86.00   -13600.00
00754             -74.00   -13600.00
00755             -86.00   -13600.00
00756             -98.00   -13400.00
00757             -86.00   -13600.00
00758             -82.00   -13600.00
00759             -86.00   -13600.00
00760             -84.00   -13400.00
00761             -94.00   -13400.00
00762             -94.00   -13400.00
00763             -86.00   -13200.00
00764             -76.00   -13200.00
00765             -92.00   -13000.00
00766            -124.00   -13200.00
00767            -110.00   -13000.00
00768             -86.00   -13000.00
00769             -68.00   -12800.00
00770             -62.00   -12800.00
00771             -78.00   -12800.00
00772             -80.00   -12800.00
00773             -68.00   -12600.00
00774             -54.00   -12400.00
00775             -58.00   -12400.00
00776             -74.00   -12400.00
00777             -66.00   -12000.00
00778             -52.00   -12000.00
00779             -56.00   -11800.00
00780             -66.00   -11800.00
00781             -62.00   -11600.00
00782             -52.00   -11400.00
00783             -54.00   -11400.00
00784             -54.00   -11000.00
00785             -44.00   -11000.00
00786             -46.00   -10800.00
00787             -46.00   -10800.00
00788             -46.00   -10400.00
00789             -50.00   -10400.00
00790             -46.00   -10400.00
00791             -42.00   -10000.00
00792             -38.00   -10000.00
00793             -50.00    -9800.00
00794             -52.00    -9600.00
00795             -36.00    -9200.00
00796             -28.00    -9200.00
00797             -36.00    -9000.00
00798             -44.00    -8800.00
00799             -40.00    -8800.00
00800             -34.00    -8400.00
00801             -38.00    -8200.00
00802             -36.00    -8000.00
00803             -34.00    -7800.00
00804             -34.00    -7400.00
00805             -26.00    -7400.00
00806             -28.00    -7200.00
00807             -34.00    -7000.00
00808             -30.00    -6800.00
00809             -22.00    -6600.00
00810             -20.00    -6400.00
00811             -28.00    -6000.00
00812             -28.00    -5800.00
00813             -26.00    -5600.00
00814             -26.00    -5200.00
00815             -22.00    -5000.00
00816             -22.00    -4800.00
00817             -22.00    -4600.00
00818             -18.00    -4400.00
00819             -22.00    -4200.00
00820             -22.00    -4000.00
00821             -22.00    -3600.00
00822             -20.00    -3400.00
00823             -10.00    -3200.00
00824             -16.00    -2800.00
00825             -18.00    -2600.00
00826             -14.00    -2400.00
00827             -10.00    -2200.00
00828             -12.00    -2000.00
00829              -8.00    -1800.00
00830             -12.00    -1600.00
00831              -6.00    -1200.00
00832             -10.00     -800.00
00833             -10.00     -600.00
00834             -10.00     -400.00
00835              -6.00     -200.00
00836               4.00      200.00
00837              18.00      200.00
00838              42.00      600.00
00839              18.00      800.00
00840             -28.00     1000.00
00841             -26.00     1200.00
00842              20.00     1800.00
00843              30.00     1600.00
00844              30.00     2000.00
00845             108.00     2400.00
00846             250.00     2800.00
00847             106.00     3000.00
00848            -250.00     3000.00
00849            -250.00     3400.00
00850             250.00     3600.00
00851             250.00     3800.00
00852            -188.00     4000.00
00853            -178.00     4200.00
00854             250.00     4400.00
00855             -34.00     4600.00
00856            -102.00     5200.00
00857              50.00     5000.00
00858             -14.00     5600.00
00859             174.00     5800.00
00860               6.00     5600.00
00861            -142.00     6200.00
00862             -14.00     6400.00
00863              22.00     6400.00
00864             150.00     7000.00
00865              52.00     7000.00
00866            -126.00     7400.00
00867               4.00     7200.00
00868             132.00     7800.00
00869              52.00     8200.00
00870             -86.00     8200.00
00871              14.00     8400.00
00872             104.00     8600.00
00873               2.00     8800.00
00874               2.00     9000.00
00875              24.00     9200.00
00876              20.00     9400.00
00877              34.00     9400.00
00878              56.00     9600.00
00879              56.00    10000.00
00880              -4.00    10000.00
00881              10.00    10000.00
00882              74.00    10400.00
00883              46.00    10400.00
00884               2.00    10800.00
00885              58.00    10800.00
00886              66.00    11000.00
00887              12.00    11200.00
00888              14.00    11400.00
00889              78.00    11400.00
00890              74.00    11600.00
00891              14.00    11800.00
00892              42.00    12000.00
00893              68.00    12000.00
00894              42.00    12200.00
00895              46.00    12400.00
00896              68.00    12400.00
00897              58.00    12400.00
00898              42.00    12600.00
00899              68.00    12800.00
00900              78.00    12800.00
00901              46.00    12800.00
00902              52.00    12800.00
00903              78.00    13200.00
00904              62.00    13000.00
00905              50.00    13200.00
00906              82.00    13200.00
00907              90.00    13200.00
00908              50.00    13400.00
00909              52.00    13400.00
00910              92.00    13200.00
00911              82.00    13400.00
00912              66.00    13600.00
00913              74.00    13400.00
00914              78.00    13600.00
00915              68.00    13600.00
00916              76.00    13600.00
00917              92.00    13800.00
00918              70.00    13600.00
00919              66.00    13600.00
00920              90.00    13600.00
00921              90.00    13600.00
00922              66.00    13600.00
00923              74.00    13600.00
00924              94.00    13400.00
00925              84.00    13400.00
00926              68.00    13600.00
00927              78.00    13400.00
00928              74.00    13400.00
00929              76.00    13400.00
00930              86.00    13200.00
00931              94.00    13200.00
00932              98.00    13200.00
00933             106.00    13200.00
00934             102.00    13000.00
00935              58.00    12800.00
00936              30.00    12800.00
00937              62.00    12600.00
00938              92.00    12600.00
00939              78.00    12600.00
00940              44.00    12400.00
00941              30.00    12400.00
00942              62.00    12400.00
00943              70.00    12200.00
00944              64.00    12000.00
00945              46.00    12000.00
00946              30.00    11800.00
00947              46.00    11800.00
00948              70.00    11600.00
00949              58.00    11400.00
00950              36.00    11200.00
00951              30.00    11000.00
00952              52.00    11000.00
00953              52.00    10800.00
00954              38.00    10600.00
00955              38.00    10400.00
00956              42.00    10400.00
00957              40.00    10000.00
00958              36.00    10000.00
00959              34.00     9800.00
00960              38.00     9600.00
00961              36.00     9400.00
00962              34.00     9200.00
00963              28.00     9000.00
00964              26.00     9000.00
00965              36.00     8600.00
00966              36.00     8600.00
00967              26.00     8400.00
00968              20.00     8000.00
00969              26.00     7800.00
00970              30.00     7800.00
00971              28.00     7400.00
00972              22.00     7200.00
00973              18.00     7000.00
00974              14.00     6800.00
00975              26.00     6400.00
00976              34.00     6200.00
00977              22.00     6200.00
00978               6.00     6000.00
00979               8.00     5600.00
00980              18.00     5400.00
00981              22.00     5200.00
00982              20.00     4800.00
00983              18.00     4800.00
00984              10.00     4600.00
00985               4.00     4400.00
00986              10.00     4000.00
00987              14.00     3600.00
00988              12.00     3600.00
00989               6.00     3200.00
00990               4.00     3000.00
00991               6.00     2800.00
00992               6.00     2400.00
00993               6.00     2200.00
00994               6.00     1800.00
00995               4.00     1800.00
00996               4.00     1400.00
00997               6.00     1200.00
00998               2.00     1000.00
00999              -6.00      600.00
01000              -2.00      400.00
01001               4.00      200.00
01002              10.00        0.00
01003              12.00     -400.00
01004              34.00     -400.00
01005              36.00     -800.00
01006              -6.00    -1000.00
01007             -34.00    -1200.00
01008              -2.00    -1400.00
01009              30.00    -1800.00
01010              46.00    -1800.00
01011             188.00    -2000.00
01012             250.00    -2600.00
01013            -188.00    -3200.00
01014            -250.00    -3200.00
01015            -250.00    -3600.00
01016             250.00    -3400.00
01017             250.00    -3600.00
01018             150.00    -3600.00
01019             178.00    -4400.00
01020            -250.00    -4400.00
01021             -96.00    -4400.00
01022             250.00    -5600.00
01023             -52.00    -4400.00
01024              50.00    -5600.00
01025            -194.00    -6000.00
01026            -140.00    -5400.00
01027             250.00    -6800.00
01028            -202.00    -6000.00
01029             -70.00    -6400.00
01030             114.00    -7200.00
01031             -68.00    -6400.00
01032              74.00    -7600.00
01033            -134.00    -7200.00
01034             -60.00    -7400.00
01035              42.00    -8400.00
01036             -12.00    -7800.00
01037              42.00    -8800.00
01038            -160.00    -8400.00
01039             -44.00    -8800.00
01040              52.00    -9400.00
01041             -38.00    -8800.00
01042             -28.00    -9600.00
01043             -98.00    -9400.00
01044               4.00    -9400.00
01045              26.00   -10000.00
01046             -76.00    -9800.00
01047             -64.00   -10400.00
01048             -46.00   -10200.00
01049             -18.00   -10400.00
01050              -4.00   -10800.00
01051             -50.00   -10600.00
01052             -84.00   -11200.00
01053             -84.00   -11200.00
01054             -14.00   -11400.00
01055              18.00   -11400.00
01056             -78.00   -11600.00
01057             -94.00   -11800.00
01058             -60.00   -12000.00
01059             -38.00   -12000.00
01060             -36.00   -12200.00
01061             -68.00   -12200.00
01062             -54.00   -12400.00
01063             -74.00   -12600.00
01064             -66.00   -12600.00
01065             -34.00   -12800.00
01066             -68.00   -12800.00
01067             -82.00   -12800.00
01068             -68.00   -12800.00
01069             -58.00   -13000.00
01070             -76.00   -13000.00
01071             -86.00   -13200.00
01072             -54.00   -13200.00
01073             -64.00   -13200.00
01074             -94.00   -13200.00
01075             -84.00   -13600.00
01076             -74.00   -13200.00
01077             -70.00   -13400.00
01078             -76.00   -13600.00
01079             -86.00   -13400.00
01080             -90.00   -13600.00
01081             -94.00   -13400.00
01082             -62.00   -13600.00
01083             -66.00   -13600.00
01084            -100.00   -13600.00
01085             -94.00   -13600.00
01086             -78.00   -13600.00
01087             -74.00   -13600.00
01088             -92.00   -13600.00
01089             -94.00   -13600.00
01090             -86.00   -13600.00
01091             -86.00   -13400.00
01092             -80.00   -13600.00
01093             -86.00   -13400.00
01094            -100.00   -13200.00
01095             -90.00   -13200.00
01096             -76.00   -13200.00
01097             -78.00   -13200.00
01098            -110.00   -13200.00
01099            -124.00   -13000.00
01100            -102.00   -13000.00
01101             -76.00   -13000.00
01102             -58.00   -13000.00
01103             -66.00   -12800.00
01104             -80.00   -12800.00
01105             -78.00   -12800.00
01106             -58.00   -12400.00
01107             -52.00   -12400.00
01108             -72.00   -12400.00
01109             -74.00   -12200.00
01110             -54.00   -12000.00
01111             -50.00   -12000.00
01112             -58.00   -11800.00
01113             -66.00   -11600.00
01114             -60.00   -11400.00
01115             -50.00   -11400.00
01116             -58.00   -11200.00
01117             -48.00   -11000.00
01118             -50.00   -11200.00
01119             -52.00   -10800.00
01120             -46.00   -10600.00
01121             -46.00   -10600.00
01122             -46.00   -10400.00
01123             -46.00   -10200.00
01124             -42.00   -10000.00
01125             -44.00   -10000.00
01126             -52.00    -9600.00
01127             -42.00    -9600.00
01128             -34.00    -9200.00
01129             -38.00    -9200.00
01130             -44.00    -8800.00
01131             -44.00    -8600.00
01132             -34.00    -8600.00
01133             -32.00    -8200.00
01134             -30.00    -8000.00
01135             -36.00    -8000.00
01136             -38.00    -7600.00
01137             -32.00    -7600.00
01138             -28.00    -7400.00
01139             -32.00    -7200.00
01140             -36.00    -6800.00
01141             -28.00    -6600.00
01142             -20.00    -6400.00
01143             -26.00    -6200.00
01144             -30.00    -6000.00
01145             -26.00    -5600.00
01146             -26.00    -5600.00
01147             -22.00    -5400.00
01148             -22.00    -5000.00
01149             -22.00    -4800.00
01150             -22.00    -4400.00
01151             -18.00    -4200.00
01152             -20.00    -4000.00
01153             -22.00    -3800.00
01154             -22.00    -3600.00
01155             -12.00    -3200.00
01156             -12.00    -3000.00
01157             -14.00    -2800.00
01158             -18.00    -2400.00
01159             -14.00    -2200.00
01160             -10.00    -2000.00
01161              -6.00    -1800.00
01162              -6.00    -1600.00
01163             -10.00    -1200.00
01164             -12.00    -1000.00
01165              -6.00     -600.00
01166             -10.00     -400.00
01167              -6.00     -200.00
01168              -2.00        0.00
01169              10.00      200.00
01170              34.00      600.00
01171              38.00      600.00
01172             -10.00      800.00
01173             -36.00     1200.00
01174              -4.00     1400.00
01175              30.00     1800.00
01176              34.00     1800.00
01177              50.00     2200.00
01178             236.00     2400.00
01179             250.00     2800.00
01180            -250.00     3200.00
01181            -250.00     3200.00
01182            -172.00     3400.00
01183             250.00     3600.00
01184             214.00     4000.00
01185            -250.00     4000.00
01186             180.00     4400.00
01187             218.00     4400.00
01188            -166.00     4800.00
01189              16.00     5200.00
01190              -4.00     5200.00
01191              78.00     5800.00
01192             146.00     5800.00
01193            -124.00     6000.00
01194             -76.00     6400.00
01195              10.00     6400.00
01196              78.00     6800.00
01197             150.00     7000.00
01198             -78.00     7200.00
01199             -84.00     7400.00
01200              90.00     7400.00
01201             122.00     8000.00
01202             -38.00     8200.00
01203             -64.00     8000.00
01204              94.00     8600.00
01205              62.00     8600.00
01206             -18.00     8800.00
01207              14.00     9200.00
01208              26.00     9200.00
01209              22.00     9600.00
01210              50.00     9600.00
01211              66.00    10000.00
01212              26.00    10000.00
01213             -14.00    10000.00
01214              48.00    10200.00
01215              78.00    10400.00
01216              14.00    10600.00
01217              20.00    10800.00
01218              76.00    11000.00
01219              38.00    11200.00
01220              -4.00    11200.00
01221              50.00    11400.00
01222              86.00    11600.00
01223              36.00    11800.00
01224              20.00    11800.00
01225              68.00    12000.00
01226              58.00    12000.00
01227              38.00    12200.00
01228              60.00    12400.00
01229              70.00    12400.00
01230              44.00    12400.00
01231              52.00    12600.00
01232              84.00    12800.00
01233              58.00    12800.00
01234              40.00    12800.00
01235              68.00    13000.00
01236              76.00    13000.00
01237              52.00    13200.00
01238              60.00    13200.00
01239              92.00    13200.00
01240              70.00    13200.00
01241              42.00    13400.00
01242              78.00    13400.00
01243              92.00    13400.00
01244              70.00    13600.00
01245              68.00    13600.00
01246              78.00    13600.00
01247              70.00    13600.00
01248              66.00    13600.00
01249              86.00    13400.00
01250              86.00    13600.00
01251              66.00    13600.00
01252              74.00    13600.00
01253              94.00    13600.00
01254              78.00    13400.00
01255              66.00    13600.00
01256              86.00    13600.00
01257              94.00    13400.00
01258              72.00    13400.00
01259              70.00    13400.00
01260              84.00    13400.00
01261              78.00    13400.00
01262              76.00    13400.00
01263              86.00    13200.00
01264              98.00    13200.00
01265             100.00    13200.00
01266             108.00    13000.00
01267              86.00    13000.00
01268              40.00    12800.00
01269              40.00    12800.00
01270              84.00    12800.00
01271              92.00    12600.00
01272              54.00    12600.00
01273              34.00    12400.00
01274              52.00    12400.00
01275              68.00    12200.00
01276              64.00    12200.00
01277              58.00    12000.00
01278              42.00    12000.00
01279              44.00    12000.00
01280              58.00    11600.00
01281              58.00    11600.00
01282              36.00    11400.00
01283              38.00    11200.00
01284              54.00    11000.00
01285              54.00    11000.00
01286              34.00    10800.00
01287              34.00    10400.00
01288              44.00    10400.00
01289              44.00    10200.00
01290              42.00    10000.00
01291              38.00    10000.00
01292              28.00     9800.00
01293              26.00     9600.00
01294              42.00     9400.00
01295              46.00     9200.00
01296              24.00     8800.00
01297              20.00     8800.00
01298              36.00     8600.00
01299              36.00     8400.00
01300              22.00     8200.00
01301              22.00     8000.00
01302              34.00     7800.00
01303              26.00     7600.00
01304              20.00     7200.00
01305              26.00     7200.00
01306              20.00     7000.00
01307              14.00     6600.00
01308              22.00     6400.00
01309              34.00     6200.00
01310              20.00     6200.00
01311               6.00     6000.00
01312              18.00     5600.00
01313              20.00     5400.00
01314              14.00     5200.00
01315              16.00     4800.00
01316              14.00     4600.00
01317               6.00     4400.00
01318               6.00     4000.00
01319              14.00     3800.00
01320              20.00     3600.00
01321               4.00     3200.00
01322               0.00     3000.00
01323              10.00     2800.00
01324              12.00     2600.00
01325               4.00     2400.00
01326               6.00     2200.00
01327               0.00     2000.00
01328              -2.00     1600.00
01329               6.00     1400.00
01330              12.00      800.00
01331               2.00      800.00
01332             -10.00      600.00
01333              -6.00      400.00
01334               6.00        0.00
01335              12.00     -200.00
01336              20.00     -400.00
01337              44.00     -800.00
01338              14.00     -800.00
01339             -30.00    -1200.00
01340             -22.00    -1200.00
01341              22.00    -1600.00
01342              36.00    -1800.00
01343              84.00    -2000.00
01344             250.00    -2400.00
01345             206.00    -2800.00
01346            -250.00    -3200.00
01347            -250.00    -3400.00
01348             100.00    -3600.00
01349             250.00    -3400.00
01350              84.00    -3400.00
01351             250.00    -3800.00
01352            -242.00    -4600.00
01353            -250.00    -4200.00
01354             250.00    -5200.00
01355             188.00    -5000.00
01356             -60.00    -4600.00
01357              10.00    -6000.00
01358            -250.00    -5400.00
01359             182.00    -6000.00
01360             100.00    -6400.00
01361            -250.00    -5800.00
01362             118.00    -7200.00
01363             -20.00    -6600.00
01364              10.00    -7000.00
01365              -4.00    -8000.00
01366            -162.00    -7200.00
01367              44.00    -8200.00
01368              -6.00    -8000.00
01369              42.00    -8200.00
01370             -58.00    -8800.00
01371            -156.00    -8200.00
01372              52.00    -9200.00
01373              -6.00    -9000.00
01374             -22.00    -9000.00
01375             -70.00    -9600.00
01376             -68.00    -9200.00
01377              50.00   -10000.00
01378             -34.00    -9800.00
01379             -82.00   -10000.00
01380             -56.00   -10400.00
01381             -38.00   -10200.00
01382              -4.00   -10800.00
01383             -20.00   -10800.00
01384             -70.00   -11000.00
01385             -90.00   -11000.00
01386             -60.00   -11200.00
01387              18.00   -11400.00
01388             -22.00   -11400.00
01389            -102.00   -11600.00
01390             -76.00   -12000.00
01391             -52.00   -12000.00
01392             -30.00   -12000.00
01393             -52.00   -12200.00
01394             -66.00   -12400.00
01395             -62.00   -12400.00
01396             -80.00   -12400.00
01397             -44.00   -12400.00
01398             -46.00   -12800.00
01399             -78.00   -12800.00
01400             -76.00   -13000.00
01401             -62.00   -12800.00
01402             -62.00   -13000.00
01403             -86.00   -13200.00
01404             -70.00   -13200.00
01405             -56.00   -13200.00
01406             -84.00   -13400.00
01407             -86.00   -13400.00
01408             -76.00   -13200.00
01409             -76.00   -13200.00
01410             -70.00   -13600.00
01411             -78.00   -13400.00
01412             -82.00   -13600.00
01413             -94.00   -13600.00
01414             -82.00   -13600.00
01415             -60.00   -13600.00
01416             -86.00   -13600.00
01417             -98.00   -13600.00
01418             -84.00   -13600.00
01419             -70.00   -13600.00
01420             -78.00   -13600.00
01421             -98.00   -13600.00
01422             -88.00   -13600.00
01423             -86.00   -13600.00
01424             -82.00   -13600.00
01425             -76.00   -13400.00
01426             -90.00   -13200.00
01427             -96.00   -13400.00
01428             -86.00   -13200.00
01429             -76.00   -13200.00
01430             -92.00   -13200.00
01431            -118.00   -13200.00
01432            -114.00   -13000.00
01433             -92.00   -13000.00
01434             -66.00   -12800.00
01435             -54.00   -12800.00
01436             -70.00   -12800.00
01437             -78.00   -12600.00
01438             -72.00   -12800.00
01439             -58.00   -12400.00
01440             -60.00   -12400.00
01441             -72.00   -12200.00
01442             -62.00   -12000.00
01443             -54.00   -12200.00
01444             -60.00   -12000.00
01445             -62.00   -12000.00
01446             -60.00   -11600.00
01447             -50.00   -11400.00
01448             -54.00   -11400.00
01449             -54.00   -11200.00
01450             -50.00   -11000.00
01451             -52.00   -10800.00
01452             -46.00   -10800.00
01453             -46.00   -10600.00
01454             -50.00   -10400.00
01455             -50.00   -10200.00
01456             -44.00   -10000.00
01457             -38.00    -9800.00
01458             -46.00    -9800.00
01459             -50.00    -9600.00
01460             -38.00    -9600.00
01461             -38.00    -9200.00
01462             -42.00    -9200.00
01463             -42.00    -8800.00
01464             -38.00    -8800.00
01465             -32.00    -8400.00
01466             -40.00    -8200.00
01467             -34.00    -8200.00
01468             -36.00    -7800.00
01469             -30.00    -7600.00
01470             -22.00    -7400.00
01471             -34.00    -7200.00
01472             -38.00    -7000.00
01473             -28.00    -6800.00
01474             -22.00    -6600.00
01475             -20.00    -6400.00
01476             -30.00    -6000.00
01477             -28.00    -5800.00
01478             -22.00    -5600.00
01479             -22.00    -5200.00
01480             -22.00    -5200.00
01481             -26.00    -4800.00
01482             -20.00    -4600.00
01483             -18.00    -4400.00
01484             -18.00    -4200.00
01485             -18.00    -4000.00
01486             -20.00    -3600.00
01487             -18.00    -3400.00
01488             -10.00    -3200.00
01489             -14.00    -3000.00
01490             -18.00    -2600.00
01491             -14.00    -2400.00
01492             -10.00    -2200.00
01493             -10.00    -2000.00
01494             -10.00    -1600.00
01495             -10.00    -1400.00
01496             -10.00    -1200.00
01497              -6.00     -800.00
01498              -6.00     -800.00
01499             -12.00     -200.00
01500              -6.00     -200.00
01501               2.00      200.00
01502              16.00      400.00
01503              46.00      400.00
01504              14.00      800.00
01505             -28.00     1200.00
01506             -26.00     1200.00
01507              18.00     1600.00
01508              32.00     1800.00
01509              28.00     1800.00
01510             110.00     2200.00
01511             250.00     2800.00
01512              94.00     2800.00
01513            -250.00     3000.00
01514            -250.00     3200.00
01515             250.00     3600.00
01516             250.00     3800.00
01517            -200.00     3800.00
01518            -170.00     4400.00
01519             250.00     4600.00
01520             -42.00     4600.00
01521            -102.00     5000.00
01522              50.00     5000.00
01523             -16.00     5400.00
01524             172.00     6000.00
01525               2.00     5600.00
01526            -140.00     6200.00
01527             -14.00     6400.00
01528              22.00     6600.00
01529             148.00     7000.00
01530              50.00     7000.00
01531            -128.00     7400.00
01532              10.00     7400.00
01533             132.00     7600.00
01534              46.00     8200.00
01535             -86.00     8000.00
01536              18.00     8400.00
01537             106.00     8800.00
01538               2.00     8600.00
01539              -2.00     9000.00
01540              24.00     9200.00
01541              24.00     9600.00
01542              36.00     9400.00
01543              60.00     9600.00
01544              52.00    10000.00
01545             -10.00    10000.00
01546              12.00    10200.00
01547              82.00    10400.00
01548              46.00    10400.00
01549              -4.00    10800.00
01550              58.00    10800.00
01551              70.00    11000.00
01552              14.00    11200.00
01553              18.00    11400.00
01554              78.00    11400.00
01555              66.00    11600.00
01556              12.00    11800.00
01557              46.00    12000.00
01558              68.00    12000.00
01559              46.00    12000.00
01560              44.00    12400.00
01561              66.00    12400.00
01562              58.00    12600.00
01563              42.00    12400.00
01564              68.00    12800.00
01565              74.00    12800.00
01566              38.00    12800.00
01567              54.00    12800.00
01568              90.00    13000.00
01569              74.00    13000.00
01570              58.00    13200.00
01571              84.00    13200.00
01572              90.00    13200.00
01573              40.00    13200.00
01574              42.00    13400.00
01575              82.00    13400.00
01576              70.00    13400.00
01577              58.00    13400.00
01578              76.00    13400.00
01579              90.00    13600.00
01580              82.00    13400.00
01581              90.00    13600.00
01582              94.00    13600.00
01583              62.00    13600.00
01584              46.00    13600.00
01585              76.00    13600.00
01586              84.00    13600.00
01587              66.00    13600.00
01588              74.00    13400.00
01589             102.00    13400.00
01590             100.00    13600.00
01591              80.00    13400.00
01592              84.00    13400.00
01593              74.00    13400.00
01594              62.00    13200.00
01595              72.00    13200.00
01596              90.00    13200.00
01597              98.00    13200.00
01598             108.00    13200.00
01599             106.00    13200.00
01600              70.00    12800.00
01601              42.00    12800.00
01602              70.00    12800.00
01603              94.00    12600.00
01604              66.00    12600.00
01605              30.00    12400.00
01606              36.00    12400.00
01607              62.00    12400.00
01608              68.00    12000.00
01609              60.00    12000.00
01610              50.00    12000.00
01611              46.00    11800.00
01612              58.00    11600.00
01613              62.00    11600.00
01614              44.00    11200.00
01615              28.00    11200.00
01616              40.00    11200.00
01617              52.00    10800.00
01618              42.00    10800.00
01619              36.00    10800.00
01620              44.00    10600.00
01621              50.00    10400.00
01622              46.00    10000.00
01623              38.00    10000.00
01624              26.00    10000.00
01625              26.00     9600.00
01626              30.00     9400.00
01627              38.00     9200.00
01628              34.00     9200.00
01629              26.00     8800.00
01630              34.00     8600.00
01631              38.00     8600.00
01632              28.00     8400.00
01633              20.00     8000.00
01634              24.00     7800.00
01635              28.00     7800.00
01636              26.00     7400.00
01637              20.00     7200.00
01638              18.00     7000.00
01639              20.00     6800.00
01640              26.00     6400.00
01641              28.00     6200.00
01642              18.00     6000.00
01643              10.00     6000.00
01644              18.00     5600.00
01645              20.00     5400.00
01646              10.00     5200.00
01647              12.00     4800.00
01648              14.00     4600.00
01649              16.00     4400.00
01650              12.00     4200.00
01651              10.00     3800.00
01652               8.00     3600.00
01653              10.00     3600.00
01654              10.00     3200.00
01655              10.00     3000.00
01656               4.00     2600.00
01657               2.00     2400.00
01658               4.00     2200.00
01659              10.00     2000.00
01660               4.00     1800.00
01661               4.00     1400.00
01662               6.00     1200.00
01663               0.00     1000.00
01664              -2.00      600.00
01665              -2.00      400.00
01666               2.00      200.00
01667               4.00        0.00
01668              14.00     -200.00
01669              38.00     -600.00
01670              42.00     -600.00
01671             -10.00    -1000.00
01672             -38.00    -1200.00
01673              -4.00    -1600.00
01674              28.00    -1800.00
01675              56.00    -2000.00
01676             198.00    -2000.00
01677             250.00    -2600.00
01678            -204.00    -3200.00
01679            -250.00    -3200.00
01680            -250.00    -3600.00
01681             250.00    -3600.00
01682             246.00    -3400.00
01683             152.00    -3600.00
01684             170.00    -4400.00
01685            -250.00    -4400.00
01686             -82.00    -4200.00
01687             250.00    -5600.00
01688             -58.00    -4400.00
01689              52.00    -5600.00
01690            -204.00    -5800.00
01691            -134.00    -5400.00
01692             250.00    -6600.00
01693            -204.00    -5800.00
01694             -68.00    -6400.00
01695             106.00    -7200.00
01696             -64.00    -6400.00
01697              74.00    -7600.00
01698            -138.00    -7400.00
01699             -58.00    -7400.00
01700              42.00    -8200.00
01701             -10.00    -7800.00
01702              38.00    -8800.00
01703            -162.00    -8400.00
01704             -42.00    -8600.00
01705              46.00    -9200.00
01706             -38.00    -8800.00
01707             -28.00    -9600.00
01708            -102.00    -9400.00
01709               4.00    -9600.00
01710              22.00    -9800.00
01711             -80.00    -9800.00
01712             -68.00   -10400.00
01713             -46.00   -10200.00
01714             -18.00   -10600.00
01715              -2.00   -10800.00
01716             -52.00   -10600.00
01717             -86.00   -11000.00
01718             -84.00   -11000.00
01719             -18.00   -11200.00
01720              18.00   -11600.00
01721             -76.00   -11600.00
01722             -96.00   -12000.00
01723             -60.00   -11600.00
01724             -38.00   -12000.00
01725             -34.00   -12200.00
01726             -66.00   -12200.00
01727             -60.00   -12400.00
01728             -76.00   -12400.00
01729             -64.00   -12400.00
01730             -34.00   -12800.00
01731             -68.00   -12800.00
01732             -82.00   -12800.00
01733             -70.00   -13000.00
01734             -60.00   -13000.00
01735             -76.00   -13200.00
01736             -82.00   -13200.00
01737             -58.00   -13200.00
01738             -68.00   -13200.00
01739             -90.00   -13200.00
01740             -78.00   -13200.00
01741             -76.00   -13400.00
01742             -70.00   -13200.00
01743             -76.00   -13600.00
01744             -82.00   -13600.00
01745             -86.00   -13600.00
01746             -92.00   -13600.00
01747             -64.00   -13600.00
01748             -66.00   -13600.00
01749             -98.00   -13600.00
01750             -92.00   -13600.00
01751             -76.00   -13600.00
01752             -72.00   -13600.00
01753             -90.00   -13600.00
01754             -94.00   -13600.00
01755             -86.00   -13400.00
01756             -86.00   -13400.00
01757             -78.00   -13600.00
01758             -82.00   -13600.00
01759             -94.00   -13400.00
01760             -92.00   -13400.00
01761             -82.00   -13200.00
01762             -80.00   -13200.00
01763            -108.00   -13200.00
01764            -118.00   -13200.00
01765            -102.00   -13000.00
01766             -76.00   -13000.00
01767             -60.00   -13000.00
01768             -66.00   -12800.00
01769             -78.00   -12800.00
01770             -76.00   -12800.00
01771             -66.00   -12400.00
01772             -54.00   -12400.00
01773             -70.00   -12400.00
01774             -72.00   -12200.00
01775             -58.00   -12200.00
01776             -54.00   -12000.00
01777             -62.00   -11800.00
01778             -66.00   -11600.00
01779             -54.00   -11600.00
01780             -50.00   -11600.00
01781             -54.00   -11000.00
01782             -52.00   -11000.00
01783             -50.00   -11000.00
01784             -52.00   -10800.00
01785             -46.00   -10600.00
01786             -50.00   -10600.00
01787             -50.00   -10200.00
01788             -44.00   -10000.00
01789             -38.00   -10000.00
01790             -44.00    -9800.00
01791             -52.00    -9800.00
01792             -42.00    -9600.00
01793             -36.00    -9200.00
01794             -38.00    -9000.00
01795             -42.00    -9000.00
01796             -44.00    -8800.00
01797             -34.00    -8600.00
01798             -32.00    -8400.00
01799             -36.00    -8200.00
01800             -34.00    -8000.00
01801             -34.00    -7800.00
01802             -26.00    -7400.00
01803             -26.00    -7200.00
01804             -34.00    -7000.00
01805             -36.00    -6800.00
01806             -28.00    -6600.00
01807             -20.00    -6400.00
01808             -22.00    -6200.00
01809             -30.00    -6000.00
01810             -28.00    -5600.00
01811             -22.00    -5600.00
01812             -20.00    -5200.00
01813             -22.00    -5000.00
01814             -22.00    -4600.00
01815             -20.00    -4400.00
01816             -14.00    -4200.00
01817             -20.00    -4000.00
01818             -18.00    -3600.00
01819             -20.00    -3600.00
01820             -12.00    -3400.00
01821             -12.00    -3000.00
01822             -18.00    -2800.00
01823             -18.00    -2600.00
01824             -12.00    -2200.00
01825             -10.00    -2000.00
01826              -6.00    -1800.00
01827             -10.00    -1600.00
01828             -12.00    -1200.00
01829             -12.00    -1000.00
01830              -6.00     -800.00
01831              -4.00     -400.00
01832              -8.00     -200.00
01833              -6.00        0.00
01834              10.00      200.00
01835              34.00      600.00
01836              38.00      600.00
01837             -12.00      800.00
01838             -38.00     1000.00
01839              -6.00     1400.00
01840              30.00     1400.00
01841              28.00     1800.00
01842              50.00     2000.00
01843             236.00     2400.00
01844             250.00     3000.00
01845            -250.00     3000.00
01846            -250.00     3000.00
01847            -158.00     3400.00
01848             250.00     3600.00
01849             204.00     4000.00
01850            -250.00     3800.00
01851             186.00     4400.00
01852             212.00     4400.00
01853            -166.00     4800.00
01854              18.00     5200.00
01855             -10.00     5200.00
01856              78.00     5800.00
01857             148.00     5600.00
01858            -124.00     6000.00
01859             -76.00     6400.00
01860               6.00     6400.00
01861              76.00     6800.00
01862             154.00     6800.00
01863             -82.00     7200.00
01864             -82.00     7600.00
01865              90.00     7600.00
01866             120.00     8200.00
01867             -42.00     8000.00
01868             -62.00     8200.00
01869              98.00     8600.00
01870              60.00     8600.00
01871             -18.00     8800.00
01872              14.00     9200.00
01873              26.00     9200.00
01874              26.00     9600.00
01875              48.00     9400.00
01876              66.00    10000.00
01877              26.00    10000.00
01878             -14.00    10000.00
01879              50.00    10200.00
01880              76.00    10400.00
01881              14.00    10600.00
01882              26.00    10800.00
01883              78.00    11000.00
01884              38.00    11200.00
01885              -4.00    11200.00
01886              46.00    11200.00
01887              94.00    11600.00
01888              42.00    11600.00
01889              18.00    11800.00
01890              60.00    12000.00
01891              54.00    12000.00
01892              42.00    12000.00
01893              64.00    12200.00
01894              68.00    12400.00
01895              42.00    12400.00
01896              46.00    12600.00
01897              90.00    12800.00
01898              68.00    12800.00
01899              38.00    12800.00
01900              62.00    12800.00
01901              70.00    13000.00
01902              52.00    13000.00
01903              66.00    13000.00
01904              92.00    13200.00
01905              62.00    13200.00
01906              36.00    13400.00
01907              74.00    13400.00
01908              98.00    13600.00
01909              74.00    13400.00
01910              62.00    13400.00
01911              70.00    13400.00
01912              68.00    13600.00
01913              70.00    13400.00
01914              92.00    13600.00
01915              84.00    13600.00
01916              58.00    13600.00
01917              74.00    13400.00
01918              98.00    13600.00
01919              82.00    13600.00
01920              68.00    13600.00
01921              84.00    13400.00
01922              92.00    13600.00
01923              72.00    13200.00
01924              74.00    13600.00
01925              84.00    13200.00
01926              76.00    13400.00
01927              74.00    13200.00
01928              90.00    13200.00
01929             100.00    13200.00
01930             106.00    13200.00
01931             108.00    13200.00
01932              84.00    13000.00
01933              36.00    12800.00
01934              44.00    12800.00
01935              90.00    12800.00
01936              92.00    12600.00
01937              52.00    12400.00
01938              30.00    12400.00
01939              52.00    12400.00
01940              74.00    12200.00
01941              68.00    12000.00
01942              52.00    12000.00
01943              42.00    12000.00
01944              42.00    11800.00
01945              58.00    11800.00
01946              58.00    11400.00
01947              38.00    11200.00
01948              36.00    11000.00
01949              54.00    10800.00
01950              54.00    10800.00
01951              36.00    10800.00
01952              34.00    10800.00
01953              42.00    10400.00
01954              44.00    10200.00
01955              42.00    10000.00
01956              36.00    10000.00
01957              30.00     9600.00
01958              30.00     9600.00
01959              38.00     9400.00
01960              38.00     9200.00
01961              26.00     8800.00
01962              26.00     8800.00
01963              34.00     8600.00
01964              34.00     8400.00
01965              26.00     8000.00
01966              20.00     8000.00
01967              28.00     7600.00
01968              26.00     7600.00
01969              22.00     7400.00
01970              20.00     7200.00
01971              18.00     6800.00
01972              20.00     6800.00
01973              22.00     6400.00
01974              20.00     6200.00
01975              18.00     6000.00
01976              12.00     5800.00
01977              16.00     5600.00
01978              14.00     5400.00
01979              10.00     4800.00
01980              14.00     4800.00
01981              18.00     4400.00
01982              14.00     4400.00
01983               2.00     4000.00
01984               2.00     3800.00
01985              12.00     3600.00
01986              14.00     3200.00
01987              10.00     3000.00
01988               4.00     2800.00
01989               2.00     2600.00
01990               4.00     2400.00
01991              10.00     2200.00
01992              10.00     2000.00
01993               2.00     1600.00
01994              -2.00     1400.00
01995               2.00     1200.00
01996              -2.00      800.00
01997               4.00      600.00
01998               2.00      200.00
01999               2.00        0.00
02000              10.00     -200.00
02001              22.00     -400.00
02002              50.00     -800.00
02003              18.00     -800.00
02004             -30.00    -1000.00
02005             -28.00    -1400.00
02006              20.00    -1600.00
02007              44.00    -1800.00
02008              92.00    -2000.00
02009             250.00    -2000.00
02010             196.00    -3000.00
02011            -250.00    -3200.00
02012            -250.00    -3400.00
02013             110.00    -3600.00
02014             250.00    -3600.00
02015              84.00    -3400.00
02016             250.00    -4000.00
02017            -248.00    -4600.00
02018            -250.00    -4200.00
02019             250.00    -5200.00
02020             180.00    -5000.00
02021             -58.00    -4600.00
02022               4.00    -6000.00
02023            -250.00    -5400.00
02024             186.00    -6000.00
02025              98.00    -6600.00
02026            -250.00    -6000.00
02027             116.00    -7200.00
02028             -20.00    -6600.00
02029              14.00    -6800.00
02030              -6.00    -7800.00
02031            -164.00    -7200.00
02032              42.00    -8000.00
02033             -12.00    -8000.00
02034              40.00    -8200.00
02035             -60.00    -8800.00
02036            -154.00    -8400.00
02037              46.00    -9200.00
02038             -12.00    -8800.00
02039             -26.00    -9000.00
02040             -74.00    -9600.00
02041             -66.00    -9400.00
02042              50.00   -10000.00
02043             -38.00    -9800.00
02044             -82.00   -10000.00
02045             -54.00   -10400.00
02046             -38.00   -10200.00
02047              -6.00   -10800.00
02048             -22.00   -10600.00
02049             -70.00   -10800.00
02050             -86.00   -11200.00
02051             -60.00   -11000.00
02052              18.00   -11400.00
02053             -26.00   -11400.00
02054            -106.00   -11800.00
02055             -74.00   -11800.00
02056             -48.00   -12000.00
02057             -30.00   -12000.00
02058             -58.00   -12200.00
02059             -66.00   -12400.00
02060             -60.00   -12400.00
02061             -78.00   -12400.00
02062             -42.00   -12400.00
02063             -50.00   -12800.00
02064             -82.00   -12800.00
02065             -74.00   -13000.00
02066             -60.00   -13000.00
02067             -60.00   -13000.00
02068             -86.00   -13000.00
02069             -72.00   -13200.00
02070             -52.00   -13200.00
02071             -84.00   -13200.00
02072             -86.00   -13400.00
02073             -74.00   -13200.00
02074             -74.00   -13400.00
02075             -76.00   -13600.00
02076             -84.00   -13400.00
02077             -82.00   -13600.00
02078             -90.00   -13600.00
02079             -78.00   -13600.00
02080             -56.00   -13600.00
02081             -86.00   -13400.00
02082            -102.00   -13600.00
02083             -82.00   -13600.00
02084             -68.00   -13600.00
02085             -82.00   -13600.00
02086            -100.00   -13600.00
02087             -86.00   -13600.00
02088             -86.00   -13600.00
02089             -84.00   -13400.00
02090             -76.00   -13600.00
02091             -92.00   -13200.00
02092             -94.00   -13400.00
02093             -86.00   -13200.00
02094             -76.00   -13200.00
02095             -92.00   -13200.00
02096            -122.00   -13200.00
02097            -114.00   -13000.00
02098             -86.00   -13000.00
02099             -66.00   -12800.00
02100             -60.00   -12800.00
02101             -74.00   -12800.00
02102             -82.00   -12600.00
02103             -70.00   -12600.00
02104             -56.00   -12600.00
02105             -60.00   -12200.00
02106             -76.00   -12200.00
02107             -66.00   -12200.00
02108             -54.00   -12000.00
02109             -58.00   -11800.00
02110             -62.00   -12000.00
02111             -62.00   -11600.00
02112             -52.00   -11400.00
02113             -54.00   -11400.00
02114             -54.00   -11000.00
02115             -50.00   -11000.00
02116             -54.00   -10800.00
02117             -50.00   -10600.00
02118             -46.00   -10600.00
02119             -46.00   -10400.00
02120             -48.00   -10400.00
02121             -44.00   -10000.00
02122             -40.00    -9800.00
02123             -46.00    -9800.00
02124             -50.00    -9600.00
02125             -38.00    -9600.00
02126             -36.00    -9200.00
02127             -42.00    -9000.00
02128             -40.00    -8800.00
02129             -36.00    -8800.00
02130             -34.00    -8400.00
02131             -36.00    -8200.00
02132             -36.00    -8000.00
02133             -36.00    -7800.00
02134             -30.00    -7600.00
02135             -22.00    -7400.00
02136             -28.00    -7200.00
02137             -34.00    -6800.00
02138             -32.00    -6600.00
02139             -22.00    -6600.00
02140             -20.00    -6200.00
02141             -30.00    -6000.00
02142             -28.00    -5800.00
02143             -26.00    -5600.00
02144             -22.00    -5400.00
02145             -22.00    -5200.00
02146             -22.00    -4800.00
02147             -20.00    -4400.00
02148             -14.00    -4400.00
02149             -20.00    -4200.00
02150             -22.00    -4000.00
02151             -20.00    -3600.00
02152             -14.00    -3400.00
02153              -8.00    -3000.00
02154             -18.00    -3000.00
02155             -20.00    -2600.00
02156             -18.00    -2400.00
02157             -10.00    -2200.00
02158              -6.00    -2000.00
02159             -10.00    -1600.00
02160             -12.00    -1400.00
02161             -10.00    -1200.00
02162             -10.00     -800.00
02163              -6.00     -600.00
02164             -10.00     -400.00
02165             -10.00     -200.00
02166               2.00        0.00
02167              18.00      400.00
02168              44.00      600.00
02169              18.00      800.00
02170             -30.00     1200.00
02171             -28.00     1200.00
02172              20.00     1600.00
02173              30.00     1800.00
02174              28.00     2000.00
02175             110.00     2400.00
02176             250.00     2800.00
02177              90.00     3000.00
02178            -250.00     3000.00
02179            -250.00     3200.00
02180             250.00     3600.00
02181             250.00     3800.00
02182            -204.00     4000.00
02183            -166.00     4200.00
02184             250.00     4400.00
02185             -44.00     4600.00
02186            -100.00     5200.00
02187              50.00     5200.00
02188             -14.00     5600.00
02189             174.00     6000.00
02190               2.00     5600.00
02191            -138.00     6400.00
02192             -12.00     6400.00
02193              22.00     6600.00
02194             150.00     7000.00
02195              44.00     7000.00
02196            -126.00     7600.00
02197              10.00     7400.00
02198             132.00     7600.00
02199              46.00     8200.00
02200             -86.00     8000.00
02201              20.00     8400.00
02202             108.00     8800.00
02203               2.00     8800.00
02204               2.00     9000.00
02205              20.00     9200.00
02206              24.00     9400.00
02207              36.00     9600.00
02208              62.00     9600.00
02209              52.00    10000.00
02210             -10.00    10000.00
02211              10.00    10200.00
02212              78.00    10400.00
02213              50.00    10400.00
02214               4.00    10800.00
02215              58.00    11000.00
02216              66.00    11200.00
02217              12.00    11200.00
02218              14.00    11400.00
02219              82.00    11600.00
02220              68.00    11800.00
02221              12.00    11600.00
02222              50.00    12000.00
02223              68.00    12000.00
02224              44.00    12000.00
02225              44.00    12200.00
02226              66.00    12400.00
02227              60.00    12400.00
02228              38.00    12600.00
02229              68.00    12400.00
02230              78.00    12800.00
02231              42.00    12800.00
02232              52.00    12800.00
02233              76.00    12800.00
02234              58.00    13200.00
02235              46.00    13200.00
02236              80.00    13200.00
02237              86.00    13200.00
02238              52.00    13200.00
02239              54.00    13200.00
02240              92.00    13400.00
02241              82.00    13600.00
02242              62.00    13400.00
02243              74.00    13400.00
02244              76.00    13600.00
02245              68.00    13600.00
02246              76.00    13600.00
02247              90.00    13600.00
02248              70.00    13600.00
02249              64.00    13600.00
02250              90.00    13400.00
02251              90.00    13600.00
02252              68.00    13600.00
02253              74.00    13600.00
02254              94.00    13600.00
02255              86.00    13400.00
02256              68.00    13400.00
02257              78.00    13400.00
02258              82.00    13400.00
02259              76.00    13200.00
02260              84.00    13200.00
02261              94.00    13200.00
02262             100.00    13200.00
02263             106.00    13200.00
02264             100.00    13000.00
02265              60.00    12800.00
02266              34.00    12800.00
02267              68.00    12800.00
02268              98.00    12600.00
02269              72.00    12600.00
02270              36.00    12400.00
02271              40.00    12400.00
02272              68.00    12400.00
02273              72.00    12400.00
02274              58.00    12000.00
02275              42.00    12000.00
02276              38.00    12000.00
02277              54.00    11800.00
02278              62.00    11600.00
02279              46.00    11200.00
02280              34.00    11200.00
02281              44.00    11200.00
02282              60.00    11000.00
02283              50.00    10800.00
02284              34.00    10800.00
02285              36.00    10600.00
02286              40.00    10200.00
02287              44.00    10200.00
02288              42.00    10000.00
02289              34.00     9800.00
02290              28.00     9600.00
02291              30.00     9400.00
02292              38.00     9200.00
02293              36.00     9000.00
02294              26.00     8800.00
02295              30.00     8600.00
02296              28.00     8400.00
02297              22.00     8200.00
02298              24.00     8200.00
02299              30.00     7800.00
02300              28.00     7800.00
02301              22.00     7200.00
02302              20.00     7200.00
02303              20.00     7000.00
02304              20.00     6800.00
02305              22.00     6600.00
02306              20.00     6400.00
02307              18.00     6000.00
02308              16.00     6000.00
02309              18.00     5600.00
02310              20.00     5600.00
02311              12.00     5200.00
02312              12.00     4800.00
02313              12.00     4600.00
02314              14.00     4400.00
02315              12.00     4200.00
02316               6.00     4000.00
02317               6.00     3800.00
02318              10.00     3400.00
02319              12.00     3200.00
02320              12.00     3000.00
02321               6.00     2800.00
02322               4.00     2400.00
02323               6.00     2200.00
02324               4.00     2000.00
02325               4.00     2000.00
02326               4.00     1400.00
02327               6.00     1200.00
02328               4.00      800.00
02329              -2.00      800.00
02330              -2.00      400.00
02331               4.00      200.00
02332              10.00        0.00
02333              14.00     -200.00
02334              36.00     -400.00
02335              38.00     -800.00
02336             -10.00    -1000.00
02337             -34.00    -1200.00
02338               2.00    -1600.00
02339              34.00    -1800.00
02340              54.00    -1800.00
02341             198.00    -2000.00
02342             250.00    -2800.00
02343            -212.00    -3200.00
02344            -250.00    -3200.00
02345            -250.00    -3600.00
02346             250.00    -3600.00
02347             244.00    -3400.00
02348             156.00    -3600.00
02349             164.00    -4400.00
02350            -250.00    -4400.00
02351             -76.00    -4200.00
02352             250.00    -5600.00
02353             -56.00    -4400.00
02354              50.00    -5600.00
02355            -204.00    -5800.00
02356            -132.00    -5200.00
02357             250.00    -6600.00
02358            -206.00    -6000.00
02359             -62.00    -6600.00
02360             100.00    -7200.00
02361             -70.00    -6400.00
02362              72.00    -7800.00
02363            -140.00    -7400.00
02364             -58.00    -7400.00
02365              38.00    -8400.00
02366             -12.00    -7800.00
02367              38.00    -8800.00
02368            -164.00    -8400.00
02369             -38.00    -8600.00
02370              42.00    -9200.00
02371             -44.00    -8800.00
02372             -30.00    -9600.00
02373             -98.00    -9200.00
02374              10.00    -9600.00
02375              26.00   -10000.00
02376             -84.00    -9800.00
02377             -74.00   -10400.00
02378             -46.00   -10200.00
02379             -16.00   -10400.00
02380              -2.00   -10800.00
02381             -54.00   -10800.00
02382             -88.00   -11200.00
02383             -86.00   -11000.00
02384             -14.00   -11200.00
02385              20.00   -11400.00
02386             -78.00   -11600.00
02387             -98.00   -11600.00
02388             -58.00   -12000.00
02389             -34.00   -11800.00
02390             -36.00   -12200.00
02391             -70.00   -12200.00
02392             -58.00   -12200.00
02393             -74.00   -12400.00
02394             -62.00   -12400.00
02395             -32.00   -12800.00
02396             -66.00   -12600.00
02397             -80.00   -12800.00
02398             -68.00   -12800.00
02399             -58.00   -13000.00
02400             -78.00   -13200.00
02401             -84.00   -13000.00
02402             -54.00   -13200.00
02403             -66.00   -13200.00
02404             -92.00   -13200.00
02405             -82.00   -13200.00
02406             -74.00   -13400.00
02407             -74.00   -13400.00
02408             -70.00   -13400.00
02409             -80.00   -13600.00
02410             -88.00   -13600.00
02411             -94.00   -13600.00
02412             -60.00   -13600.00
02413             -66.00   -13600.00
02414             -94.00   -13600.00
02415             -92.00   -13600.00
02416             -76.00   -13600.00
02417             -70.00   -13600.00
02418             -92.00   -13600.00
02419             -94.00   -13600.00
02420             -86.00   -13400.00
02421             -90.00   -13600.00
02422             -76.00   -13400.00
02423             -82.00   -13400.00
02424             -94.00   -13400.00
02425             -94.00   -13600.00
02426             -84.00   -13200.00
02427             -78.00   -13200.00
02428            -108.00   -13200.00
02429            -118.00   -13000.00
02430            -104.00   -13000.00
02431             -80.00   -13000.00
02432             -58.00   -12800.00
02433             -62.00   -12800.00
02434             -76.00   -12800.00
02435             -78.00   -12600.00
02436             -64.00   -12600.00
02437             -54.00   -12400.00
02438             -68.00   -12200.00
02439             -70.00   -12200.00
02440             -54.00   -12200.00
02441             -54.00   -12000.00
02442             -62.00   -12000.00
02443             -62.00   -11800.00
02444             -54.00   -11600.00
02445             -52.00   -11400.00
02446             -56.00   -11400.00
02447             -50.00   -11200.00
02448             -52.00   -11000.00
02449             -50.00   -10800.00
02450             -46.00   -10800.00
02451             -46.00   -10400.00
02452             -46.00   -10400.00
02453             -42.00   -10200.00
02454             -38.00   -10000.00
02455             -42.00    -9800.00
02456             -50.00    -9600.00
02457             -44.00    -9600.00
02458             -36.00    -9200.00
02459             -36.00    -9200.00
02460             -42.00    -9000.00
02461             -42.00    -8800.00
02462             -34.00    -8400.00
02463             -36.00    -8200.00
02464             -30.00    -8200.00
02465             -30.00    -8000.00
02466             -34.00    -7600.00
02467             -28.00    -7600.00
02468             -28.00    -7200.00
02469             -30.00    -7000.00
02470             -32.00    -6800.00
02471             -22.00    -6600.00
02472             -20.00    -6400.00
02473             -26.00    -6200.00
02474             -28.00    -6000.00
02475             -22.00    -5600.00
02476             -22.00    -5600.00
02477             -22.00    -5200.00
02478             -22.00    -5000.00
02479             -22.00    -4600.00
02480             -16.00    -4400.00
02481             -14.00    -4200.00
02482             -20.00    -4000.00
02483             -22.00    -3600.00
02484             -20.00    -3600.00
02485             -12.00    -3400.00
02486             -12.00    -2800.00
02487             -20.00    -2800.00
02488             -20.00    -2400.00
02489             -10.00    -2400.00
02490              -8.00    -2000.00
02491             -12.00    -1800.00
02492             -12.00    -1600.00
02493             -10.00    -1400.00
02494             -10.00    -1000.00
02495              -6.00     -800.00
02496             -10.00     -600.00
02497             -12.00     -200.00
02498              -6.00        0.00
02499               6.00      200.00
02500              30.00      400.00
02501              38.00      600.00
02502             -12.00      800.00
02503             -36.00     1200.00
02504              -6.00     1400.00
02505              30.00     1800.00
02506              28.00     1800.00
02507              50.00     2200.00
02508             242.00     2400.00
02509             250.00     2800.00
02510            -250.00     3000.00
02511            -250.00     3000.00
02512            -154.00     3600.00
02513             250.00     3800.00
02514             196.00     4000.00
02515            -250.00     4000.00
02516             190.00     4400.00
02517             204.00     4600.00
02518            -166.00     4800.00
02519              18.00     5200.00
02520              -2.00     5200.00
02521              84.00     6000.00
02522             138.00     5600.00
02523            -130.00     6000.00
02524             -70.00     6600.00
02525              20.00     6400.00
02526              84.00     6800.00
02527             144.00     7000.00
02528             -86.00     7200.00
02529             -78.00     7200.00
02530             100.00     7600.00
02531             122.00     8000.00
02532             -44.00     8000.00
02533             -62.00     8200.00
02534              92.00     8600.00
02535              58.00     8600.00
02536             -10.00     8800.00
02537              22.00     9000.00
02538              20.00     9200.00
02539              20.00     9400.00
02540              52.00     9600.00
02541              68.00     9800.00
02542              26.00    10000.00
02543             -18.00    10000.00
02544              52.00    10200.00
02545              76.00    10400.00
02546              12.00    10800.00
02547              24.00    10800.00
02548              80.00    11000.00
02549              38.00    11200.00
02550              -6.00    11200.00
02551              48.00    11400.00
02552              92.00    11600.00
02553              36.00    11800.00
02554              18.00    11800.00
02555              60.00    12000.00
02556              52.00    12000.00
02557              42.00    12200.00
02558              66.00    12400.00
02559              68.00    12400.00
02560              42.00    12600.00
02561              46.00    12600.00
02562              82.00    12800.00
02563              58.00    12600.00
02564              38.00    12800.00
02565              68.00    13000.00
02566              70.00    13200.00
02567              50.00    13000.00
02568              64.00    13200.00
02569              94.00    13200.00
02570              66.00    13400.00
02571              36.00    13200.00
02572              76.00    13400.00
02573              94.00    13400.00
02574              68.00    13400.00
02575              66.00    13400.00
02576              76.00    13600.00
02577              74.00    13600.00
02578              68.00    13600.00
02579              86.00    13600.00
02580              84.00    13600.00
02581              58.00    13600.00
02582              76.00    13600.00
02583             100.00    13600.00
02584              82.00    13600.00
02585              64.00    13600.00
02586              84.00    13400.00
02587              94.00    13600.00
02588              76.00    13400.00
02589              74.00    13600.00
02590              84.00    13400.00
02591              78.00    13400.00
02592              74.00    13400.00
02593              90.00    13200.00
02594             100.00    13200.00
02595             104.00    13200.00
02596             108.00    13200.00
02597              86.00    13200.00
02598              42.00    12800.00
02599              44.00    12800.00
02600              86.00    12600.00
02601              90.00    12600.00
02602              54.00    12600.00
02603              34.00    12400.00
02604              54.00    12400.00
02605              74.00    12200.00
02606              66.00    12000.00
02607              54.00    12000.00
02608              38.00    11800.00
02609              44.00    12000.00
02610              60.00    11600.00
02611              58.00    11600.00
02612              38.00    11400.00
02613              36.00    11200.00
02614              52.00    11200.00
02615              56.00    10800.00
02616              38.00    10800.00
02617              34.00    10600.00
02618              42.00    10400.00
02619              44.00    10400.00
02620              42.00    10000.00
02621              36.00    10000.00
02622              28.00     9800.00
02623              28.00     9400.00
02624              36.00     9400.00
02625              40.00     9200.00
02626              26.00     8800.00
02627              26.00     8800.00
02628              32.00     8600.00
02629              30.00     8400.00
02630              22.00     8200.00
02631              26.00     7800.00
02632              28.00     7800.00
02633              22.00     7600.00
02634              24.00     7200.00
02635              24.00     7200.00
02636              18.00     6800.00
02637              18.00     6800.00
02638              22.00     6600.00
02639              20.00     6200.00
02640              18.00     6000.00
02641              14.00     5800.00
02642              14.00     5600.00
02643              10.00     5400.00
02644              12.00     5000.00
02645              18.00     4800.00
02646              16.00     4600.00
02647              18.00     4400.00
02648              12.00     4000.00
02649               4.00     3800.00
02650               4.00     3600.00
02651              10.00     3400.00
02652              18.00     3000.00
02653              14.00     2800.00
02654               2.00     2400.00
02655               0.00     2200.00
02656               4.00     2000.00
02657               6.00     2000.00
02658               4.00     1600.00
02659               8.00     1400.00
02660               6.00     1200.00
02661              -4.00      800.00
02662              -4.00      600.00
02663               6.00      400.00
02664              10.00        0.00
02665               6.00     -200.00
02666              20.00     -400.00
02667              50.00     -600.00
02668              16.00    -1000.00
02669             -26.00    -1200.00
02670             -22.00    -1400.00
02671              18.00    -1600.00
02672              38.00    -1800.00
02673              94.00    -2000.00
02674             250.00    -2400.00
02675             190.00    -2800.00
02676            -250.00    -3200.00
02677            -250.00    -3200.00
02678             118.00    -3600.00
02679             250.00    -3400.00
02680              82.00    -3600.00
02681             250.00    -4000.00
02682            -250.00    -4800.00
02683            -250.00    -4000.00
02684             250.00    -5200.00
02685             176.00    -5000.00
02686             -54.00    -4600.00
02687              -2.00    -6200.00
02688            -250.00    -5600.00
02689             194.00    -6000.00
02690              90.00    -6400.00
02691            -250.00    -5800.00
02692             116.00    -7200.00
02693             -26.00    -6600.00
02694              14.00    -6800.00
02695             -10.00    -8000.00
02696            -162.00    -7000.00
02697              42.00    -8200.00
02698             -12.00    -8000.00
02699              42.00    -8200.00
02700             -64.00    -8800.00
02701            -150.00    -8200.00
02702              50.00    -9400.00
02703             -18.00    -9000.00
02704             -26.00    -9200.00
02705             -70.00    -9600.00
02706             -62.00    -9200.00
02707              50.00   -10000.00
02708             -42.00    -9600.00
02709             -84.00   -10000.00
02710             -54.00   -10400.00
02711             -34.00   -10200.00
02712              -2.00   -10800.00
02713             -26.00   -10600.00
02714             -76.00   -10800.00
02715             -92.00   -11200.00
02716             -58.00   -11200.00
02717              22.00   -11400.00
02718             -22.00   -11400.00
02719            -102.00   -11600.00
02720             -76.00   -11800.00
02721             -50.00   -12000.00
02722             -28.00   -12000.00
02723             -52.00   -12200.00
02724             -62.00   -12200.00
02725             -62.00   -12400.00
02726             -80.00   -12400.00
02727             -42.00   -12600.00
02728             -46.00   -12800.00
02729             -78.00   -12800.00
02730             -74.00   -12800.00
02731             -60.00   -12800.00
02732             -62.00   -13000.00
02733             -82.00   -13000.00
02734             -70.00   -13200.00
02735             -54.00   -13200.00
02736             -84.00   -13200.00
02737             -88.00   -13200.00
02738             -74.00   -13400.00
02739             -70.00   -13200.00
02740             -70.00   -13600.00
02741             -80.00   -13600.00
02742             -84.00   -13600.00
02743             -94.00   -13400.00
02744             -76.00   -13600.00
02745             -58.00   -13600.00
02746             -84.00   -13400.00
02747            -100.00   -13600.00
02748             -84.00   -13600.00
02749             -70.00   -13600.00
02750             -82.00   -13600.00
02751            -100.00   -13600.00
02752             -86.00   -13600.00
02753             -90.00   -13600.00
02754             -84.00   -13600.00
02755             -76.00   -13600.00
02756             -92.00   -13200.00
02757             -98.00   -13200.00
02758             -86.00   -13200.00
02759             -76.00   -13200.00
02760             -94.00   -13200.00
02761            -122.00   -13200.00
02762            -114.00   -13200.00
02763             -90.00   -13000.00
02764             -62.00   -12800.00
02765             -56.00   -13000.00
02766             -76.00   -12600.00
02767             -82.00   -12600.00
02768             -70.00   -12800.00
02769             -56.00   -12600.00
02770             -58.00   -12400.00
02771             -76.00   -12200.00
02772             -68.00   -12200.00
02773             -54.00   -12000.00
02774             -54.00   -12000.00
02775             -60.00   -12000.00
02776             -62.00   -11600.00
02777             -54.00   -11400.00
02778             -54.00   -11400.00
02779             -50.00   -11200.00
02780             -46.00   -11000.00
02781             -52.00   -10800.00
02782             -50.00   -10800.00
02783             -44.00   -10600.00
02784             -46.00   -10400.00
02785             -46.00   -10200.00
02786             -42.00    -9800.00
02787             -40.00   -10000.00
02788             -46.00    -9600.00
02789             -44.00    -9600.00
02790             -36.00    -9600.00
02791             -38.00    -9200.00
02792             -38.00    -9000.00
02793             -42.00    -8800.00
02794             -36.00    -8600.00
02795             -34.00    -8400.00
02796             -34.00    -8200.00
02797             -30.00    -8000.00
02798             -34.00    -7800.00
02799             -28.00    -7600.00
02800             -22.00    -7200.00
02801             -30.00    -7400.00
02802             -34.00    -7000.00
02803             -30.00    -6600.00
02804             -22.00    -6400.00
02805             -20.00    -6200.00
02806             -30.00    -6000.00
02807             -28.00    -5800.00
02808             -22.00    -5600.00
02809             -22.00    -5200.00
02810             -22.00    -5000.00
02811             -22.00    -4600.00
02812             -22.00    -4600.00
02813             -20.00    -4400.00
02814             -18.00    -4200.00
02815             -20.00    -3800.00
02816             -22.00    -3600.00
02817             -20.00    -3400.00
02818             -10.00    -3000.00
02819             -16.00    -2800.00
02820             -20.00    -2600.00
02821             -16.00    -2400.00
02822             -12.00    -2200.00
02823             -10.00    -2000.00
02824             -10.00    -1800.00
02825             -10.00    -1400.00
02826             -12.00    -1200.00
02827             -12.00     -800.00
02828             -10.00     -800.00
02829              -8.00     -400.00
02830              -8.00     -200.00
02831               2.00        0.00
02832              18.00      400.00
02833              42.00      600.00
02834              14.00      800.00
02835             -28.00     1000.00
02836             -28.00     1200.00
02837              18.00     1600.00
02838              30.00     1800.00
02839              30.00     2000.00
02840             114.00     2200.00
02841             250.00     2800.00
02842              84.00     3000.00
02843            -250.00     3200.00
02844            -250.00     3400.00
02845             250.00     3600.00
02846             250.00     4000.00
02847            -212.00     4000.00
02848            -156.00     4200.00
02849             250.00     4400.00
02850             -50.00     4600.00
02851             -94.00     5200.00
02852              52.00     5200.00
02853             -12.00     5400.00
02854             166.00     6000.00
02855              -6.00     5600.00
02856            -134.00     6400.00
02857              -4.00     6400.00
02858              30.00     6600.00
02859             144.00     7000.00
02860              34.00     7000.00
02861            -124.00     7400.00
02862              22.00     7400.00
02863             140.00     7800.00
02864              42.00     8200.00
02865             -94.00     8000.00
02866              16.00     8400.00
02867             108.00     8600.00
02868              12.00     8600.00
02869               6.00     9000.00
02870              12.00     9200.00
02871              14.00     9400.00
02872              40.00     9400.00
02873              66.00     9600.00
02874              52.00    10000.00
02875             -10.00    10000.00
02876              14.00    10200.00
02877              78.00    10400.00
02878              48.00    10600.00
02879              -2.00    10800.00
02880              58.00    10800.00
02881              66.00    11000.00
02882              10.00    11200.00
02883              14.00    11200.00
02884              82.00    11600.00
02885              68.00    11800.00
02886              12.00    11800.00
02887              42.00    11800.00
02888              60.00    12000.00
02889              44.00    12000.00
02890              50.00    12200.00
02891              72.00    12400.00
02892              54.00    12400.00
02893              36.00    12600.00
02894              70.00    12600.00
02895              74.00    12800.00
02896              40.00    12600.00
02897              58.00    12800.00
02898              82.00    12800.00
02899              58.00    13200.00
02900              44.00    13000.00
02901              84.00    13200.00
02902              86.00    13200.00
02903              46.00    13200.00
02904              54.00    13400.00
02905              88.00    13400.00
02906              74.00    13200.00
02907              62.00    13600.00
02908              80.00    13400.00
02909              82.00    13400.00
02910              66.00    13600.00
02911              74.00    13600.00
02912              92.00    13600.00
02913              68.00    13600.00
02914              64.00    13600.00
02915              90.00    13600.00
02916              90.00    13600.00
02917              68.00    13600.00
02918              76.00    13600.00
02919              98.00    13600.00
02920              84.00    13400.00
02921              68.00    13600.00
02922              82.00    13400.00
02923              86.00    13400.00
02924              74.00    13400.00
02925              80.00    13200.00
02926              94.00    13200.00
02927             102.00    13200.00
02928             108.00    13000.00
02929             102.00    13000.00
02930              62.00    12800.00
02931              34.00    12800.00
02932              66.00    12800.00
02933             100.00    12600.00
02934              74.00    12600.00
02935              38.00    12400.00
02936              44.00    12400.00
02937              66.00    12400.00
02938              72.00    12200.00
02939              62.00    12200.00
02940              46.00    12000.00
02941              38.00    11800.00
02942              50.00    11800.00
02943              60.00    11600.00
02944              50.00    11200.00
02945              36.00    11000.00
02946              46.00    11000.00
02947              56.00    11000.00
02948              42.00    10800.00
02949              30.00    10600.00
02950              38.00    10400.00
02951              44.00    10200.00
02952              38.00    10000.00
02953              36.00    10000.00
02954              32.00     9600.00
02955              28.00     9600.00
02956              36.00     9400.00
02957              42.00     9200.00
02958              30.00     9200.00
02959              22.00     8800.00
02960              30.00     8800.00
02961              36.00     8400.00
02962              24.00     8400.00
02963              18.00     8000.00
02964              26.00     8000.00
02965              34.00     7800.00
02966              26.00     7600.00
02967              20.00     7000.00
02968              18.00     7000.00
02969              18.00     6800.00
02970              26.00     6400.00
02971              26.00     6400.00
02972              18.00     6200.00
02973              12.00     6000.00
02974              18.00     5600.00
02975              20.00     5400.00
02976              14.00     5200.00
02977              12.00     4800.00
02978              18.00     4600.00
02979              16.00     4400.00
02980               6.00     4200.00
02981               6.00     4000.00
02982              10.00     3600.00
02983              12.00     3400.00
02984              14.00     3200.00
02985              12.00     2800.00
02986               4.00     2800.00
02987               4.00     2400.00
02988              10.00     2200.00
02989              10.00     2000.00
02990               6.00     1600.00
02991               4.00     1400.00
02992               6.00     1200.00
02993               4.00     1000.00
02994               2.00      600.00
02995               2.00      400.00
02996               4.00      200.00
02997               4.00        0.00
02998              12.00     -200.00
02999              42.00     -400.00
03000              42.00     -800.00
03001             -10.00    -1000.00
03002             -36.00    -1400.00
03003              -4.00    -1600.00
03004              32.00    -1800.00
03005              56.00    -1800.00
03006             202.00    -2000.00
03007             250.00    -2600.00
03008            -220.00    -3000.00
03009            -250.00    -3200.00
03010            -250.00    -3600.00
03011             250.00    -3400.00
03012             238.00    -3600.00
03013             160.00    -3600.00
03014             164.00    -4400.00
03015            -250.00    -4400.00
03016             -74.00    -4400.00
03017             250.00    -5600.00
03018             -60.00    -4600.00
03019              58.00    -5600.00
03020            -204.00    -6000.00
03021            -130.00    -5600.00
03022             250.00    -6600.00
03023            -214.00    -6000.00
03024             -62.00    -6600.00
03025             102.00    -7200.00
03026             -68.00    -6400.00
03027              70.00    -8000.00
03028            -146.00    -7400.00
03029             -54.00    -7600.00
03030              40.00    -8400.00
03031             -12.00    -7800.00
03032              36.00    -8800.00
03033            -162.00    -8400.00
03034             -38.00    -8800.00
03035              42.00    -9200.00
03036             -38.00    -8800.00
03037             -28.00    -9600.00
03038            -102.00    -9200.00
03039               4.00    -9600.00
03040              22.00   -10000.00
03041             -76.00    -9600.00
03042             -62.00   -10600.00
03043             -46.00   -10200.00
03044             -18.00   -10400.00
03045              -4.00   -10800.00
03046             -50.00   -10800.00
03047             -86.00   -11200.00
03048             -86.00   -11200.00
03049             -18.00   -11400.00
03050              20.00   -11400.00
03051             -76.00   -11600.00
03052             -92.00   -12000.00
03053             -60.00   -12000.00
03054             -42.00   -12000.00
03055             -36.00   -12200.00
03056             -62.00   -12200.00
03057             -54.00   -12400.00
03058             -76.00   -12400.00
03059             -64.00   -12400.00
03060             -38.00   -12800.00
03061             -68.00   -12600.00
03062             -78.00   -12800.00
03063             -64.00   -12800.00
03064             -60.00   -13000.00
03065             -76.00   -13200.00
03066             -82.00   -13000.00
03067             -54.00   -13200.00
03068             -68.00   -13200.00
03069             -92.00   -13200.00
03070             -80.00   -13400.00
03071             -78.00   -13200.00
03072             -70.00   -13600.00
03073             -74.00   -13400.00
03074             -84.00   -13600.00
03075             -92.00   -13600.00
03076             -94.00   -13600.00
03077             -62.00   -13600.00
03078             -70.00   -13600.00
03079            -100.00   -13600.00
03080             -90.00   -13600.00
03081             -76.00   -13600.00
03082             -76.00   -13600.00
03083             -92.00   -13600.00
03084             -94.00   -13600.00
03085             -86.00   -13600.00
03086             -86.00   -13600.00
03087             -78.00   -13600.00
03088             -86.00   -13600.00
03089             -98.00   -13400.00
03090             -92.00   -13200.00
03091             -80.00   -13400.00
03092             -78.00   -13200.00
03093            -110.00   -13200.00
03094            -122.00   -13000.00
03095            -106.00   -13000.00
03096             -76.00   -13000.00
03097             -54.00   -12800.00
03098             -62.00   -12800.00
03099             -82.00   -12800.00
03100             -80.00   -12600.00
03101             -62.00   -12600.00
03102             -52.00   -12400.00
03103             -68.00   -12400.00
03104             -74.00   -12200.00
03105             -60.00   -12000.00
03106             -56.00   -12000.00
03107             -60.00   -11800.00
03108             -60.00   -11600.00
03109             -58.00   -11400.00
03110             -52.00   -11400.00
03111             -54.00   -11200.00
03112             -46.00   -11000.00
03113             -50.00   -11000.00
03114             -52.00   -10800.00
03115             -44.00   -10600.00
03116             -46.00   -10400.00
03117             -46.00   -10400.00
03118             -42.00   -10200.00
03119             -38.00   -10000.00
03120             -44.00    -9800.00
03121             -50.00    -9600.00
03122             -38.00    -9600.00
03123             -34.00    -9200.00
03124             -36.00    -9000.00
03125             -38.00    -8800.00
03126             -38.00    -8800.00
03127             -30.00    -8600.00
03128             -36.00    -8400.00
03129             -34.00    -8200.00
03130             -30.00    -7800.00
03131             -34.00    -7800.00
03132             -22.00    -7600.00
03133             -28.00    -7200.00
03134             -34.00    -7200.00
03135             -30.00    -6800.00
03136             -22.00    -6600.00
03137             -20.00    -6400.00
03138             -26.00    -6200.00
03139             -30.00    -6000.00
03140             -26.00    -5600.00
03141             -22.00    -5600.00
03142             -22.00    -5400.00
03143             -26.00    -5000.00
03144             -26.00    -4600.00
03145             -22.00    -4400.00
03146             -18.00    -4200.00
03147             -18.00    -4000.00
03148             -20.00    -3800.00
03149             -22.00    -3600.00
03150             -14.00    -3400.00
03151             -14.00    -3200.00
03152             -18.00    -2800.00
03153             -18.00    -2600.00
03154             -14.00    -2200.00
03155             -12.00    -2000.00
03156             -10.00    -1800.00
03157             -10.00    -1600.00
03158              -6.00    -1400.00
03159             -12.00    -1200.00
03160             -12.00     -800.00
03161              -8.00     -400.00
03162             -10.00     -200.00
03163              -4.00        0.00
03164               8.00      400.00
03165              30.00      400.00
03166              34.00      600.00
03167             -12.00     1000.00
03168             -36.00     1200.00
03169              -6.00     1400.00
03170              28.00     1800.00
03171              28.00     2000.00
03172              52.00     2200.00
03173             244.00     2400.00
03174             250.00     3000.00
03175            -250.00     3000.00
03176            -250.00     3200.00
03177            -146.00     3600.00
03178             250.00     3800.00
03179             194.00     3800.00
03180            -250.00     4000.00
03181             194.00     4400.00
03182             210.00     4600.00
03183            -164.00     4800.00
03184              18.00     5200.00
03185              -6.00     5200.00
03186              84.00     6000.00
03187             146.00     5600.00
03188            -126.00     6000.00
03189             -74.00     6600.00
03190              10.00     6400.00
03191              84.00     6800.00
03192             150.00     7000.00
03193             -84.00     7200.00
03194             -84.00     7600.00
03195              92.00     7600.00
03196             118.00     8200.00
03197             -42.00     8200.00
03198             -60.00     8200.00
03199              94.00     8600.00
03200              58.00     8800.00
03201             -14.00     8800.00
03202              18.00     9000.00
03203              22.00     9200.00
03204              26.00     9400.00
03205              50.00     9400.00
03206              66.00     9800.00
03207              18.00    10000.00
03208             -14.00    10000.00
03209              52.00    10200.00
03210              76.00    10400.00
03211              12.00    10800.00
03212              20.00    10800.00
03213              74.00    11000.00
03214              38.00    11200.00
03215               0.00    11200.00
03216              50.00    11200.00
03217              86.00    11600.00
03218              32.00    11800.00
03219              18.00    11800.00
03220              66.00    12000.00
03221              54.00    12200.00
03222              38.00    12200.00
03223              58.00    12200.00
03224              70.00    12400.00
03225              42.00    12400.00
03226              46.00    12600.00
03227              84.00    12600.00
03228              62.00    12800.00
03229              34.00    12800.00
03230              66.00    12800.00
03231              76.00    13200.00
03232              54.00    13200.00
03233              58.00    13200.00
03234              90.00    13400.00
03235              68.00    13200.00
03236              40.00    13400.00
03237              74.00    13400.00
03238              96.00    13400.00
03239              68.00    13400.00
03240              60.00    13400.00
03241              76.00    13600.00
03242              78.00    13600.00
03243              68.00    13400.00
03244              82.00    13600.00
03245              84.00    13600.00
03246              68.00    13600.00
03247              78.00    13600.00
03248              94.00    13600.00
03249              78.00    13600.00
03250              60.00    13600.00
03251              86.00    13600.00
03252             104.00    13400.00
03253              82.00    13600.00
03254              68.00    13400.00
03255              74.00    13600.00
03256              80.00    13200.00
03257              84.00    13400.00
03258              90.00    13200.00
03259              96.00    13200.00
03260             100.00    13200.00
03261             106.00    13000.00
03262              88.00    12800.00
03263              46.00    13000.00
03264              46.00    12800.00
03265              78.00    12800.00
03266              86.00    12600.00
03267              58.00    12600.00
03268              42.00    12600.00
03269              52.00    12400.00
03270              66.00    12200.00
03271              62.00    12000.00
03272              56.00    12000.00
03273              42.00    12000.00
03274              46.00    11800.00
03275              58.00    11600.00
03276              52.00    11400.00
03277              34.00    11200.00
03278              38.00    11200.00
03279              54.00    11000.00
03280              56.00    10800.00
03281              36.00    10600.00
03282              28.00    10600.00
03283              38.00    10400.00
03284              44.00    10200.00
03285              40.00    10000.00
03286              34.00     9800.00
03287              30.00     9600.00
03288              28.00     9400.00
03289              34.00     9200.00
03290              36.00     9200.00
03291              28.00     8800.00
03292              26.00     8800.00
03293              28.00     8600.00
03294              28.00     8400.00
03295              22.00     8200.00
03296              20.00     8000.00
03297              28.00     7800.00
03298              28.00     7600.00
03299              22.00     7400.00
03300              20.00     7200.00
03301              20.00     6800.00
03302              22.00     6600.00
03303              26.00     6400.00
03304              20.00     6200.00
03305              14.00     6000.00
03306              18.00     5800.00
03307              20.00     5600.00
03308              16.00     5400.00
03309              10.00     5200.00
03310              14.00     4800.00
03311              18.00     4600.00
03312              18.00     4400.00
03313              10.00     4000.00
03314               6.00     3800.00
03315              12.00     3600.00
03316              16.00     3200.00
03317              18.00     3200.00
03318              20.00     3000.00
03319              14.00     2800.00
03320             -38.00     2400.00
03321              18.00     2000.00
03322              -4.00     2000.00
03323              10.00     1800.00
03324             -38.00     1200.00
03325               4.00     1200.00
03326              84.00      800.00
03327              36.00      800.00
03328              -6.00      400.00
03329             -58.00        0.00
03330              34.00        0.00
03331              34.00     -600.00
03332             -12.00     -400.00
03333             -28.00     -800.00
03334             -12.00    -1200.00
03335              52.00    -1400.00
03336              42.00    -1600.00
03337              10.00    -1800.00
03338              90.00    -2000.00
03339             250.00    -2400.00
03340             204.00    -3000.00
03341            -250.00    -3200.00
03342            -250.00    -3400.00
03343             112.00    -3600.00
03344             250.00    -3600.00
03345             116.00    -3400.00
03346             250.00    -4000.00
03347            -250.00    -4800.00
03348            -250.00    -4400.00
03349             250.00    -5000.00
03350             162.00    -5000.00
03351             -70.00    -4800.00
03352              -6.00    -6000.00
03353            -250.00    -5600.00
03354             188.00    -6000.00
03355              80.00    -6600.00
03356            -240.00    -5800.00
03357             142.00    -7400.00
03358             -30.00    -6600.00
03359              14.00    -7000.00
03360             -14.00    -8000.00
03361            -158.00    -7000.00
03362              36.00    -8200.00
03363             -30.00    -8000.00
03364              38.00    -8200.00
03365             -54.00    -8600.00
03366            -140.00    -8200.00
03367              52.00    -9200.00
03368             -12.00    -9000.00
03369             -16.00    -9000.00
03370             -76.00    -9800.00
03371             -76.00    -9200.00
03372              38.00   -10000.00
03373             -40.00    -9600.00
03374             -82.00   -10200.00
03375             -52.00   -10400.00
03376             -30.00   -10400.00
03377               6.00   -10800.00
03378             -20.00   -10600.00
03379             -76.00   -11000.00
03380             -98.00   -11000.00
03381             -62.00   -11000.00
03382              20.00   -11400.00
03383             -20.00   -11600.00
03384            -108.00   -11800.00
03385             -78.00   -11800.00
03386             -46.00   -12000.00
03387             -20.00   -12000.00
03388             -46.00   -12200.00
03389             -66.00   -12400.00
03390             -66.00   -12400.00
03391             -82.00   -12400.00
03392             -38.00   -12400.00
03393             -52.00   -12800.00
03394             -78.00   -12800.00
03395             -74.00   -12800.00
03396             -62.00   -13000.00
03397             -62.00   -13000.00
03398             -86.00   -13200.00
03399             -68.00   -13000.00
03400             -52.00   -13200.00
03401             -82.00   -13200.00
03402             -88.00   -13200.00
03403             -78.00   -13400.00
03404             -76.00   -13400.00
03405             -70.00   -13600.00
03406             -80.00   -13600.00
03407             -86.00   -13600.00
03408             -94.00   -13600.00
03409             -78.00   -13600.00
03410             -60.00   -13600.00
03411             -90.00   -13600.00
03412            -100.00   -13600.00
03413             -84.00   -13600.00
03414             -70.00   -13600.00
03415             -84.00   -13600.00
03416            -102.00   -13600.00
03417             -92.00   -13600.00
03418             -88.00   -13600.00
03419             -84.00   -13600.00
03420             -82.00   -13600.00
03421             -94.00   -13400.00
03422             -94.00   -13400.00
03423             -86.00   -13600.00
03424             -82.00   -13200.00
03425             -94.00   -13200.00
03426            -124.00   -13000.00
03427            -114.00   -13200.00
03428             -90.00   -13000.00
03429             -66.00   -13000.00
03430             -58.00   -12800.00
03431             -72.00   -12800.00
03432             -82.00   -12800.00
03433             -70.00   -12600.00
03434             -56.00   -12400.00
03435             -60.00   -12400.00
03436             -76.00   -12400.00
03437             -64.00   -12200.00
03438             -54.00   -12000.00
03439             -58.00   -12000.00
03440             -60.00   -11800.00
03441             -60.00   -11600.00
03442             -52.00   -11400.00
03443             -52.00   -11200.00
03444             -52.00   -11000.00
03445             -46.00   -11000.00
03446             -52.00   -10800.00
03447             -48.00   -10600.00
03448             -46.00   -10600.00
03449             -48.00   -10400.00
03450             -44.00   -10200.00
03451             -42.00   -10000.00
03452             -38.00    -9800.00
03453             -48.00    -9800.00
03454             -46.00    -9600.00
03455             -36.00    -9400.00
03456             -36.00    -9200.00
03457             -38.00    -9000.00
03458             -42.00    -8800.00
03459             -34.00    -8600.00
03460             -30.00    -8400.00
03461             -36.00    -8400.00
03462             -34.00    -8000.00
03463             -36.00    -7800.00
03464             -30.00    -7600.00
03465             -26.00    -7400.00
03466             -28.00    -7200.00
03467             -34.00    -6800.00
03468             -28.00    -6800.00
03469             -22.00    -6400.00
03470             -22.00    -6400.00
03471             -30.00    -6000.00
03472             -30.00    -5600.00
03473             -22.00    -5600.00
03474             -22.00    -5200.00
03475             -22.00    -5200.00
03476             -24.00    -4800.00
03477             -22.00    -4600.00
03478             -18.00    -4400.00
03479             -18.00    -4200.00
03480             -20.00    -4000.00
03481             -20.00    -3600.00
03482             -20.00    -3400.00
03483             -10.00    -3200.00
03484             -14.00    -2800.00
03485             -20.00    -2600.00
03486             -20.00    -2400.00
03487             -10.00    -2000.00
03488             -10.00    -2000.00
03489              -8.00    -1800.00
03490             -10.00    -1400.00
03491             -12.00    -1200.00
03492             -12.00     -800.00
03493              -6.00     -600.00
03494              -4.00     -400.00
03495              -6.00     -200.00
03496               2.00      200.00
03497              12.00      400.00
03498              46.00      600.00
03499              18.00      800.00
03500             -28.00      800.00
03501             -28.00     1200.00
03502              14.00     1600.00
03503              30.00     1800.00
03504              32.00     2000.00
03505             118.00     2400.00
03506             250.00     2800.00
03507              78.00     3000.00
03508            -250.00     3200.00
03509            -250.00     3400.00
03510             250.00     3600.00
03511             250.00     3800.00
03512            -220.00     4000.00
03513            -154.00     4200.00
03514             250.00     4600.00
03515             -48.00     4400.00
03516            -100.00     5200.00
03517              44.00     5200.00
03518              -6.00     5600.00
03519             180.00     6000.00
03520              -4.00     5400.00
03521            -142.00     6400.00
03522             -14.00     6400.00
03523              30.00     6400.00
03524             156.00     6800.00
03525              42.00     7200.00
03526            -132.00     7200.00
03527              12.00     7600.00
03528             138.00     7600.00
03529              50.00     8400.00
03530             -86.00     8000.00
03531              18.00     8400.00
03532             100.00     8600.00
03533              -2.00     8800.00
03534               2.00     9000.00
03535              26.00     9200.00
03536              20.00     9400.00
03537              34.00     9600.00
03538              58.00     9600.00
03539              50.00    10000.00
03540              -6.00    10000.00
03541              14.00    10200.00
03542              76.00    10400.00
03543              42.00    10600.00
03544               0.00    10600.00
03545              58.00    10800.00
03546              66.00    11000.00
03547              12.00    11200.00
03548              18.00    11200.00
03549              78.00    11400.00
03550              66.00    11800.00
03551              12.00    11800.00
03552              44.00    11800.00
03553              66.00    12000.00
03554              36.00    12200.00
03555              44.00    12400.00
03556              68.00    12400.00
03557              58.00    12600.00
03558              42.00    12400.00
03559              68.00    12600.00
03560              76.00    12800.00
03561              38.00    12800.00
03562              52.00    13000.00
03563              84.00    13000.00
03564              66.00    13200.00
03565              48.00    13200.00
03566              76.00    13200.00
03567              84.00    13200.00
03568              46.00    13400.00
03569              58.00    13400.00
03570              92.00    13400.00
03571              82.00    13600.00
03572              66.00    13400.00
03573              74.00    13600.00
03574              78.00    13600.00
03575              68.00    13600.00
03576              76.00    13600.00
03577              90.00    13600.00
03578              70.00    13600.00
03579              66.00    13600.00
03580              92.00    13600.00
03581              90.00    13600.00
03582              68.00    13600.00
03583              68.00    13400.00
03584              94.00    13600.00
03585              90.00    13600.00
03586              70.00    13400.00
03587              78.00    13400.00
03588              80.00    13400.00
03589              76.00    13400.00
03590              84.00    13200.00
03591              94.00    13200.00
03592             100.00    13200.00
03593             104.00    13000.00
03594             102.00    13000.00
03595              62.00    12800.00
03596              34.00    12800.00
03597              62.00    12800.00
03598              92.00    12600.00
03599              70.00    12600.00
03600              38.00    12600.00
03601              44.00    12400.00
03602              66.00    12400.00
03603              68.00    12400.00
03604              58.00    12000.00
03605              46.00    12000.00
03606              38.00    11800.00
03607              52.00    11800.00
03608              60.00    11600.00
03609              46.00    11200.00
03610              34.00    11200.00
03611              44.00    11200.00
03612              56.00    11000.00
03613              42.00    10800.00
03614              30.00    10800.00
03615              36.00    10400.00
03616              44.00    10400.00
03617              42.00    10200.00
03618              38.00    10000.00
03619              30.00    10000.00
03620              28.00     9600.00
03621              36.00     9400.00
03622              38.00     9200.00
03623              30.00     9200.00
03624              26.00     8800.00
03625              32.00     8600.00
03626              34.00     8400.00
03627              26.00     8400.00
03628              20.00     8000.00
03629              26.00     7800.00
03630              28.00     7800.00
03631              26.00     7400.00
03632              20.00     7200.00
03633              18.00     6800.00
03634              20.00     6800.00
03635              26.00     6600.00
03636              26.00     6400.00
03637              18.00     6200.00
03638              14.00     6000.00
03639              22.00     5800.00
03640              18.00     5600.00
03641              12.00     5200.00
03642              12.00     5000.00
03643              18.00     4600.00
03644              16.00     4400.00
03645              10.00     4200.00
03646               8.00     4000.00
03647               6.00     3600.00
03648              10.00     3600.00
03649              16.00     3200.00
03650              12.00     3000.00
03651               4.00     2800.00
03652               4.00     2400.00
03653              10.00     2200.00
03654              10.00     2000.00
03655               4.00     1800.00
03656               2.00     1400.00
03657               8.00     1200.00
03658               4.00      800.00
03659               2.00      600.00
03660              -2.00      400.00
03661               2.00      200.00
03662               6.00        0.00
03663              14.00     -400.00
03664              38.00     -400.00
03665              36.00     -800.00
03666             -10.00    -1200.00
03667             -36.00    -1200.00
03668               2.00    -1600.00
03669              34.00    -1600.00
03670              54.00    -1800.00
03671             204.00    -2200.00
03672             250.00    -2600.00
03673            -222.00    -3200.00
03674            -250.00    -3200.00
03675            -250.00    -3600.00
03676             250.00    -3600.00
03677             234.00    -3600.00
03678             156.00    -3600.00
03679             154.00    -4400.00
03680            -250.00    -4400.00
03681             -58.00    -4400.00
03682             250.00    -5400.00
03683             -62.00    -4400.00
03684              54.00    -5600.00
03685            -214.00    -6000.00
03686            -122.00    -5600.00
03687             250.00    -6800.00
03688            -214.00    -6000.00
03689             -58.00    -6400.00
03690             100.00    -7200.00
03691             -64.00    -6400.00
03692              74.00    -7800.00
03693            -142.00    -7400.00
03694             -52.00    -7600.00
03695              38.00    -8400.00
03696             -10.00    -8000.00
03697              38.00    -8800.00
03698            -164.00    -8400.00
03699             -38.00    -8800.00
03700              36.00    -9200.00
03701             -38.00    -8800.00
03702             -26.00    -9600.00
03703            -100.00    -9400.00
03704              10.00    -9600.00
03705              18.00   -10000.00
03706             -78.00    -9800.00
03707             -62.00   -10400.00
03708             -44.00   -10200.00
03709             -18.00   -10600.00
03710              -6.00   -10800.00
03711             -54.00   -10800.00
03712             -84.00   -11200.00
03713             -82.00   -11000.00
03714             -14.00   -11200.00
03715              16.00   -11400.00
03716             -82.00   -11600.00
03717             -94.00   -11800.00
03718             -54.00   -12000.00
03719             -36.00   -12000.00
03720             -36.00   -12000.00
03721             -70.00   -12200.00
03722             -56.00   -12200.00
03723             -70.00   -12400.00
03724             -62.00   -12400.00
03725             -36.00   -12800.00
03726             -70.00   -12800.00
03727             -84.00   -12800.00
03728             -68.00   -12800.00
03729             -60.00   -13000.00
03730             -76.00   -13200.00
03731             -86.00   -13200.00
03732             -60.00   -13200.00
03733             -64.00   -13200.00
03734             -90.00   -13400.00
03735             -80.00   -13600.00
03736             -78.00   -13400.00
03737             -74.00   -13600.00
03738             -74.00   -13600.00
03739             -82.00   -13600.00
03740             -90.00   -13600.00
03741             -94.00   -13600.00
03742             -66.00   -13600.00
03743             -70.00   -13600.00
03744             -98.00   -13600.00
03745             -94.00   -13600.00
03746             -78.00   -13600.00
03747             -76.00   -13600.00
03748             -92.00   -13600.00
03749             -98.00   -13600.00
03750             -86.00   -13600.00
03751             -90.00   -13600.00
03752             -82.00   -13600.00
03753             -84.00   -13400.00
03754             -96.00   -13400.00
03755             -92.00   -13400.00
03756             -80.00   -13200.00
03757             -80.00   -13200.00
03758            -110.00   -13200.00
03759            -122.00   -13000.00
03760            -102.00   -13000.00
03761             -76.00   -12800.00
03762             -60.00   -13000.00
03763             -68.00   -12800.00
03764             -82.00   -12800.00
03765             -76.00   -12800.00
03766             -60.00   -12400.00
03767             -54.00   -12400.00
03768             -70.00   -12200.00
03769             -70.00   -12200.00
03770             -58.00   -12000.00
03771             -54.00   -12000.00
03772             -58.00   -12000.00
03773             -64.00   -11600.00
03774             -58.00   -11600.00
03775             -52.00   -11400.00
03776             -54.00   -11200.00
03777             -46.00   -11000.00
03778             -52.00   -10800.00
03779             -52.00   -10800.00
03780             -44.00   -10800.00
03781             -46.00   -10400.00
03782             -46.00   -10400.00
03783             -42.00   -10000.00
03784             -42.00   -10000.00
03785             -44.00    -9800.00
03786             -48.00    -9600.00
03787             -38.00    -9600.00
03788             -34.00    -9200.00
03789             -38.00    -9200.00
03790             -42.00    -9000.00
03791             -42.00    -8800.00
03792             -34.00    -8400.00
03793             -34.00    -8400.00
03794             -38.00    -8200.00
03795             -36.00    -8000.00
03796             -36.00    -7600.00
03797             -28.00    -7600.00
03798             -28.00    -7200.00
03799             -30.00    -7000.00
03800             -30.00    -6800.00
03801             -28.00    -6600.00
03802             -22.00    -6400.00
03803             -26.00    -6000.00
03804             -30.00    -5800.00
03805             -26.00    -5600.00
03806             -22.00    -5400.00
03807             -22.00    -5200.00
03808             -22.00    -5000.00
03809             -26.00    -4600.00
03810             -20.00    -4400.00
03811             -20.00    -4400.00
03812             -22.00    -4000.00
03813             -18.00    -3800.00
03814             -18.00    -3600.00
03815             -14.00    -3400.00
03816             -12.00    -3000.00
03817             -22.00    -2800.00
03818             -20.00    -2400.00
03819             -12.00    -2400.00
03820             -10.00    -2000.00
03821             -12.00    -1800.00
03822             -12.00    -1600.00
03823              -6.00    -1200.00
03824              -6.00    -1000.00
03825             -10.00     -800.00
03826             -10.00     -400.00
03827             -12.00     -200.00
03828              -6.00        0.00
03829              10.00      400.00
03830              36.00      600.00
03831              36.00      600.00
03832             -18.00      800.00
03833             -38.00     1200.00
03834               2.00     1400.00
03835              34.00     1800.00
03836              28.00     2000.00
03837              46.00     2000.00
03838             242.00     2400.00
03839             250.00     2800.00
03840            -250.00     3000.00
03841            -250.00     3200.00
03842            -134.00     3600.00
03843             250.00     3800.00
03844             182.00     4000.00
03845            -250.00     4000.00
03846             202.00     4600.00
03847             212.00     4600.00
03848            -162.00     4800.00
03849              14.00     5200.00
03850             -14.00     5200.00
03851              90.00     6000.00
03852             154.00     5600.00
03853            -122.00     6000.00
03854             -76.00     6400.00
03855               4.00     6400.00
03856              84.00     6800.00
03857             150.00     6800.00
03858             -84.00     7200.00
03859             -82.00     7200.00
03860              90.00     7600.00
03861             116.00     8000.00
03862             -38.00     8200.00
03863             -52.00     8400.00
03864              96.00     8600.00
03865              50.00     8600.00
03866             -18.00     8800.00
03867              18.00     9200.00
03868              26.00     9200.00
03869              28.00     9600.00
03870              46.00     9600.00
03871              58.00    10000.00
03872              20.00    10000.00
03873             -12.00    10000.00
03874              50.00    10400.00
03875              76.00    10600.00
03876               6.00    10800.00
03877              20.00    10800.00
03878              76.00    11000.00
03879              42.00    11200.00
03880               0.00    11200.00
03881              44.00    11200.00
03882              82.00    11600.00
03883              34.00    11800.00
03884              22.00    12000.00
03885              68.00    12000.00
03886              58.00    12200.00
03887              36.00    12400.00
03888              54.00    12400.00
03889              68.00    12400.00
03890              46.00    12600.00
03891              52.00    12600.00
03892              82.00    12800.00
03893              58.00    12800.00
03894              38.00    12800.00
03895              70.00    12800.00
03896              76.00    13200.00
03897              46.00    13000.00
03898              58.00    13200.00
03899              92.00    13200.00
03900              74.00    13400.00
03901              44.00    13400.00
03902              74.00    13200.00
03903              86.00    13400.00
03904              68.00    13600.00
03905              70.00    13600.00
03906              84.00    13600.00
03907              74.00    13600.00
03908              68.00    13600.00
03909              84.00    13400.00
03910              82.00    13600.00
03911              62.00    13600.00
03912              78.00    13600.00
03913              94.00    13600.00
03914              78.00    13600.00
03915              62.00    13600.00
03916              86.00    13600.00
03917              94.00    13800.00
03918              74.00    13400.00
03919              74.00    13400.00
03920              82.00    13600.00
03921              78.00    13600.00
03922              82.00    13200.00
03923              92.00    13200.00
03924              98.00    13200.00
03925             100.00    13000.00
03926             106.00    13200.00
03927              84.00    12800.00
03928              42.00    12800.00
03929              42.00    12800.00
03930              84.00    12800.00
03931              86.00    12800.00
03932              52.00    12600.00
03933              36.00    12600.00
03934              54.00    12400.00
03935              68.00    12400.00
03936              62.00    12000.00
03937              52.00    12000.00
03938              38.00    12000.00
03939              44.00    11800.00
03940              54.00    11600.00
03941              54.00    11400.00
03942              36.00    11400.00
03943              36.00    11200.00
03944              54.00    11000.00
03945              52.00    10800.00
03946              34.00    10800.00
03947              28.00    10600.00
03948              38.00    10400.00
03949              44.00    10200.00
03950              42.00    10000.00
03951              34.00    10000.00
03952              26.00     9800.00
03953              28.00     9600.00
03954              36.00     9400.00
03955              38.00     9400.00
03956              28.00     9000.00
03957              26.00     8800.00
03958              34.00     8600.00
03959              28.00     8400.00
03960              20.00     8400.00
03961              22.00     8000.00
03962              32.00     7800.00
03963              28.00     7600.00
03964              26.00     7400.00
03965              20.00     7200.00
03966              18.00     6800.00
03967              22.00     6600.00
03968              26.00     6400.00
03969              20.00     6400.00
03970              14.00     6000.00
03971              16.00     5800.00
03972              20.00     5600.00
03973              16.00     5200.00
03974              12.00     5200.00
03975              18.00     4800.00
03976              18.00     4600.00
03977              12.00     4400.00
03978               8.00     4000.00
03979               6.00     3800.00
03980              10.00     3600.00
03981              12.00     3400.00
03982              14.00     3000.00
03983              10.00     2800.00
03984               2.00     2600.00
03985               6.00     2400.00
03986              10.00     2200.00
03987               4.00     2000.00
03988               2.00     1800.00
03989               4.00     1400.00
03990               4.00     1000.00
03991              -2.00      800.00
03992              -4.00      600.00
03993               2.00      400.00
03994               2.00        0.00
03995              10.00     -200.00
03996              20.00     -400.00
03997              46.00     -800.00
03998              14.00    -1000.00
03999             -28.00    -1200.00
04000             -20.00    -1400.00
04001              18.00    -1600.00
04002              38.00    -1800.00
04003              96.00    -2000.00
04004             250.00    -2400.00
04005             180.00    -2800.00
04006            -250.00    -3200.00
04007            -250.00    -3400.00
04008             132.00    -3600.00
04009             250.00    -3600.00
04010              78.00    -3600.00
04011             250.00    -4000.00
04012            -250.00    -4600.00
04013            -250.00    -4200.00
04014             250.00    -5200.00
04015             166.00    -5000.00
04016             -52.00    -4600.00
04017              -2.00    -6200.00
04018            -250.00    -5600.00
04019             202.00    -6200.00
04020              78.00    -6600.00
04021            -250.00    -5800.00
04022             122.00    -7200.00
04023             -30.00    -6600.00
04024              20.00    -7200.00
04025             -12.00    -8000.00
04026            -162.00    -6800.00
04027              44.00    -8200.00
04028             -12.00    -8000.00
04029              42.00    -8200.00
04030             -60.00    -8800.00
04031            -144.00    -8200.00
04032              52.00    -9200.00
04033             -18.00    -8800.00
04034             -22.00    -9000.00
04035             -70.00    -9600.00
04036             -60.00    -9200.00
04037              50.00    -9800.00
04038             -40.00    -9800.00
04039             -82.00   -10000.00
04040             -54.00   -10400.00
04041             -32.00   -10200.00
04042              -4.00   -10800.00
04043             -22.00   -10800.00
04044             -70.00   -10800.00
04045             -86.00   -11200.00
04046             -58.00   -11200.00
04047              18.00   -11400.00
04048             -28.00   -11400.00
04049            -102.00   -11800.00
04050             -70.00   -11800.00
04051             -50.00   -12000.00
04052             -30.00   -12000.00
04053             -58.00   -12200.00
04054             -62.00   -12200.00
04055             -60.00   -12400.00
04056             -78.00   -12400.00
04057             -46.00   -12600.00
04058             -50.00   -12800.00
04059             -78.00   -12800.00
04060             -76.00   -12800.00
04061             -62.00   -13000.00
04062             -68.00   -13200.00
04063             -86.00   -13200.00
04064             -70.00   -13200.00
04065             -54.00   -13200.00
04066             -84.00   -13200.00
04067             -90.00   -13400.00
04068             -80.00   -13200.00
04069             -76.00   -13600.00
04070             -72.00   -13600.00
04071             -82.00   -13600.00
04072             -84.00   -13600.00
04073             -94.00   -13600.00
04074             -82.00   -13600.00
04075             -62.00   -13600.00
04076             -86.00   -13600.00
04077             -98.00   -13600.00
04078             -84.00   -13600.00
04079             -76.00   -13600.00
04080             -86.00   -13600.00
04081             -98.00   -13600.00
04082             -90.00   -13600.00
04083             -90.00   -13400.00
04084             -86.00   -13600.00
04085             -76.00   -13600.00
04086             -92.00   -13400.00
04087             -94.00   -13200.00
04088             -86.00   -13200.00
04089             -82.00   -13200.00
04090             -94.00   -13200.00
04091            -124.00   -13200.00
04092            -110.00   -13000.00
04093             -86.00   -13000.00
04094             -66.00   -12800.00
04095             -56.00   -12800.00
04096             -76.00   -12800.00
04097             -82.00   -12600.00
04098             -70.00   -12800.00
04099             -56.00   -12400.00
04100             -60.00   -12400.00
04101             -76.00   -12200.00
04102             -62.00   -12000.00
04103             -52.00   -12000.00
04104             -60.00   -12000.00
04105             -62.00   -11800.00
04106             -60.00   -11600.00
04107             -52.00   -11400.00
04108             -54.00   -11400.00
04109             -52.00   -11200.00
04110             -46.00   -11000.00
04111             -52.00   -10800.00
04112             -46.00   -10800.00
04113             -46.00   -10400.00
04114             -50.00   -10400.00
04115             -44.00   -10200.00
04116             -42.00   -10000.00
04117             -38.00    -9800.00
04118             -46.00    -9800.00
04119             -46.00    -9600.00
04120             -36.00    -9200.00
04121             -36.00    -9200.00
04122             -42.00    -9000.00
04123             -44.00    -8800.00
04124             -38.00    -8600.00
04125             -34.00    -8400.00
04126             -38.00    -8200.00
04127             -36.00    -8000.00
04128             -36.00    -8000.00
04129             -30.00    -7600.00
04130             -24.00    -7400.00
04131             -28.00    -7200.00
04132             -38.00    -6800.00
04133             -30.00    -6600.00
04134             -22.00    -6400.00
04135             -20.00    -6400.00
04136             -30.00    -6000.00
04137             -28.00    -5800.00
04138             -26.00    -5600.00
04139             -26.00    -5400.00
04140             -22.00    -5200.00
04141             -26.00    -4800.00
04142             -22.00    -4600.00
04143             -18.00    -4400.00
04144             -20.00    -4200.00
04145             -18.00    -4000.00
04146             -20.00    -3600.00
04147             -20.00    -3400.00
04148             -12.00    -3200.00
04149             -14.00    -2800.00
04150             -16.00    -2600.00
04151             -14.00    -2400.00
04152             -12.00    -2200.00
04153             -14.00    -2000.00
04154             -12.00    -1600.00
04155              -6.00    -1600.00
04156              -6.00    -1200.00
04157             -10.00     -800.00
04158             -10.00     -600.00
04159              -6.00     -400.00
04160              -6.00     -200.00
04161               2.00        0.00
04162              18.00      400.00
04163              44.00      600.00
04164              14.00      800.00
04165             -26.00     1200.00
04166             -20.00     1200.00
04167              20.00     1800.00
04168              26.00     1800.00
04169              30.00     2000.00
04170             118.00     2200.00
04171             250.00     2800.00
04172              74.00     3000.00
04173            -250.00     3200.00
04174            -250.00     3400.00
04175             250.00     3600.00
04176             250.00     3800.00
04177            -226.00     4000.00
04178            -150.00     4200.00
04179             250.00     4600.00
04180             -44.00     4800.00
04181             -94.00     5200.00
04182              44.00     5200.00
04183             -12.00     5600.00
04184             180.00     6000.00
04185              -6.00     5600.00
04186            -138.00     6400.00
04187             -10.00     6400.00
04188              28.00     6400.00
04189             154.00     6800.00
04190              38.00     7000.00
04191            -132.00     7200.00
04192              12.00     7400.00
04193             134.00     7800.00
04194              44.00     8200.00
04195             -90.00     8000.00
04196              22.00     8400.00
04197             106.00     8800.00
04198              -2.00     8800.00
04199               0.00     9000.00
04200              22.00     9200.00
04201              26.00     9400.00
04202              36.00     9600.00
04203              60.00     9600.00
04204              50.00    10000.00
04205              -6.00    10000.00
04206              12.00    10200.00
04207              76.00    10400.00
04208              44.00    10600.00
04209               2.00    10800.00
04210              58.00    10800.00
04211              68.00    11200.00
04212              10.00    11200.00
04213              14.00    11400.00
04214              84.00    11600.00
04215              66.00    11800.00
04216              14.00    11800.00
04217              50.00    11800.00
04218              70.00    12000.00
04219              42.00    12200.00
04220              44.00    12200.00
04221              70.00    12400.00
04222              58.00    12400.00
04223              38.00    12400.00
04224              70.00    12600.00
04225              76.00    12800.00
04226              42.00    12800.00
04227              52.00    13000.00
04228              82.00    13000.00
04229              66.00    13200.00
04230              50.00    13200.00
04231              78.00    13200.00
04232              84.00    13200.00
04233              46.00    13200.00
04234              58.00    13400.00
04235              92.00    13400.00
04236              82.00    13400.00
04237              68.00    13600.00
04238              72.00    13600.00
04239              76.00    13400.00
04240              68.00    13600.00
04241              76.00    13600.00
04242              90.00    13600.00
04243              70.00    13600.00
04244              68.00    13600.00
04245              92.00    13600.00
04246              92.00    13600.00
04247              68.00    13600.00
04248              70.00    13600.00
04249              92.00    13600.00
04250              86.00    13400.00
04251              70.00    13400.00
04252              78.00    13600.00
04253              82.00    13400.00
04254              74.00    13200.00
04255              78.00    13200.00
04256              94.00    13200.00
04257             100.00    13200.00
04258             106.00    13200.00
04259             100.00    13200.00
04260              60.00    13200.00
04261              34.00    12800.00
04262              62.00    12800.00
04263              92.00    12600.00
04264              68.00    12600.00
04265              38.00    12600.00
04266              44.00    12400.00
04267              68.00    12400.00
04268              68.00    12000.00
04269              54.00    12000.00
04270              42.00    12000.00
04271              42.00    11800.00
04272              54.00    11800.00
04273              60.00    11400.00
04274              42.00    11400.00
04275              32.00    11200.00
04276              46.00    11000.00
04277              60.00    11000.00
04278              46.00    10800.00
04279              30.00    10800.00
04280              36.00    10400.00
04281              44.00    10400.00
04282              42.00    10200.00
04283              36.00    10000.00
04284              30.00     9800.00
04285              26.00     9600.00
04286              34.00     9400.00
04287              42.00     9400.00
04288              34.00     9200.00
04289              22.00     9000.00
04290              30.00     8800.00
04291              34.00     8600.00
04292              26.00     8400.00
04293              20.00     8000.00
04294              26.00     7800.00
04295              30.00     7800.00
04296              26.00     7600.00
04297              26.00     7200.00
04298              18.00     7000.00
04299              14.00     7000.00
04300              26.00     6600.00
04301              26.00     6400.00
04302              18.00     6200.00
04303              12.00     6000.00
04304              18.00     5800.00
04305              20.00     5600.00
04306              14.00     5200.00
04307              18.00     4800.00
04308              18.00     4600.00
04309              14.00     4400.00
04310              10.00     4200.00
04311              12.00     4000.00
04312               8.00     3600.00
04313              10.00     3600.00
04314              12.00     3200.00
04315              12.00     3000.00
04316               4.00     2600.00
04317               4.00     2600.00
04318               4.00     2200.00
04319               6.00     2000.00
04320               2.00     1800.00
04321               2.00     1600.00
04322              10.00     1200.00
04323               2.00     1000.00
04324              -2.00      600.00
04325               2.00      400.00
04326               2.00        0.00
04327               4.00     -200.00
04328              14.00     -400.00
04329              38.00     -600.00
04330              36.00     -800.00
04331             -10.00    -1000.00
04332             -36.00    -1200.00
04333               0.00    -1400.00
04334              34.00    -1600.00
04335              54.00    -1800.00
04336             208.00    -2000.00
04337             250.00    -2600.00
04338            -234.00    -3200.00
04339            -250.00    -3200.00
04340            -250.00    -3600.00
04341             250.00    -3600.00
04342             228.00    -3400.00
04343             162.00    -3600.00
04344             150.00    -4400.00
04345            -250.00    -4400.00
04346             -52.00    -4400.00
04347             250.00    -5600.00
04348             -64.00    -4400.00
04349              54.00    -5600.00
04350            -214.00    -6000.00
04351            -118.00    -5600.00
04352             250.00    -6600.00
04353            -218.00    -6000.00
04354             -52.00    -6400.00
04355             100.00    -7200.00
04356             -62.00    -6400.00
04357              70.00    -7800.00
04358            -146.00    -7400.00
04359             -48.00    -7400.00
04360              36.00    -8200.00
04361              -6.00    -7800.00
04362              36.00    -8800.00
04363            -166.00    -8400.00
04364             -30.00    -8800.00
04365              44.00    -9200.00
04366             -36.00    -8800.00
04367             -30.00    -9800.00
04368             -96.00    -9200.00
04369              12.00    -9600.00
04370              20.00   -10000.00
04371             -82.00    -9800.00
04372             -62.00   -10400.00
04373             -46.00   -10200.00
04374             -14.00   -10400.00
04375              -4.00   -10800.00
04376             -50.00   -10600.00
04377             -86.00   -11200.00
04378             -84.00   -11200.00
04379             -14.00   -11400.00
04380              18.00   -11400.00
04381             -78.00   -11600.00
04382             -94.00   -12000.00
04383             -60.00   -12000.00
04384             -38.00   -12000.00
04385             -38.00   -12200.00
04386             -68.00   -12200.00
04387             -58.00   -12400.00
04388             -76.00   -12400.00
04389             -62.00   -12400.00
04390             -36.00   -12800.00
04391             -70.00   -12800.00
04392             -78.00   -12800.00
04393             -66.00   -13000.00
04394             -60.00   -13000.00
04395             -78.00   -13200.00
04396             -86.00   -13000.00
04397             -58.00   -13200.00
04398             -66.00   -13200.00
04399             -90.00   -13400.00
04400             -82.00   -13400.00
04401             -82.00   -13400.00
04402             -72.00   -13600.00
04403             -74.00   -13600.00
04404             -80.00   -13400.00
04405             -90.00   -13600.00
04406             -96.00   -13600.00
04407             -66.00   -13600.00
04408             -70.00   -13600.00
04409             -98.00   -13600.00
04410             -92.00   -13600.00
04411             -76.00   -13600.00
04412             -74.00   -13600.00
04413             -94.00   -13600.00
04414             -94.00   -13600.00
04415             -86.00   -13600.00
04416             -90.00   -13600.00
04417             -78.00   -13600.00
04418             -84.00   -13400.00
04419             -98.00   -13200.00
04420             -92.00   -13200.00
04421             -78.00   -13200.00
04422             -82.00   -13200.00
04423            -110.00   -13200.00
04424            -124.00   -13000.00
04425            -100.00   -13000.00
04426             -74.00   -12800.00
04427             -56.00   -12800.00
04428             -66.00   -12800.00
04429             -82.00   -12800.00
04430             -78.00   -12800.00
04431             -60.00   -12600.00
04432             -50.00   -12400.00
04433             -70.00   -12200.00
04434             -74.00   -12200.00
04435             -54.00   -12200.00
04436             -54.00   -12000.00
04437             -62.00   -11800.00
04438             -62.00   -11600.00
04439             -58.00   -11400.00
04440             -46.00   -11400.00
04441             -50.00   -11200.00
04442             -50.00   -11000.00
04443             -54.00   -10800.00
04444             -52.00   -10800.00
04445             -42.00   -10800.00
04446             -48.00   -10400.00
04447             -52.00   -10400.00
04448             -52.00   -10000.00
04449             -38.00   -10000.00
04450             -34.00    -9800.00
04451             -46.00    -9600.00
04452             -46.00    -9600.00
04453             -44.00    -9200.00
04454             -38.00    -9200.00
04455             -36.00    -9000.00
04456             -42.00    -8800.00
04457             -40.00    -8400.00
04458             -38.00    -8200.00
04459             -38.00    -8200.00
04460             -34.00    -7800.00
04461             -30.00    -7600.00
04462             -26.00    -7400.00
04463             -36.00    -7200.00
04464             -40.00    -7200.00
04465             -34.00    -6800.00
04466             -20.00    -6600.00
04467             -22.00    -6400.00
04468             -28.00    -6200.00
04469             -34.00    -6000.00
04470             -26.00    -5600.00
04471             -24.00    -5600.00
04472             -22.00    -5200.00
04473             -24.00    -5000.00
04474             -26.00    -4600.00
04475             -22.00    -4400.00
04476             -18.00    -4200.00
04477             -14.00    -4000.00
04478             -18.00    -3800.00
04479             -22.00    -3400.00
04480             -18.00    -3200.00
04481             -14.00    -3000.00
04482             -14.00    -2800.00
04483             -12.00    -2400.00
04484             -12.00    -2400.00
04485             -14.00    -2000.00
04486             -12.00    -1800.00
04487             -10.00    -1400.00
04488              -8.00    -1200.00
04489              -6.00    -1000.00
04490              -8.00     -800.00
04491             -10.00     -400.00
04492             -10.00     -200.00
04493               2.00        0.00
04494              12.00      200.00
04495              34.00      400.00
04496              36.00      800.00
04497             -14.00      800.00
04498             -34.00     1200.00
04499              -2.00     1600.00
04500              30.00     1600.00
04501              28.00     2000.00
04502              50.00     2200.00
04503             250.00     2400.00
04504             250.00     3000.00
04505            -250.00     3000.00
04506            -250.00     3200.00
04507            -130.00     3600.00
04508             250.00     3800.00
04509             180.00     4000.00
04510            -250.00     4000.00
04511             202.00     4600.00
04512             198.00     4600.00
04513            -166.00     4800.00
04514              20.00     5200.00
04515              -8.00     5200.00
04516              90.00     6000.00
04517             140.00     5600.00
04518            -132.00     6000.00
04519             -74.00     6400.00
04520              10.00     6400.00
04521              90.00     6800.00
04522             148.00     7000.00
04523             -92.00     7200.00
04524             -82.00     7400.00
04525              94.00     7400.00
04526             124.00     8000.00
04527             -44.00     8200.00
04528             -62.00     8200.00
04529              92.00     8600.00
04530              54.00     8600.00
04531             -14.00     8800.00
04532              18.00     9200.00
04533              22.00     9400.00
04534              24.00     9600.00
04535              50.00     9600.00
04536              62.00    10000.00
04537              20.00    10000.00
04538             -12.00    10200.00
04539              52.00    10200.00
04540              76.00    10400.00
04541              10.00    10800.00
04542              22.00    10800.00
04543              72.00    10800.00
04544              38.00    11200.00
04545              -2.00    11200.00
04546              54.00    11400.00
04547              90.00    11600.00
04548              34.00    11800.00
04549              18.00    11800.00
04550              66.00    12000.00
04551              58.00    12000.00
04552              38.00    12200.00
04553              58.00    12400.00
04554              70.00    12400.00
04555              42.00    12400.00
04556              48.00    12400.00
04557              84.00    12800.00
04558              60.00    12800.00
04559              42.00    13000.00
04560              72.00    12800.00
04561              74.00    13000.00
04562              50.00    13200.00
04563              66.00    13000.00
04564              92.00    13400.00
04565              66.00    13200.00
04566              38.00    13400.00
04567              82.00    13400.00
04568              94.00    13400.00
04569              70.00    13600.00
04570              68.00    13600.00
04571              82.00    13600.00
04572              70.00    13600.00
04573              66.00    13600.00
04574              86.00    13600.00
04575              90.00    13400.00
04576              66.00    13400.00
04577              76.00    13600.00
04578              94.00    13600.00
04579              76.00    13600.00
04580              66.00    13600.00
04581              86.00    13600.00
04582             100.00    13600.00
04583              74.00    13400.00
04584              68.00    13400.00
04585              82.00    13400.00
04586              80.00    13400.00
04587              78.00    13200.00
04588              88.00    13400.00
04589              98.00    13200.00
04590              96.00    13200.00
04591             106.00    12800.00
04592              90.00    13200.00
04593              44.00    12800.00
04594              38.00    12800.00
04595              76.00    12600.00
04596              84.00    12600.00
04597              54.00    12600.00
04598              42.00    12400.00
04599              58.00    12400.00
04600              68.00    12400.00
04601              58.00    12000.00
04602              52.00    12200.00
04603              42.00    11800.00
04604              44.00    11800.00
04605              54.00    11600.00
04606              54.00    11600.00
04607              36.00    11200.00
04608              38.00    11200.00
04609              54.00    11200.00
04610              52.00    11000.00
04611              34.00    10800.00
04612              30.00    10400.00
04613              44.00    10400.00
04614              44.00    10200.00
04615              38.00    10000.00
04616              34.00     9800.00
04617              26.00    10000.00
04618              28.00     9600.00
04619              40.00     9400.00
04620              42.00     9200.00
04621              28.00     9000.00
04622              26.00     8800.00
04623              34.00     8600.00
04624              34.00     8400.00
04625              20.00     8400.00
04626              22.00     8000.00
04627              28.00     7800.00
04628              26.00     7600.00
04629              22.00     7400.00
04630              20.00     7000.00
04631              22.00     7000.00
04632              22.00     6800.00
04633              24.00     6400.00
04634              20.00     6200.00
04635              14.00     6000.00
04636              14.00     5800.00
04637              20.00     5400.00
04638              12.00     5400.00
04639               8.00     4800.00
04640              16.00     4800.00
04641              20.00     4600.00
04642              14.00     4400.00
04643               6.00     4000.00
04644               6.00     3800.00
04645               6.00     3600.00
04646              14.00     3400.00
04647              12.00     3000.00
04648               8.00     2800.00
04649               0.00     2800.00
04650               4.00     2400.00
04651               6.00     2000.00
04652              10.00     1800.00
04653               2.00     1600.00
04654               4.00     1400.00
04655               6.00     1200.00
04656               2.00      800.00
04657              -6.00      400.00
04658              -4.00      200.00
04659               4.00        0.00
04660               8.00     -200.00
04661              22.00     -400.00
04662              48.00     -600.00
04663              12.00     -800.00
04664             -32.00    -1200.00
04665             -22.00    -1400.00
04666              22.00    -1600.00
04667              38.00    -1800.00
04668              92.00    -2000.00
04669             250.00    -2400.00
04670             172.00    -3000.00
04671            -250.00    -3200.00
04672            -250.00    -3400.00
04673             142.00    -3600.00
04674             250.00    -3400.00
04675              76.00    -3600.00
04676             250.00    -4000.00
04677            -250.00    -4800.00
04678            -250.00    -4200.00
04679             250.00    -5200.00
04680             158.00    -5200.00
04681             -46.00    -4600.00
04682              -2.00    -6000.00
04683            -250.00    -5400.00
04684             204.00    -6000.00
04685              72.00    -6400.00
04686            -250.00    -6000.00
04687             124.00    -7200.00
04688             -34.00    -6600.00
04689              20.00    -7000.00
04690             -14.00    -7600.00
04691            -156.00    -7200.00
04692              46.00    -8200.00
04693             -12.00    -8000.00
04694              44.00    -8200.00
04695             -70.00    -8800.00
04696            -142.00    -8200.00
04697              52.00    -9200.00
04698             -18.00    -9000.00
04699             -22.00    -9200.00
04700             -74.00    -9600.00
04701             -60.00    -9200.00
04702              50.00   -10000.00
04703             -42.00    -9800.00
04704             -78.00   -10200.00
04705             -52.00   -10400.00
04706             -34.00   -10200.00
04707              -6.00   -10600.00
04708             -24.00   -10800.00
04709             -74.00   -10800.00
04710             -90.00   -11000.00
04711             -58.00   -11200.00
04712              18.00   -11400.00
04713             -28.00   -11400.00
04714            -102.00   -11600.00
04715             -74.00   -11800.00
04716             -52.00   -12000.00
04717             -28.00   -12000.00
04718             -56.00   -12400.00
04719             -62.00   -12200.00
04720             -62.00   -12400.00
04721             -78.00   -12400.00
04722             -42.00   -12800.00
04723             -52.00   -12800.00
04724             -78.00   -12800.00
04725             -76.00   -13000.00
04726             -62.00   -13000.00
04727             -66.00   -13000.00
04728             -86.00   -13200.00
04729             -70.00   -13200.00
04730             -58.00   -13200.00
04731             -84.00   -13200.00
04732             -86.00   -13200.00
04733             -76.00   -13600.00
04734             -78.00   -13400.00
04735             -74.00   -13400.00
04736             -78.00   -13600.00
04737             -82.00   -13600.00
04738             -92.00   -13600.00
04739             -78.00   -13600.00
04740             -60.00   -13600.00
04741             -86.00   -13600.00
04742             -98.00   -13600.00
04743             -82.00   -13600.00
04744             -74.00   -13600.00
04745             -82.00   -13600.00
04746             -98.00   -13600.00
04747             -86.00   -13600.00
04748             -84.00   -13600.00
04749             -82.00   -13400.00
04750             -76.00   -13600.00
04751             -96.00   -13400.00
04752             -94.00   -13200.00
04753             -86.00   -13400.00
04754             -76.00   -13200.00
04755             -92.00   -13200.00
04756            -124.00   -13200.00
04757            -114.00   -13200.00
04758             -86.00   -13000.00
04759             -66.00   -13000.00
04760             -58.00   -13000.00
04761             -70.00   -12600.00
04762             -82.00   -12800.00
04763             -68.00   -12800.00
04764             -52.00   -12600.00
04765             -62.00   -12400.00
04766             -78.00   -12400.00
04767             -70.00   -12000.00
04768             -52.00   -12200.00
04769             -56.00   -12000.00
04770             -60.00   -12000.00
04771             -56.00   -11600.00
04772             -60.00   -11600.00
04773             -60.00   -11400.00
04774             -46.00   -11000.00
04775             -46.00   -11000.00
04776             -52.00   -10800.00
04777             -60.00   -10800.00
04778             -54.00   -10600.00
04779             -42.00   -10400.00
04780             -36.00   -10200.00
04781             -42.00   -10000.00
04782             -54.00   -10000.00
04783             -58.00    -9800.00
04784             -40.00    -9600.00
04785             -26.00    -9400.00
04786             -34.00    -9200.00
04787             -44.00    -9000.00
04788             -52.00    -8800.00
04789             -44.00    -8600.00
04790             -30.00    -8400.00
04791             -22.00    -8400.00
04792             -30.00    -8000.00
04793             -46.00    -7800.00
04794             -38.00    -7600.00
04795             -22.00    -7400.00
04796             -28.00    -7200.00
04797             -32.00    -7200.00
04798             -34.00    -6800.00
04799             -28.00    -6600.00
04800             -26.00    -6400.00
04801             -20.00    -6000.00
04802             -20.00    -5800.00
04803             -28.00    -5600.00
04804             -34.00    -5200.00
04805             -22.00    -5000.00
04806             -18.00    -4800.00
04807             -18.00    -4600.00
04808             -14.00    -4400.00
04809             -26.00    -4200.00
04810             -26.00    -3800.00
04811             -18.00    -3600.00
04812              -4.00    -3400.00
04813              -6.00    -3200.00
04814             -22.00    -2800.00
04815             -24.00    -2600.00
04816             -12.00    -2400.00
04817              -6.00    -2200.00
04818             -12.00    -1800.00
04819             -14.00    -1800.00
04820             -14.00    -1400.00
04821             -10.00    -1000.00
04822              -4.00     -800.00
04823               2.00     -400.00
04824             -10.00     -200.00
04825             -14.00        0.00
04826               2.00      200.00
04827              26.00      400.00
04828              46.00      600.00
04829              10.00      800.00
04830             -34.00     1000.00
04831             -26.00     1400.00
04832              20.00     1600.00
04833              36.00     1800.00
04834              34.00     2000.00
04835             116.00     2200.00
04836             250.00     2800.00
04837              66.00     3000.00
04838            -250.00     3200.00
04839            -250.00     3200.00
04840             250.00     3600.00
04841             250.00     4000.00
04842            -238.00     4000.00
04843            -142.00     4200.00
04844             250.00     4600.00
04845             -50.00     4600.00
04846             -96.00     5200.00
04847              36.00     5000.00
04848             -12.00     5600.00
04849             180.00     5800.00
04850             -10.00     5600.00
04851            -140.00     6200.00
04852             -12.00     6400.00
04853              28.00     6400.00
04854             162.00     6800.00
04855              36.00     7000.00
04856            -134.00     7200.00
04857              12.00     7200.00
04858             134.00     7800.00
04859              42.00     8200.00
04860             -92.00     8000.00
04861              24.00     8400.00
04862             106.00     8600.00
04863              -2.00     8800.00
04864               2.00     8800.00
04865              26.00     9200.00
04866              22.00     9400.00
04867              34.00     9600.00
04868              62.00     9600.00
04869              50.00    10000.00
04870             -10.00    10000.00
04871              18.00    10400.00
04872              82.00    10400.00
04873              46.00    10800.00
04874              -4.00    10800.00
04875              60.00    10800.00
04876              66.00    11000.00
04877              12.00    11200.00
04878              20.00    11400.00
04879              84.00    11600.00
04880              62.00    11600.00
04881              10.00    11800.00
04882              52.00    11800.00
04883              70.00    12000.00
04884              42.00    12000.00
04885              44.00    12400.00
04886              68.00    12600.00
04887              58.00    12400.00
04888              42.00    12600.00
04889              74.00    12800.00
04890              76.00    12800.00
04891              42.00    12800.00
04892              54.00    12800.00
04893              82.00    13000.00
04894              58.00    13000.00
04895              50.00    13200.00
04896              82.00    13200.00
04897              86.00    13200.00
04898              44.00    13400.00
04899              58.00    13400.00
04900              92.00    13400.00
04901              82.00    13400.00
04902              62.00    13600.00
04903              74.00    13400.00
04904              78.00    13600.00
04905              66.00    13600.00
04906              76.00    13400.00
04907              92.00    13600.00
04908              70.00    13600.00
04909              66.00    13600.00
04910              92.00    13600.00
04911              90.00    13600.00
04912              66.00    13600.00
04913              70.00    13600.00
04914              94.00    13400.00
04915              88.00    13400.00
04916              74.00    13400.00
04917              76.00    13600.00
04918              76.00    13400.00
04919              74.00    13400.00
04920              84.00    13400.00
04921             100.00    13200.00
04922              98.00    13200.00
04923             102.00    12800.00
04924             100.00    13200.00
04925              60.00    13000.00
04926              34.00    12800.00
04927              66.00    12800.00
04928              94.00    12800.00
04929              70.00    12600.00
04930              42.00    12600.00
04931              42.00    12400.00
04932              60.00    12400.00
04933              68.00    12000.00
04934              62.00    12200.00
04935              50.00    12000.00
04936              36.00    11800.00
04937              50.00    11600.00
04938              62.00    11600.00
04939              50.00    11600.00
04940              36.00    11200.00
04941              46.00    11200.00
04942              54.00    11000.00
04943              36.00    10800.00
04944              34.00    10800.00
04945              42.00    10400.00
04946              44.00    10400.00
04947              42.00    10200.00
04948              38.00    10000.00
04949              36.00    10000.00
04950              28.00     9600.00
04951              34.00     9400.00
04952              38.00     9400.00
04953              30.00     9000.00
04954              22.00     9200.00
04955              28.00     8600.00
04956              34.00     8600.00
04957              28.00     8200.00
04958              22.00     8200.00
04959              26.00     8000.00
04960              30.00     7600.00
04961              26.00     7400.00
04962              22.00     7200.00
04963              20.00     7000.00
04964              18.00     6800.00
04965              22.00     6800.00
04966              26.00     6200.00
04967              18.00     6000.00
04968              14.00     6000.00
04969              14.00     5600.00
04970              14.00     5400.00
04971              12.00     5200.00
04972              20.00     4800.00
04973              18.00     4800.00
04974              12.00     4400.00
04975               6.00     4200.00
04976               4.00     4000.00
04977              10.00     3600.00
04978              10.00     3600.00
04979              12.00     3200.00
04980              10.00     2800.00
04981               2.00     2800.00
04982               0.00     2400.00
04983              10.00     2200.00
04984               4.00     2000.00
04985               2.00     1600.00
04986               0.00     1400.00
04987               6.00     1200.00
04988               4.00     1000.00
04989              -2.00      600.00
04990              -2.00      400.00
04991               0.00        0.00
04992               2.00     -200.00
04993              12.00     -200.00
04994              38.00     -400.00
04995              36.00     -800.00
04996             -12.00    -1000.00
04997             -36.00    -1200.00
04998              -2.00    -1600.00
04999              34.00    -1600.00
05000              58.00    -1800.00
