Unit:(mV)
                     CH1         CH2
Frequency              ? 300.226 kHz
00001               4.00     -200.00
00002              26.00     -400.00
00003              34.00     -400.00
00004              -2.00     -800.00
00005             -28.00     -800.00
00006              -4.00     -800.00
00007              22.00    -1200.00
00008              20.00    -1200.00
00009              34.00    -1400.00
00010             250.00    -1600.00
00011             242.00    -2000.00
00012            -250.00    -2400.00
00013            -250.00    -2400.00
00014            -250.00    -2600.00
00015             250.00    -2000.00
00016             250.00    -2400.00
00017             116.00    -3200.00
00018            -250.00    -2600.00
00019              20.00    -3200.00
00020             250.00    -3600.00
00021            -122.00    -2800.00
00022            -250.00    -3600.00
00023             -90.00    -4200.00
00024            -102.00    -3400.00
00025             250.00    -4200.00
00026             -34.00    -4200.00
00027            -250.00    -4000.00
00028             250.00    -4600.00
00029             222.00    -4600.00
00030            -164.00    -4400.00
00031              22.00    -5200.00
00032            -182.00    -4800.00
00033              38.00    -5200.00
00034             250.00    -5600.00
00035            -106.00    -5200.00
00036            -148.00    -5800.00
00037             -30.00    -5800.00
00038             106.00    -5600.00
00039              86.00    -6200.00
00040            -126.00    -6000.00
00041             -30.00    -6400.00
00042              18.00    -6400.00
00043              48.00    -6400.00
00044              60.00    -6800.00
00045            -118.00    -6600.00
00046             -38.00    -6800.00
00047              44.00    -7200.00
00048              44.00    -7000.00
00049              52.00    -7200.00
00050            -118.00    -7200.00
00051             -60.00    -7400.00
00052              82.00    -7600.00
00053              34.00    -7400.00
00054             -10.00    -8000.00
00055             -42.00    -7800.00
00056             -28.00    -7800.00
00057              -4.00    -8200.00
00058              14.00    -8000.00
00059              42.00    -8200.00
00060             -36.00    -8200.00
00061             -46.00    -8200.00
00062              18.00    -8400.00
00063              26.00    -8200.00
00064              -2.00    -8400.00
00065             -34.00    -8400.00
00066              -4.00    -8400.00
00067              16.00    -8400.00
00068             -14.00    -8600.00
00069              -6.00    -8800.00
00070              -2.00    -8600.00
00071              -6.00    -8800.00
00072               6.00    -8800.00
00073              -6.00    -8800.00
00074             -26.00    -8800.00
00075             -10.00    -9000.00
00076              22.00    -8800.00
00077              12.00    -9000.00
00078             -38.00    -9000.00
00079             -22.00    -9000.00
00080              20.00    -9000.00
00081              18.00    -9000.00
00082             -12.00    -9000.00
00083             -24.00    -9000.00
00084              -6.00    -9000.00
00085              10.00    -9000.00
00086              14.00    -9000.00
00087              -6.00    -8800.00
00088             -34.00    -9000.00
00089              -6.00    -9000.00
00090              26.00    -9000.00
00091               4.00    -8800.00
00092             -30.00    -8800.00
00093             -26.00    -9000.00
00094              14.00    -9000.00
00095              14.00    -8800.00
00096             -12.00    -8800.00
00097             -18.00    -8800.00
00098              -8.00    -8800.00
00099               6.00    -8600.00
00100               2.00    -8600.00
00101             -14.00    -8400.00
00102             -14.00    -8400.00
00103              -2.00    -8400.00
00104              14.00    -8200.00
00105              -8.00    -8200.00
00106             -28.00    -8200.00
00107              -6.00    -8200.00
00108              12.00    -8200.00
00109               2.00    -8000.00
00110             -18.00    -8000.00
00111             -20.00    -8000.00
00112              -4.00    -7800.00
00113               2.00    -7800.00
00114              -2.00    -7600.00
00115             -14.00    -7400.00
00116             -18.00    -7200.00
00117               4.00    -7200.00
00118               6.00    -7200.00
00119             -14.00    -7000.00
00120             -22.00    -6800.00
00121              -4.00    -6800.00
00122              12.00    -6800.00
00123              -4.00    -6600.00
00124             -20.00    -6400.00
00125             -12.00    -6400.00
00126               2.00    -6200.00
00127               4.00    -6000.00
00128              -6.00    -6000.00
00129             -20.00    -5800.00
00130             -12.00    -5600.00
00131               4.00    -5600.00
00132               4.00    -5400.00
00133             -18.00    -5400.00
00134             -18.00    -5200.00
00135               2.00    -5000.00
00136              10.00    -4800.00
00137              -6.00    -4600.00
00138             -18.00    -4400.00
00139             -10.00    -4400.00
00140               2.00    -4400.00
00141               2.00    -4200.00
00142             -10.00    -4000.00
00143             -16.00    -4000.00
00144              -6.00    -3600.00
00145               4.00    -3600.00
00146               2.00    -3400.00
00147             -12.00    -3200.00
00148             -12.00    -3200.00
00149               4.00    -3000.00
00150               4.00    -2800.00
00151             -10.00    -2600.00
00152             -20.00    -2400.00
00153              -6.00    -2200.00
00154               6.00    -2000.00
00155               2.00    -2000.00
00156             -12.00    -1800.00
00157             -16.00    -1600.00
00158              -2.00    -1600.00
00159              10.00    -1200.00
00160              -2.00    -1200.00
00161             -16.00     -800.00
00162             -12.00     -800.00
00163               4.00     -600.00
00164               4.00     -400.00
00165             -12.00     -200.00
00166             -18.00     -200.00
00167              -2.00        0.00
00168              18.00      200.00
00169              30.00      400.00
00170               4.00      600.00
00171             -28.00      600.00
00172             -18.00      800.00
00173              10.00      800.00
00174              14.00     1200.00
00175               4.00     1400.00
00176              36.00     1400.00
00177             236.00     1800.00
00178             236.00     2000.00
00179            -250.00     2200.00
00180            -250.00     2200.00
00181            -194.00     2200.00
00182             178.00     2400.00
00183             250.00     2800.00
00184             250.00     3000.00
00185            -250.00     2800.00
00186            -250.00     3200.00
00187             250.00     3200.00
00188             250.00     3600.00
00189            -250.00     3800.00
00190            -242.00     3600.00
00191             -18.00     3800.00
00192             250.00     4200.00
00193             196.00     4000.00
00194            -250.00     4400.00
00195            -150.00     4600.00
00196             250.00     4400.00
00197             122.00     4800.00
00198            -118.00     5000.00
00199            -198.00     5200.00
00200             -56.00     5400.00
00201             250.00     5400.00
00202             140.00     5600.00
00203            -250.00     5600.00
00204            -158.00     6000.00
00205             194.00     6000.00
00206             138.00     6200.00
00207            -124.00     6200.00
00208            -100.00     6400.00
00209              20.00     6400.00
00210              86.00     6400.00
00211              64.00     6600.00
00212             -76.00     6800.00
00213             -98.00     6800.00
00214              22.00     6800.00
00215              98.00     7200.00
00216              40.00     7200.00
00217             -90.00     7400.00
00218             -72.00     7200.00
00219              58.00     7600.00
00220              60.00     7800.00
00221             -26.00     7800.00
00222             -30.00     7800.00
00223               4.00     7800.00
00224             -12.00     8000.00
00225               2.00     7800.00
00226              30.00     8200.00
00227             -14.00     8200.00
00228             -38.00     8400.00
00229              12.00     8400.00
00230              30.00     8400.00
00231              -8.00     8400.00
00232             -22.00     8400.00
00233               2.00     8600.00
00234               4.00     8600.00
00235              -6.00     8400.00
00236               2.00     8600.00
00237               6.00     8600.00
00238             -14.00     8800.00
00239              -2.00     8800.00
00240              12.00     8800.00
00241             -16.00     8800.00
00242             -18.00     8800.00
00243              22.00     8800.00
00244              20.00     9000.00
00245             -28.00     8800.00
00246             -28.00     9000.00
00247              12.00     9000.00
00248              20.00     8800.00
00249              -4.00     8800.00
00250             -14.00     9000.00
00251             -12.00     8800.00
00252              -4.00     9000.00
00253              14.00     8800.00
00254              10.00     9000.00
00255             -22.00     8800.00
00256             -16.00     8800.00
00257              26.00     8800.00
00258              18.00     8800.00
00259             -22.00     8800.00
00260             -22.00     8600.00
00261              12.00     8600.00
00262              18.00     8800.00
00263              -4.00     8600.00
00264             -10.00     8600.00
00265              -6.00     8600.00
00266               4.00     8600.00
00267              10.00     8400.00
00268               2.00     8400.00
00269             -10.00     8400.00
00270              -2.00     8400.00
00271              20.00     8400.00
00272               2.00     8400.00
00273             -22.00     8200.00
00274              -6.00     8200.00
00275              20.00     8000.00
00276               6.00     7800.00
00277             -12.00     7800.00
00278             -12.00     7800.00
00279              -2.00     7800.00
00280              10.00     7600.00
00281              10.00     7600.00
00282              -4.00     7200.00
00283             -14.00     7200.00
00284               4.00     7200.00
00285              14.00     7000.00
00286              -4.00     7000.00
00287             -18.00     6800.00
00288               0.00     6800.00
00289              18.00     6400.00
00290               4.00     6400.00
00291             -12.00     6400.00
00292             -12.00     6200.00
00293               2.00     6200.00
00294              10.00     6000.00
00295               4.00     6000.00
00296             -12.00     5600.00
00297             -14.00     5600.00
00298               4.00     5600.00
00299              10.00     5400.00
00300              -6.00     5200.00
00301             -12.00     5000.00
00302               2.00     4800.00
00303              12.00     4800.00
00304              -2.00     4600.00
00305             -16.00     4400.00
00306              -8.00     4400.00
00307               4.00     4000.00
00308              10.00     4000.00
00309              -4.00     4000.00
00310             -16.00     3600.00
00311             -10.00     3600.00
00312               4.00     3600.00
00313              10.00     3200.00
00314              -8.00     3200.00
00315             -14.00     2800.00
00316               2.00     2800.00
00317               6.00     2600.00
00318              -4.00     2400.00
00319             -14.00     2200.00
00320              -6.00     2200.00
00321               6.00     2000.00
00322               6.00     2000.00
00323              -6.00     1800.00
00324             -14.00     1600.00
00325              -6.00     1200.00
00326              10.00     1200.00
00327               8.00     1000.00
00328             -10.00      800.00
00329             -12.00      600.00
00330               2.00      400.00
00331               6.00      400.00
00332               2.00        0.00
00333              -6.00        0.00
00334              -2.00     -200.00
00335              22.00     -400.00
00336              36.00     -400.00
00337               2.00     -800.00
00338             -28.00     -800.00
00339             -10.00     -800.00
00340              20.00    -1000.00
00341              24.00    -1200.00
00342              30.00    -1400.00
00343             250.00    -1600.00
00344             250.00    -2000.00
00345            -250.00    -2400.00
00346            -250.00    -2400.00
00347            -250.00    -2600.00
00348             250.00    -2000.00
00349             250.00    -2400.00
00350             250.00    -3200.00
00351            -250.00    -2600.00
00352            -116.00    -3400.00
00353             250.00    -3600.00
00354             -36.00    -2800.00
00355            -250.00    -3600.00
00356             -86.00    -4000.00
00357            -126.00    -3400.00
00358             250.00    -4000.00
00359              30.00    -4400.00
00360            -250.00    -3800.00
00361             246.00    -4600.00
00362             250.00    -4800.00
00363            -172.00    -4400.00
00364              22.00    -5000.00
00365            -172.00    -4800.00
00366               4.00    -5200.00
00367             250.00    -5800.00
00368             -84.00    -5200.00
00369            -154.00    -5600.00
00370             -34.00    -5800.00
00371              92.00    -5800.00
00372             100.00    -6000.00
00373            -124.00    -6000.00
00374             -42.00    -6400.00
00375              20.00    -6400.00
00376              40.00    -6400.00
00377              68.00    -6800.00
00378            -114.00    -6800.00
00379             -50.00    -6800.00
00380              44.00    -7200.00
00381              42.00    -6800.00
00382              58.00    -7200.00
00383            -108.00    -7200.00
00384             -70.00    -7200.00
00385              78.00    -7600.00
00386              38.00    -7400.00
00387              -6.00    -7800.00
00388             -42.00    -7800.00
00389             -28.00    -7800.00
00390              -6.00    -8000.00
00391              16.00    -8000.00
00392              46.00    -8200.00
00393             -30.00    -8200.00
00394             -52.00    -8400.00
00395              14.00    -8400.00
00396              28.00    -8200.00
00397               2.00    -8400.00
00398             -34.00    -8600.00
00399              -6.00    -8400.00
00400              14.00    -8800.00
00401             -14.00    -8800.00
00402              -6.00    -8800.00
00403               0.00    -8800.00
00404             -10.00    -8800.00
00405              10.00    -8800.00
00406               2.00    -8800.00
00407             -22.00    -9000.00
00408             -18.00    -8800.00
00409              12.00    -9000.00
00410              12.00    -9000.00
00411             -30.00    -9000.00
00412             -20.00    -9000.00
00413              26.00    -9000.00
00414              12.00    -8800.00
00415             -22.00    -9000.00
00416             -28.00    -9000.00
00417              -2.00    -9200.00
00418              18.00    -9000.00
00419               6.00    -9200.00
00420             -12.00    -9000.00
00421             -34.00    -9000.00
00422              -6.00    -9000.00
00423              34.00    -9000.00
00424               4.00    -9000.00
00425             -32.00    -9000.00
00426             -34.00    -9000.00
00427              10.00    -8800.00
00428              20.00    -8800.00
00429             -10.00    -8600.00
00430             -22.00    -8800.00
00431             -18.00    -8600.00
00432               4.00    -8800.00
00433              10.00    -8800.00
00434              -6.00    -8400.00
00435             -20.00    -8400.00
00436             -10.00    -8400.00
00437              10.00    -8400.00
00438              -4.00    -8400.00
00439             -22.00    -8200.00
00440              -8.00    -8000.00
00441              10.00    -8200.00
00442              -2.00    -8000.00
00443             -18.00    -8000.00
00444             -14.00    -7800.00
00445               2.00    -8000.00
00446               2.00    -7600.00
00447              -8.00    -7600.00
00448             -12.00    -7400.00
00449             -12.00    -7400.00
00450              10.00    -7200.00
00451               6.00    -7200.00
00452             -18.00    -7000.00
00453             -22.00    -6800.00
00454              -4.00    -6800.00
00455              18.00    -6800.00
00456               2.00    -6600.00
00457             -22.00    -6400.00
00458             -20.00    -6400.00
00459              -2.00    -6400.00
00460              10.00    -6000.00
00461              -2.00    -6000.00
00462             -20.00    -6000.00
00463             -14.00    -5800.00
00464               2.00    -5400.00
00465              10.00    -5400.00
00466             -10.00    -5200.00
00467             -22.00    -5200.00
00468              -4.00    -5000.00
00469               6.00    -5000.00
00470              -4.00    -4600.00
00471             -12.00    -4400.00
00472             -10.00    -4400.00
00473               4.00    -4400.00
00474               2.00    -4200.00
00475             -10.00    -4000.00
00476             -18.00    -4000.00
00477              -6.00    -3600.00
00478               4.00    -3600.00
00479               4.00    -3400.00
00480             -14.00    -3200.00
00481             -18.00    -3000.00
00482              -2.00    -3000.00
00483              12.00    -2800.00
00484              -6.00    -2600.00
00485             -20.00    -2600.00
00486             -12.00    -2400.00
00487               6.00    -2000.00
00488               4.00    -2000.00
00489             -10.00    -1800.00
00490             -14.00    -1600.00
00491              -6.00    -1400.00
00492               2.00    -1200.00
00493               0.00    -1200.00
00494             -10.00    -1000.00
00495             -12.00     -800.00
00496              -4.00     -600.00
00497               2.00     -400.00
00498             -10.00     -200.00
00499             -12.00        0.00
00500              -4.00        0.00
00501              14.00        0.00
00502              34.00      400.00
00503              10.00      600.00
00504             -26.00      600.00
00505             -22.00      800.00
00506               4.00      800.00
00507              10.00     1200.00
00508               6.00     1400.00
00509              36.00     1400.00
00510             218.00     1600.00
00511             250.00     2000.00
00512            -250.00     2000.00
00513            -250.00     2200.00
00514            -226.00     2200.00
00515             154.00     2400.00
00516             250.00     2800.00
00517             250.00     3000.00
00518            -250.00     2800.00
00519            -250.00     3200.00
00520             250.00     3200.00
00521             250.00     3400.00
00522            -250.00     3800.00
00523            -250.00     3600.00
00524             -26.00     3600.00
00525             250.00     4200.00
00526             230.00     4000.00
00527            -250.00     4400.00
00528            -198.00     4600.00
00529             250.00     4400.00
00530             150.00     4600.00
00531            -114.00     5000.00
00532            -196.00     5200.00
00533             -76.00     5200.00
00534             250.00     5400.00
00535             164.00     5600.00
00536            -242.00     5600.00
00537            -188.00     5800.00
00538             172.00     6000.00
00539             162.00     6200.00
00540            -108.00     6000.00
00541            -108.00     6400.00
00542              10.00     6400.00
00543              78.00     6400.00
00544              68.00     6600.00
00545             -62.00     6800.00
00546            -100.00     6800.00
00547              16.00     6800.00
00548              92.00     7000.00
00549              46.00     7200.00
00550             -84.00     7200.00
00551             -78.00     7200.00
00552              54.00     7200.00
00553              62.00     7800.00
00554             -26.00     7600.00
00555             -34.00     7800.00
00556               4.00     8000.00
00557             -12.00     8000.00
00558              -2.00     8200.00
00559              30.00     8200.00
00560             -12.00     8400.00
00561             -42.00     8000.00
00562               6.00     8400.00
00563              34.00     8400.00
00564              -6.00     8400.00
00565             -26.00     8400.00
00566              -2.00     8600.00
00567               6.00     8600.00
00568              -6.00     8600.00
00569               4.00     8600.00
00570               4.00     8800.00
00571             -16.00     8800.00
00572              -2.00     8800.00
00573              14.00     8800.00
00574             -12.00     8800.00
00575             -20.00     8800.00
00576              18.00     8800.00
00577              22.00     9000.00
00578             -22.00     8800.00
00579             -30.00     8800.00
00580               6.00     8800.00
00581              22.00     8800.00
00582               2.00     8800.00
00583             -12.00     9000.00
00584              -8.00     9200.00
00585              -2.00     9000.00
00586              12.00     8800.00
00587              12.00     9000.00
00588             -22.00     9000.00
00589             -18.00     8800.00
00590              26.00     8800.00
00591              18.00     8800.00
00592             -22.00     8800.00
00593             -22.00     8800.00
00594              12.00     8800.00
00595              20.00     8800.00
00596              -2.00     8600.00
00597             -12.00     8600.00
00598              -6.00     8600.00
00599              -2.00     8600.00
00600              12.00     8400.00
00601               2.00     8400.00
00602             -12.00     8400.00
00603              -4.00     8400.00
00604              20.00     8400.00
00605               6.00     8400.00
00606             -22.00     8200.00
00607             -10.00     8200.00
00608              20.00     8000.00
00609              10.00     8000.00
00610              -6.00     7800.00
00611             -14.00     7800.00
00612              -2.00     7600.00
00613              10.00     7600.00
00614              10.00     7600.00
00615              -4.00     7400.00
00616             -12.00     7200.00
00617              -2.00     7200.00
00618              12.00     7000.00
00619               0.00     6800.00
00620             -16.00     6800.00
00621              -4.00     6800.00
00622              12.00     6600.00
00623               4.00     6400.00
00624             -14.00     6400.00
00625             -12.00     6400.00
00626               2.00     6200.00
00627               8.00     6000.00
00628               4.00     6000.00
00629             -10.00     5800.00
00630             -12.00     5600.00
00631               2.00     5400.00
00632              10.00     5400.00
00633              -6.00     5200.00
00634             -12.00     5000.00
00635               2.00     4800.00
00636              12.00     4800.00
00637              -2.00     4600.00
00638             -18.00     4400.00
00639             -10.00     4400.00
00640               6.00     4200.00
00641              10.00     4000.00
00642              -2.00     4000.00
00643             -14.00     3800.00
00644             -12.00     3600.00
00645               4.00     3600.00
00646               6.00     3400.00
00647              -4.00     3200.00
00648             -12.00     3000.00
00649               2.00     2800.00
00650               6.00     2800.00
00651              -4.00     2400.00
00652             -12.00     2200.00
00653              -4.00     2400.00
00654               6.00     2000.00
00655               8.00     2000.00
00656              -6.00     1800.00
00657             -12.00     1600.00
00658              -4.00     1400.00
00659              12.00     1200.00
00660               6.00     1000.00
00661             -10.00      800.00
00662             -12.00      800.00
00663               2.00      400.00
00664              10.00      400.00
00665               2.00      200.00
00666             -10.00        0.00
00667              -2.00     -200.00
00668              20.00     -400.00
00669              38.00     -400.00
00670               4.00     -400.00
00671             -24.00     -800.00
00672             -12.00     -800.00
00673              20.00    -1200.00
00674              26.00    -1000.00
00675              26.00    -1400.00
00676             236.00    -1600.00
00677             250.00    -2000.00
00678            -250.00    -2400.00
00679            -250.00    -2400.00
00680            -250.00    -2600.00
00681             250.00    -2000.00
00682             250.00    -2200.00
00683             250.00    -3200.00
00684            -250.00    -2600.00
00685            -250.00    -3200.00
00686             250.00    -3600.00
00687              60.00    -2800.00
00688            -250.00    -3400.00
00689             -84.00    -4200.00
00690            -148.00    -3600.00
00691             250.00    -4000.00
00692             100.00    -4400.00
00693            -250.00    -4000.00
00694             194.00    -4600.00
00695             250.00    -4600.00
00696            -170.00    -4600.00
00697              16.00    -5200.00
00698            -156.00    -5000.00
00699             -30.00    -5200.00
00700             250.00    -5600.00
00701             -56.00    -5200.00
00702            -162.00    -5800.00
00703             -42.00    -5800.00
00704              84.00    -5800.00
00705             110.00    -6200.00
00706            -116.00    -6000.00
00707             -52.00    -6200.00
00708              20.00    -6400.00
00709              36.00    -6200.00
00710              76.00    -6800.00
00711            -104.00    -6600.00
00712             -62.00    -6800.00
00713              46.00    -7200.00
00714              42.00    -6800.00
00715              62.00    -7200.00
00716            -100.00    -7200.00
00717             -86.00    -7400.00
00718              74.00    -7400.00
00719              42.00    -7400.00
00720              -4.00    -8000.00
00721             -38.00    -7800.00
00722             -30.00    -7800.00
00723              -6.00    -8000.00
00724              10.00    -8000.00
00725              46.00    -8000.00
00726             -20.00    -8000.00
00727             -54.00    -8200.00
00728              10.00    -8200.00
00729              34.00    -8200.00
00730               2.00    -8400.00
00731             -32.00    -8400.00
00732              -6.00    -8400.00
00733              20.00    -8600.00
00734             -12.00    -8400.00
00735             -12.00    -8600.00
00736              -2.00    -8800.00
00737              -6.00    -8800.00
00738              10.00    -8800.00
00739               4.00    -8800.00
00740             -22.00    -9000.00
00741             -22.00    -9000.00
00742              14.00    -8800.00
00743              22.00    -9000.00
00744             -26.00    -9000.00
00745             -30.00    -9000.00
00746              12.00    -9000.00
00747              14.00    -8800.00
00748              -8.00    -9000.00
00749             -22.00    -9000.00
00750             -10.00    -9000.00
00751               6.00    -9000.00
00752               6.00    -9000.00
00753              -6.00    -9000.00
00754             -34.00    -9000.00
00755             -12.00    -9000.00
00756              26.00    -9000.00
00757               8.00    -9000.00
00758             -30.00    -9000.00
00759             -30.00    -9000.00
00760              10.00    -8800.00
00761              18.00    -8800.00
00762             -12.00    -8800.00
00763             -20.00    -8800.00
00764             -12.00    -8800.00
00765               2.00    -8600.00
00766               4.00    -8600.00
00767             -10.00    -8400.00
00768             -20.00    -8600.00
00769              -8.00    -8400.00
00770              12.00    -8400.00
00771               2.00    -8200.00
00772             -26.00    -8200.00
00773             -12.00    -8200.00
00774               6.00    -8000.00
00775               4.00    -8000.00
00776             -16.00    -8000.00
00777             -18.00    -8000.00
00778               0.00    -7800.00
00779               2.00    -7600.00
00780              -2.00    -7400.00
00781             -12.00    -7400.00
00782             -14.00    -7400.00
00783               4.00    -7200.00
00784               8.00    -7200.00
00785             -12.00    -7000.00
00786             -22.00    -6800.00
00787              -4.00    -6800.00
00788              18.00    -6600.00
00789               0.00    -6600.00
00790             -22.00    -6600.00
00791             -14.00    -6400.00
00792               2.00    -6400.00
00793              10.00    -6000.00
00794              -2.00    -6000.00
00795             -18.00    -5800.00
00796             -14.00    -5800.00
00797               0.00    -5600.00
00798               6.00    -5600.00
00799             -10.00    -5400.00
00800             -18.00    -5200.00
00801               0.00    -5000.00
00802               6.00    -5000.00
00803              -4.00    -4800.00
00804             -18.00    -4600.00
00805             -10.00    -4400.00
00806               6.00    -4200.00
00807               4.00    -4000.00
00808             -10.00    -4000.00
00809             -18.00    -3800.00
00810             -10.00    -3600.00
00811               2.00    -3600.00
00812               4.00    -3600.00
00813             -12.00    -3200.00
00814             -18.00    -3200.00
00815              -2.00    -3000.00
00816              10.00    -2800.00
00817             -10.00    -2800.00
00818             -22.00    -2400.00
00819             -12.00    -2400.00
00820              10.00    -2200.00
00821               4.00    -2000.00
00822             -12.00    -1800.00
00823             -18.00    -1600.00
00824              -6.00    -1600.00
00825               4.00    -1400.00
00826               0.00    -1000.00
00827             -16.00    -1000.00
00828             -14.00     -800.00
00829               2.00     -600.00
00830               6.00     -400.00
00831             -12.00     -400.00
00832             -14.00     -200.00
00833              -6.00        0.00
00834              12.00        0.00
00835              30.00      400.00
00836              14.00      400.00
00837             -22.00      600.00
00838             -26.00      800.00
00839               2.00      800.00
00840              14.00     1200.00
00841               4.00     1400.00
00842              26.00     1400.00
00843             206.00     1800.00
00844             250.00     2000.00
00845            -220.00     2200.00
00846            -250.00     2200.00
00847            -250.00     2400.00
00848             138.00     2400.00
00849             250.00     2800.00
00850             250.00     2800.00
00851            -250.00     2800.00
00852            -250.00     3200.00
00853             250.00     3200.00
00854             250.00     3200.00
00855            -250.00     3800.00
00856            -250.00     3600.00
00857             -36.00     3600.00
00858             238.00     4200.00
00859             250.00     4000.00
00860            -250.00     4000.00
00861            -242.00     4800.00
00862             250.00     4400.00
00863             180.00     4600.00
00864            -102.00     5000.00
00865            -194.00     5200.00
00866             -96.00     5400.00
00867             236.00     5400.00
00868             188.00     5600.00
00869            -224.00     5600.00
00870            -210.00     5800.00
00871             156.00     6000.00
00872             174.00     6000.00
00873            -102.00     6000.00
00874            -116.00     6200.00
00875              10.00     6400.00
00876              78.00     6400.00
00877              74.00     6600.00
00878             -58.00     6800.00
00879            -108.00     7000.00
00880               2.00     6800.00
00881              94.00     7200.00
00882              54.00     7200.00
00883             -80.00     7000.00
00884             -92.00     7200.00
00885              44.00     7400.00
00886              68.00     7600.00
00887             -22.00     7600.00
00888             -36.00     7600.00
00889              -2.00     8000.00
00890             -12.00     8000.00
00891              -2.00     8000.00
00892              30.00     8200.00
00893              -6.00     8200.00
00894             -44.00     8200.00
00895               2.00     8200.00
00896              34.00     8400.00
00897              -4.00     8400.00
00898             -22.00     8400.00
00899              -2.00     8600.00
00900               4.00     8600.00
00901              -8.00     8600.00
00902               2.00     8800.00
00903               6.00     8800.00
00904             -12.00     8800.00
00905              -6.00     8800.00
00906              14.00     9000.00
00907             -12.00     8800.00
00908             -20.00     8800.00
00909              18.00     8800.00
00910              22.00     9000.00
00911             -22.00     8800.00
00912             -30.00     8800.00
00913              10.00     9000.00
00914              20.00     8800.00
00915               2.00     9000.00
00916             -10.00     8800.00
00917             -10.00     9000.00
00918              -2.00     9000.00
00919              14.00     8800.00
00920              12.00     9000.00
00921             -18.00     8800.00
00922             -20.00     8800.00
00923              22.00     8800.00
00924              20.00     8800.00
00925             -20.00     8800.00
00926             -22.00     8800.00
00927              10.00     8800.00
00928              18.00     8800.00
00929               2.00     8600.00
00930             -10.00     8800.00
00931              -6.00     8600.00
00932               2.00     8400.00
00933              10.00     8400.00
00934               2.00     8400.00
00935             -12.00     8400.00
00936              -4.00     8400.00
00937              20.00     8200.00
00938               6.00     8200.00
00939             -22.00     8000.00
00940             -12.00     8200.00
00941              18.00     8200.00
00942              12.00     8000.00
00943             -10.00     7800.00
00944             -12.00     7800.00
00945              -4.00     7800.00
00946               6.00     7600.00
00947              10.00     7400.00
00948              -4.00     7400.00
00949             -16.00     7200.00
00950              -2.00     7200.00
00951              12.00     7000.00
00952               2.00     6800.00
00953             -18.00     6800.00
00954              -4.00     6600.00
00955              14.00     6600.00
00956               6.00     6400.00
00957             -14.00     6400.00
00958             -14.00     6200.00
00959              -2.00     6200.00
00960               6.00     6000.00
00961               6.00     6000.00
00962             -10.00     5600.00
00963             -12.00     5600.00
00964               4.00     5600.00
00965              10.00     5400.00
00966              -4.00     5400.00
00967             -14.00     5000.00
00968              -4.00     5000.00
00969              10.00     4800.00
00970              -2.00     4600.00
00971             -12.00     4400.00
00972             -10.00     4400.00
00973               4.00     4200.00
00974              10.00     4000.00
00975               2.00     4000.00
00976             -12.00     3600.00
00977             -12.00     3600.00
00978               4.00     3600.00
00979              10.00     3200.00
00980              -6.00     3200.00
00981             -12.00     3000.00
00982               2.00     2800.00
00983               6.00     2600.00
00984              -2.00     2400.00
00985             -10.00     2400.00
00986              -2.00     2000.00
00987               4.00     2000.00
00988              10.00     2000.00
00989              -4.00     1600.00
00990             -14.00     1400.00
00991              -6.00     1200.00
00992              10.00     1200.00
00993               8.00      800.00
00994              -6.00      800.00
00995             -12.00      600.00
00996               2.00      600.00
00997               8.00      400.00
00998               2.00        0.00
00999             -10.00        0.00
01000              -4.00        0.00
01001              20.00     -400.00
01002              38.00     -400.00
01003               6.00     -600.00
01004             -26.00     -600.00
01005             -14.00    -1000.00
01006              20.00    -1000.00
01007              28.00    -1000.00
01008              20.00    -1600.00
01009             212.00    -1600.00
01010             250.00    -2000.00
01011            -250.00    -2200.00
01012            -250.00    -2400.00
01013            -250.00    -2600.00
01014             196.00    -2000.00
01015             250.00    -2000.00
01016             250.00    -3200.00
01017            -250.00    -2800.00
01018            -250.00    -3000.00
01019             250.00    -3800.00
01020             158.00    -2800.00
01021            -250.00    -3400.00
01022             -84.00    -4200.00
01023            -158.00    -3600.00
01024             250.00    -4000.00
01025             166.00    -4400.00
01026            -250.00    -3800.00
01027             134.00    -4400.00
01028             250.00    -4800.00
01029            -166.00    -4400.00
01030               6.00    -5200.00
01031            -140.00    -4800.00
01032             -62.00    -5000.00
01033             250.00    -5600.00
01034             -32.00    -5000.00
01035            -170.00    -5600.00
01036             -46.00    -5600.00
01037              74.00    -5600.00
01038             122.00    -6200.00
01039            -102.00    -6000.00
01040             -64.00    -6200.00
01041              26.00    -6400.00
01042              28.00    -6200.00
01043              82.00    -6800.00
01044             -94.00    -6800.00
01045             -74.00    -6800.00
01046              46.00    -7200.00
01047              36.00    -6800.00
01048              68.00    -7200.00
01049             -90.00    -7200.00
01050             -94.00    -7400.00
01051              70.00    -7600.00
01052              48.00    -7400.00
01053              -4.00    -7600.00
01054             -38.00    -7800.00
01055             -32.00    -7800.00
01056              -4.00    -8000.00
01057              12.00    -7800.00
01058              44.00    -8000.00
01059             -14.00    -8200.00
01060             -58.00    -8200.00
01061               2.00    -8400.00
01062              36.00    -8200.00
01063               6.00    -8400.00
01064             -30.00    -8400.00
01065             -18.00    -8600.00
01066              18.00    -8600.00
01067              -4.00    -8400.00
01068             -12.00    -8800.00
01069               2.00    -8600.00
01070             -10.00    -8800.00
01071               6.00    -8800.00
01072               2.00    -8800.00
01073             -26.00    -9000.00
01074             -16.00    -8800.00
01075              18.00    -8800.00
01076              20.00    -9000.00
01077             -30.00    -9000.00
01078             -36.00    -9000.00
01079              14.00    -9000.00
01080              20.00    -8800.00
01081              -6.00    -9000.00
01082             -22.00    -9000.00
01083             -12.00    -9000.00
01084               4.00    -9000.00
01085               8.00    -9000.00
01086               2.00    -9000.00
01087             -30.00    -9000.00
01088             -22.00    -9000.00
01089              22.00    -8800.00
01090              12.00    -9000.00
01091             -22.00    -9000.00
01092             -30.00    -8800.00
01093               4.00    -9000.00
01094              16.00    -8800.00
01095             -10.00    -8800.00
01096             -12.00    -8800.00
01097             -10.00    -8800.00
01098              -2.00    -8600.00
01099               2.00    -8600.00
01100             -12.00    -8400.00
01101             -14.00    -8400.00
01102              -6.00    -8400.00
01103              16.00    -8400.00
01104              -4.00    -8200.00
01105             -28.00    -8200.00
01106             -12.00    -8200.00
01107              12.00    -8000.00
01108               6.00    -8000.00
01109             -14.00    -8000.00
01110             -20.00    -7800.00
01111              -2.00    -7800.00
01112               4.00    -7600.00
01113              -2.00    -7600.00
01114             -12.00    -7200.00
01115             -14.00    -7400.00
01116               4.00    -7400.00
01117               6.00    -7200.00
01118              -6.00    -6800.00
01119             -22.00    -6800.00
01120              -8.00    -6800.00
01121              14.00    -6800.00
01122               4.00    -6600.00
01123             -18.00    -6400.00
01124             -14.00    -6400.00
01125               0.00    -6400.00
01126               4.00    -6000.00
01127              -6.00    -6000.00
01128             -18.00    -5800.00
01129             -12.00    -5800.00
01130              -2.00    -5800.00
01131               6.00    -5400.00
01132              -6.00    -5400.00
01133             -14.00    -5200.00
01134              -2.00    -5000.00
01135               8.00    -5000.00
01136              -4.00    -4600.00
01137             -16.00    -4600.00
01138             -12.00    -4400.00
01139               4.00    -4200.00
01140               4.00    -4000.00
01141             -10.00    -4000.00
01142             -18.00    -4000.00
01143             -10.00    -3600.00
01144               4.00    -3400.00
01145               2.00    -3400.00
01146             -14.00    -3200.00
01147             -18.00    -3000.00
01148               2.00    -3000.00
01149              10.00    -2600.00
01150              -6.00    -2600.00
01151             -20.00    -2400.00
01152             -12.00    -2400.00
01153               4.00    -2000.00
01154               4.00    -1800.00
01155             -10.00    -1800.00
01156             -16.00    -1600.00
01157             -10.00    -1200.00
01158               4.00    -1200.00
01159               4.00    -1000.00
01160             -14.00    -1000.00
01161             -18.00     -800.00
01162               2.00     -600.00
01163               6.00     -400.00
01164              -6.00     -400.00
01165             -14.00        0.00
01166              -4.00        0.00
01167              10.00      400.00
01168              30.00      600.00
01169              16.00      400.00
01170             -20.00      600.00
01171             -22.00      800.00
01172               4.00      800.00
01173              16.00     1200.00
01174               4.00     1400.00
01175              14.00     1400.00
01176             186.00     1800.00
01177             250.00     2000.00
01178            -172.00     2200.00
01179            -250.00     2200.00
01180            -250.00     2200.00
01181             116.00     2200.00
01182             250.00     2800.00
01183             250.00     3000.00
01184            -250.00     2800.00
01185            -250.00     3000.00
01186             250.00     3400.00
01187             250.00     3200.00
01188            -250.00     3800.00
01189            -250.00     3600.00
01190             -54.00     3800.00
01191             210.00     4200.00
01192             250.00     4000.00
01193            -250.00     4400.00
01194            -250.00     4600.00
01195             250.00     4600.00
01196             202.00     4400.00
01197             -96.00     5000.00
01198            -194.00     5200.00
01199            -108.00     5400.00
01200             218.00     5400.00
01201             210.00     5600.00
01202            -202.00     5600.00
01203            -226.00     5600.00
01204             140.00     6000.00
01205             194.00     6200.00
01206             -92.00     6000.00
01207            -130.00     6400.00
01208               4.00     6400.00
01209              84.00     6800.00
01210              76.00     6600.00
01211             -56.00     6600.00
01212            -110.00     7000.00
01213              -2.00     6800.00
01214              92.00     7000.00
01215              62.00     7200.00
01216             -68.00     7200.00
01217             -94.00     7400.00
01218              36.00     7200.00
01219              70.00     7600.00
01220             -18.00     7600.00
01221             -44.00     7800.00
01222              -2.00     7800.00
01223              -4.00     8000.00
01224               2.00     8000.00
01225              30.00     8200.00
01226             -10.00     8200.00
01227             -44.00     8400.00
01228               2.00     8000.00
01229              38.00     8400.00
01230              -2.00     8400.00
01231             -30.00     8400.00
01232              -6.00     8600.00
01233              14.00     8600.00
01234              -2.00     8600.00
01235              -4.00     8600.00
01236              -2.00     8800.00
01237             -14.00     8800.00
01238               2.00     8800.00
01239              20.00     8800.00
01240              -6.00     8800.00
01241             -30.00     9000.00
01242               8.00     8800.00
01243              28.00     8800.00
01244              -6.00     9200.00
01245             -28.00     9000.00
01246              -2.00     8800.00
01247              18.00     8800.00
01248               4.00     9000.00
01249              -2.00     9000.00
01250              -6.00     9000.00
01251              -6.00     9000.00
01252               6.00     8800.00
01253              14.00     9000.00
01254             -12.00     9000.00
01255             -16.00     8800.00
01256              18.00     8800.00
01257              20.00     8800.00
01258             -20.00     9000.00
01259             -26.00     8800.00
01260              12.00     8800.00
01261              22.00     8800.00
01262               2.00     8600.00
01263             -14.00     8800.00
01264              -6.00     8600.00
01265               4.00     8600.00
01266              14.00     8600.00
01267               2.00     8400.00
01268             -14.00     8400.00
01269              -8.00     8400.00
01270              18.00     8400.00
01271              10.00     8400.00
01272             -22.00     8200.00
01273             -18.00     8200.00
01274              14.00     8000.00
01275              18.00     8200.00
01276              -6.00     7800.00
01277             -14.00     7800.00
01278              -8.00     7600.00
01279               4.00     7800.00
01280              10.00     7400.00
01281               2.00     7400.00
01282             -14.00     7200.00
01283              -4.00     7200.00
01284              10.00     7000.00
01285               2.00     7000.00
01286             -14.00     6800.00
01287              -6.00     6800.00
01288              12.00     6800.00
01289              10.00     6400.00
01290             -14.00     6400.00
01291             -14.00     6200.00
01292               2.00     6200.00
01293              10.00     6000.00
01294               6.00     6000.00
01295              -6.00     6000.00
01296             -12.00     5600.00
01297              -2.00     5600.00
01298               6.00     5400.00
01299              -4.00     5200.00
01300             -12.00     5200.00
01301               4.00     5000.00
01302              10.00     4600.00
01303               2.00     4600.00
01304             -18.00     4400.00
01305             -12.00     4400.00
01306               6.00     4400.00
01307              12.00     4000.00
01308               4.00     3800.00
01309             -12.00     3800.00
01310             -14.00     3600.00
01311               4.00     3600.00
01312              12.00     3400.00
01313               2.00     3200.00
01314             -12.00     3000.00
01315              -4.00     2800.00
01316               6.00     2800.00
01317               2.00     2600.00
01318             -10.00     2400.00
01319              -6.00     2200.00
01320               4.00     2000.00
01321               6.00     2000.00
01322               0.00     1600.00
01323             -10.00     1800.00
01324              -6.00     1400.00
01325               6.00     1200.00
01326               6.00     1000.00
01327              -6.00      800.00
01328             -10.00      600.00
01329               4.00      400.00
01330               8.00      400.00
01331              -2.00      200.00
01332              -8.00        0.00
01333               2.00     -200.00
01334              18.00     -400.00
01335              36.00     -400.00
01336              10.00     -600.00
01337             -26.00     -800.00
01338             -18.00    -1000.00
01339              20.00    -1000.00
01340              22.00    -1000.00
01341              18.00    -1400.00
01342             190.00    -1400.00
01343             250.00    -1800.00
01344            -212.00    -2200.00
01345            -250.00    -2400.00
01346            -250.00    -2600.00
01347             138.00    -2200.00
01348             250.00    -2200.00
01349             250.00    -3200.00
01350            -250.00    -2800.00
01351            -250.00    -3000.00
01352             250.00    -3800.00
01353             250.00    -2800.00
01354            -250.00    -3200.00
01355             -86.00    -4200.00
01356            -170.00    -3600.00
01357             250.00    -4000.00
01358             226.00    -4400.00
01359            -250.00    -4000.00
01360              76.00    -4400.00
01361             250.00    -4800.00
01362            -156.00    -4400.00
01363               2.00    -5000.00
01364            -120.00    -5000.00
01365             -92.00    -4800.00
01366             250.00    -5600.00
01367              -2.00    -5200.00
01368            -172.00    -5600.00
01369             -52.00    -5800.00
01370              64.00    -5600.00
01371             126.00    -6000.00
01372             -92.00    -6000.00
01373             -74.00    -6200.00
01374              28.00    -6400.00
01375              26.00    -6200.00
01376              84.00    -6800.00
01377             -84.00    -6800.00
01378             -82.00    -6600.00
01379              46.00    -7200.00
01380              36.00    -6800.00
01381              68.00    -7000.00
01382             -76.00    -7200.00
01383            -106.00    -7400.00
01384              66.00    -7600.00
01385              52.00    -7400.00
01386              -4.00    -7600.00
01387             -36.00    -7800.00
01388             -30.00    -7800.00
01389              -4.00    -8000.00
01390               4.00    -8000.00
01391              42.00    -8000.00
01392             -10.00    -8200.00
01393             -60.00    -8200.00
01394               4.00    -8400.00
01395              36.00    -8400.00
01396              10.00    -8400.00
01397             -32.00    -8400.00
01398             -20.00    -8400.00
01399              18.00    -8800.00
01400              -6.00    -8600.00
01401             -10.00    -8800.00
01402               4.00    -8800.00
01403             -12.00    -8800.00
01404               0.00    -8800.00
01405               2.00    -8800.00
01406             -22.00    -8800.00
01407             -12.00    -9000.00
01408              18.00    -8800.00
01409              16.00    -9000.00
01410             -36.00    -9000.00
01411             -36.00    -9000.00
01412              18.00    -9000.00
01413              22.00    -9000.00
01414             -10.00    -9000.00
01415             -30.00    -9000.00
01416             -14.00    -9000.00
01417              12.00    -8800.00
01418              10.00    -9000.00
01419              -4.00    -9000.00
01420             -34.00    -9000.00
01421             -20.00    -9000.00
01422              26.00    -9000.00
01423              14.00    -8800.00
01424             -32.00    -8800.00
01425             -36.00    -8800.00
01426              10.00    -8800.00
01427              26.00    -8800.00
01428             -12.00    -8800.00
01429             -26.00    -8800.00
01430             -12.00    -8800.00
01431               6.00    -8600.00
01432              10.00    -8400.00
01433             -10.00    -8400.00
01434             -24.00    -8400.00
01435             -14.00    -8400.00
01436              18.00    -8400.00
01437              10.00    -8400.00
01438             -28.00    -8200.00
01439             -16.00    -8200.00
01440              10.00    -8000.00
01441              10.00    -8000.00
01442             -12.00    -7800.00
01443             -22.00    -8000.00
01444              -6.00    -7600.00
01445               4.00    -7600.00
01446               2.00    -7400.00
01447              -6.00    -7400.00
01448             -18.00    -7400.00
01449               2.00    -7200.00
01450              14.00    -7200.00
01451              -6.00    -6800.00
01452             -26.00    -7000.00
01453             -10.00    -6800.00
01454              14.00    -6800.00
01455               6.00    -6600.00
01456             -18.00    -6600.00
01457             -18.00    -6400.00
01458              -2.00    -6200.00
01459               6.00    -6200.00
01460              -2.00    -6000.00
01461             -12.00    -5800.00
01462             -12.00    -5800.00
01463              -4.00    -5600.00
01464               6.00    -5600.00
01465              -6.00    -5400.00
01466             -22.00    -5200.00
01467              -4.00    -5000.00
01468              12.00    -5000.00
01469              -6.00    -4800.00
01470             -22.00    -4600.00
01471             -12.00    -4400.00
01472               4.00    -4200.00
01473               6.00    -4200.00
01474              -6.00    -4000.00
01475             -14.00    -4000.00
01476             -10.00    -4000.00
01477              -2.00    -3600.00
01478               4.00    -3400.00
01479             -10.00    -3400.00
01480             -18.00    -3200.00
01481               0.00    -2800.00
01482              10.00    -2800.00
01483              -6.00    -2800.00
01484             -20.00    -2600.00
01485             -16.00    -2400.00
01486               6.00    -2200.00
01487               4.00    -2000.00
01488              -6.00    -1800.00
01489             -20.00    -1600.00
01490              -6.00    -1600.00
01491               6.00    -1200.00
01492               6.00    -1000.00
01493             -12.00    -1000.00
01494             -18.00     -800.00
01495              -6.00     -600.00
01496               6.00     -400.00
01497              -6.00     -200.00
01498             -12.00     -200.00
01499              -6.00        0.00
01500              10.00      200.00
01501              30.00      400.00
01502              20.00      400.00
01503             -14.00      600.00
01504             -26.00      800.00
01505              -2.00     1000.00
01506              14.00     1200.00
01507               6.00     1200.00
01508              20.00     1400.00
01509             172.00     1800.00
01510             250.00     2000.00
01511            -138.00     2200.00
01512            -250.00     2200.00
01513            -250.00     2400.00
01514             100.00     2400.00
01515             250.00     2800.00
01516             250.00     3000.00
01517            -250.00     2800.00
01518            -250.00     3000.00
01519             250.00     3200.00
01520             250.00     3400.00
01521            -250.00     3800.00
01522            -250.00     3600.00
01523             -62.00     3600.00
01524             194.00     4000.00
01525             250.00     4200.00
01526            -250.00     4200.00
01527            -250.00     4600.00
01528             250.00     4600.00
01529             228.00     4600.00
01530             -78.00     5000.00
01531            -186.00     5200.00
01532            -130.00     5200.00
01533             194.00     5200.00
01534             226.00     5400.00
01535            -174.00     5600.00
01536            -242.00     5600.00
01537             116.00     6000.00
01538             198.00     6200.00
01539             -76.00     6000.00
01540            -132.00     6200.00
01541              -4.00     6200.00
01542              76.00     6600.00
01543              82.00     6400.00
01544             -44.00     6600.00
01545            -116.00     6800.00
01546             -14.00     6800.00
01547              88.00     6800.00
01548              70.00     7200.00
01549             -62.00     7200.00
01550            -102.00     7600.00
01551              30.00     7400.00
01552              82.00     7600.00
01553              -6.00     7800.00
01554             -46.00     7800.00
01555              -6.00     7800.00
01556              -4.00     7800.00
01557              -4.00     8200.00
01558              28.00     8200.00
01559               2.00     8200.00
01560             -44.00     8400.00
01561              -6.00     8200.00
01562              36.00     8400.00
01563               4.00     8400.00
01564             -26.00     8400.00
01565             -10.00     8400.00
01566               6.00     8600.00
01567              -4.00     8600.00
01568               2.00     8800.00
01569              10.00     8800.00
01570             -10.00     8800.00
01571             -10.00     8800.00
01572              12.00     8800.00
01573              -6.00     8800.00
01574             -20.00     9000.00
01575              12.00     9000.00
01576              28.00     8800.00
01577             -14.00     9000.00
01578             -34.00     9000.00
01579               2.00     9000.00
01580              22.00     9200.00
01581               6.00     9000.00
01582             -10.00     9200.00
01583             -10.00     9200.00
01584              -4.00     8800.00
01585              12.00     9000.00
01586              12.00     9200.00
01587             -14.00     9000.00
01588             -22.00     9000.00
01589              16.00     8800.00
01590              26.00     8800.00
01591             -14.00     8800.00
01592             -26.00     8800.00
01593               4.00     8800.00
01594              20.00     8800.00
01595               4.00     8800.00
01596              -6.00     8800.00
01597              -8.00     8600.00
01598              -2.00     8600.00
01599               4.00     8400.00
01600               2.00     8400.00
01601             -12.00     8400.00
01602              -8.00     8400.00
01603              14.00     8400.00
01604              10.00     8400.00
01605             -20.00     8000.00
01606             -18.00     8000.00
01607              14.00     8200.00
01608              16.00     8000.00
01609             -10.00     7800.00
01610             -18.00     7800.00
01611             -10.00     7800.00
01612               8.00     7600.00
01613              10.00     7400.00
01614              -4.00     7400.00
01615             -16.00     7200.00
01616              -4.00     7200.00
01617              10.00     7000.00
01618               4.00     6800.00
01619             -18.00     6800.00
01620             -10.00     6800.00
01621              12.00     6600.00
01622              10.00     6600.00
01623              -8.00     6400.00
01624             -12.00     6400.00
01625              -4.00     6200.00
01626               6.00     6000.00
01627               4.00     6000.00
01628              -6.00     5600.00
01629             -10.00     5600.00
01630              -2.00     5600.00
01631              10.00     5400.00
01632              -4.00     5400.00
01633             -12.00     5200.00
01634               2.00     4800.00
01635              12.00     4800.00
01636               2.00     4600.00
01637             -12.00     4400.00
01638             -10.00     4400.00
01639               4.00     4000.00
01640              12.00     4000.00
01641               2.00     4000.00
01642             -12.00     3800.00
01643             -14.00     3800.00
01644               2.00     3600.00
01645              16.00     3200.00
01646               0.00     3200.00
01647             -12.00     3000.00
01648              -4.00     2800.00
01649              10.00     2800.00
01650               0.00     2400.00
01651             -12.00     2200.00
01652              -6.00     2400.00
01653               4.00     2000.00
01654              10.00     2000.00
01655              -4.00     1800.00
01656             -12.00     1600.00
01657              -6.00     1400.00
01658              10.00     1200.00
01659              12.00     1000.00
01660              -6.00      600.00
01661             -18.00      600.00
01662              -2.00      600.00
01663               6.00      400.00
01664               2.00      200.00
01665              -6.00        0.00
01666              -6.00     -200.00
01667              12.00     -200.00
01668              38.00     -400.00
01669              14.00     -600.00
01670             -22.00     -800.00
01671             -22.00     -800.00
01672              14.00    -1000.00
01673              26.00    -1200.00
01674              18.00    -1200.00
01675             172.00    -1400.00
01676             250.00    -2000.00
01677            -164.00    -2200.00
01678            -250.00    -2400.00
01679            -250.00    -2600.00
01680              82.00    -2000.00
01681             250.00    -2000.00
01682             250.00    -3000.00
01683            -250.00    -2800.00
01684            -250.00    -2800.00
01685             250.00    -3800.00
01686             250.00    -3200.00
01687            -250.00    -3200.00
01688             -92.00    -4200.00
01689            -172.00    -3600.00
01690             250.00    -4000.00
01691             250.00    -4400.00
01692            -250.00    -4000.00
01693              10.00    -4400.00
01694             250.00    -4800.00
01695            -136.00    -4400.00
01696             -18.00    -5000.00
01697            -102.00    -5000.00
01698            -118.00    -5000.00
01699             250.00    -5600.00
01700              28.00    -5200.00
01701            -180.00    -5400.00
01702             -60.00    -5800.00
01703              58.00    -5600.00
01704             138.00    -6000.00
01705             -76.00    -6000.00
01706             -86.00    -6200.00
01707              26.00    -6400.00
01708              20.00    -6400.00
01709              90.00    -6600.00
01710             -66.00    -6800.00
01711             -96.00    -6600.00
01712              42.00    -7000.00
01713              34.00    -6800.00
01714              72.00    -7000.00
01715             -60.00    -7200.00
01716            -116.00    -7200.00
01717              58.00    -7600.00
01718              58.00    -7600.00
01719               2.00    -7800.00
01720             -30.00    -7800.00
01721             -38.00    -7600.00
01722              -6.00    -8000.00
01723               4.00    -8000.00
01724              44.00    -8000.00
01725              -2.00    -8200.00
01726             -60.00    -8000.00
01727              -4.00    -8400.00
01728              30.00    -8400.00
01729              10.00    -8400.00
01730             -28.00    -8400.00
01731             -22.00    -8400.00
01732              18.00    -8600.00
01733              -6.00    -8800.00
01734             -18.00    -8600.00
01735               2.00    -8800.00
01736             -10.00    -8800.00
01737               4.00    -8800.00
01738               2.00    -8800.00
01739             -26.00    -9000.00
01740             -20.00    -9000.00
01741              14.00    -9000.00
01742              22.00    -9000.00
01743             -26.00    -9000.00
01744             -42.00    -9000.00
01745               4.00    -9000.00
01746              22.00    -8800.00
01747              -2.00    -9000.00
01748             -26.00    -9000.00
01749             -18.00    -9000.00
01750               4.00    -9000.00
01751              12.00    -9000.00
01752               4.00    -9000.00
01753             -30.00    -9000.00
01754             -26.00    -9000.00
01755              20.00    -9000.00
01756              18.00    -8800.00
01757             -20.00    -8800.00
01758             -30.00    -8800.00
01759               0.00    -8800.00
01760              18.00    -8800.00
01761              -6.00    -8800.00
01762             -18.00    -8800.00
01763             -10.00    -8800.00
01764               2.00    -8600.00
01765               4.00    -8400.00
01766              -6.00    -8600.00
01767             -20.00    -8400.00
01768              -6.00    -8400.00
01769              18.00    -8200.00
01770               4.00    -8400.00
01771             -28.00    -8200.00
01772             -20.00    -8200.00
01773               8.00    -8200.00
01774              10.00    -8000.00
01775              -6.00    -8000.00
01776             -22.00    -7600.00
01777              -6.00    -7800.00
01778              10.00    -8000.00
01779               2.00    -7400.00
01780             -18.00    -7400.00
01781             -28.00    -7400.00
01782               4.00    -7400.00
01783              26.00    -7200.00
01784              -2.00    -7200.00
01785             -34.00    -7000.00
01786             -20.00    -6800.00
01787              26.00    -6600.00
01788              22.00    -6600.00
01789             -22.00    -6400.00
01790             -38.00    -6400.00
01791             -12.00    -6400.00
01792              22.00    -6000.00
01793              18.00    -6000.00
01794             -22.00    -6000.00
01795             -28.00    -5800.00
01796              -6.00    -5600.00
01797              10.00    -5600.00
01798              -2.00    -5200.00
01799             -10.00    -5200.00
01800              -6.00    -5200.00
01801              -4.00    -5000.00
01802             -10.00    -4600.00
01803              -8.00    -4600.00
01804              -4.00    -4400.00
01805               0.00    -4200.00
01806              -4.00    -4200.00
01807              -6.00    -4200.00
01808             -18.00    -4000.00
01809             -14.00    -3800.00
01810               4.00    -3600.00
01811              10.00    -3400.00
01812             -12.00    -3200.00
01813             -22.00    -3200.00
01814              -6.00    -3200.00
01815              10.00    -2800.00
01816              -2.00    -2800.00
01817             -20.00    -2600.00
01818             -22.00    -2400.00
01819               4.00    -2200.00
01820              14.00    -2000.00
01821               4.00    -1800.00
01822             -20.00    -1800.00
01823             -22.00    -1600.00
01824               2.00    -1200.00
01825              10.00    -1200.00
01826               2.00    -1000.00
01827             -12.00     -800.00
01828              -6.00     -600.00
01829              -2.00     -600.00
01830              -2.00     -200.00
01831              -6.00     -200.00
01832              -6.00        0.00
01833               6.00      200.00
01834              30.00      400.00
01835              24.00      600.00
01836             -14.00      600.00
01837             -28.00      600.00
01838              -4.00      800.00
01839              18.00     1200.00
01840              18.00     1200.00
01841              20.00     1400.00
01842             148.00     1800.00
01843             250.00     2000.00
01844             -92.00     2200.00
01845            -250.00     2200.00
01846            -250.00     2400.00
01847              76.00     2400.00
01848             250.00     2600.00
01849             250.00     3000.00
01850            -250.00     2800.00
01851            -250.00     3000.00
01852             250.00     3200.00
01853             250.00     3400.00
01854            -250.00     3800.00
01855            -250.00     3600.00
01856             -66.00     3600.00
01857             164.00     4000.00
01858             250.00     4000.00
01859            -248.00     4000.00
01860            -250.00     4600.00
01861             242.00     4600.00
01862             250.00     4600.00
01863             -68.00     5200.00
01864            -182.00     5200.00
01865            -140.00     5200.00
01866             172.00     5400.00
01867             242.00     5400.00
01868            -152.00     5600.00
01869            -250.00     5800.00
01870              90.00     6000.00
01871             210.00     6000.00
01872             -56.00     6200.00
01873            -138.00     6000.00
01874             -20.00     6400.00
01875              68.00     6400.00
01876              90.00     6600.00
01877             -22.00     6800.00
01878            -112.00     6800.00
01879             -28.00     6800.00
01880              74.00     7000.00
01881              70.00     7000.00
01882             -50.00     7200.00
01883            -100.00     7200.00
01884              22.00     7600.00
01885              78.00     7600.00
01886              -4.00     7800.00
01887             -44.00     7800.00
01888              -4.00     7800.00
01889              -4.00     7800.00
01890              -8.00     8000.00
01891              24.00     8200.00
01892               4.00     8200.00
01893             -36.00     8200.00
01894              -6.00     8400.00
01895              30.00     8400.00
01896               6.00     8400.00
01897             -22.00     8400.00
01898              -6.00     8400.00
01899               4.00     8600.00
01900              -6.00     8600.00
01901               2.00     8600.00
01902              12.00     9000.00
01903              -6.00     8800.00
01904              -6.00     8800.00
01905              14.00     8800.00
01906              -4.00     8800.00
01907             -22.00     8800.00
01908               4.00     8800.00
01909              26.00     9000.00
01910              -6.00     8800.00
01911             -34.00     9000.00
01912              -2.00     9000.00
01913              24.00     9000.00
01914              10.00     8800.00
01915              -6.00     9200.00
01916             -12.00     9000.00
01917             -10.00     9000.00
01918              10.00     9000.00
01919              14.00     8800.00
01920             -10.00     9000.00
01921             -22.00     8800.00
01922              12.00     8800.00
01923              22.00     8800.00
01924             -12.00     8800.00
01925             -30.00     8800.00
01926               2.00     8800.00
01927              20.00     8800.00
01928               4.00     8800.00
01929             -10.00     8600.00
01930             -10.00     8600.00
01931              -4.00     8600.00
01932               6.00     8400.00
01933               4.00     8400.00
01934             -12.00     8400.00
01935             -10.00     8400.00
01936              12.00     8400.00
01937              10.00     8200.00
01938             -22.00     8200.00
01939             -14.00     8200.00
01940              14.00     8000.00
01941              18.00     8000.00
01942             -10.00     8000.00
01943             -18.00     7800.00
01944              -8.00     7600.00
01945               6.00     7600.00
01946              10.00     7600.00
01947              -4.00     7600.00
01948             -14.00     7400.00
01949              -6.00     7200.00
01950              12.00     7000.00
01951               6.00     7000.00
01952             -14.00     6800.00
01953             -10.00     6800.00
01954              12.00     6800.00
01955              12.00     6400.00
01956              -8.00     6400.00
01957             -14.00     6200.00
01958              -4.00     6200.00
01959               6.00     6000.00
01960               8.00     6000.00
01961              -4.00     6000.00
01962             -12.00     5800.00
01963              -4.00     5400.00
01964              10.00     5400.00
01965               2.00     5400.00
01966             -10.00     5200.00
01967              -4.00     4800.00
01968              12.00     4800.00
01969               6.00     4800.00
01970             -12.00     4600.00
01971              -6.00     4400.00
01972               4.00     4400.00
01973              10.00     4000.00
01974               2.00     4000.00
01975              -8.00     3800.00
01976             -12.00     3600.00
01977               2.00     3400.00
01978              12.00     3200.00
01979              -2.00     3200.00
01980             -12.00     3000.00
01981              -2.00     2800.00
01982              10.00     2800.00
01983               2.00     2400.00
01984             -12.00     2400.00
01985              -8.00     2200.00
01986               6.00     2000.00
01987              10.00     2000.00
01988              -2.00     1800.00
01989             -14.00     1600.00
01990             -10.00     1400.00
01991               4.00     1200.00
01992              10.00      800.00
01993              -6.00      800.00
01994             -14.00      600.00
01995              -4.00      400.00
01996               6.00      400.00
01997               4.00      200.00
01998             -10.00        0.00
01999              -6.00     -200.00
02000              14.00     -400.00
02001              36.00     -400.00
02002              18.00     -400.00
02003             -22.00     -800.00
02004             -22.00    -1000.00
02005              12.00    -1200.00
02006              26.00    -1200.00
02007              18.00    -1400.00
02008             150.00    -1400.00
02009             250.00    -1800.00
02010            -112.00    -2200.00
02011            -250.00    -2400.00
02012            -250.00    -2600.00
02013              30.00    -2400.00
02014             250.00    -2000.00
02015             250.00    -3000.00
02016            -250.00    -2800.00
02017            -250.00    -2800.00
02018             250.00    -3600.00
02019             250.00    -3000.00
02020            -250.00    -3200.00
02021            -102.00    -4000.00
02022            -172.00    -3600.00
02023             244.00    -3800.00
02024             250.00    -4600.00
02025            -250.00    -4000.00
02026             -56.00    -4400.00
02027             250.00    -4800.00
02028            -110.00    -4400.00
02029             -28.00    -5000.00
02030             -84.00    -5000.00
02031            -144.00    -4600.00
02032             250.00    -5800.00
02033              60.00    -5200.00
02034            -182.00    -5600.00
02035             -70.00    -6000.00
02036              42.00    -5800.00
02037             140.00    -6000.00
02038             -60.00    -6000.00
02039             -94.00    -6200.00
02040              28.00    -6400.00
02041              18.00    -6200.00
02042              88.00    -6800.00
02043             -56.00    -6800.00
02044            -102.00    -6600.00
02045              36.00    -7200.00
02046              30.00    -6800.00
02047              72.00    -7000.00
02048             -46.00    -7400.00
02049            -124.00    -7200.00
02050              50.00    -7600.00
02051              62.00    -7600.00
02052               4.00    -7800.00
02053             -30.00    -7800.00
02054             -42.00    -7600.00
02055              -6.00    -7800.00
02056              -2.00    -8000.00
02057              42.00    -8200.00
02058               2.00    -8200.00
02059             -60.00    -8200.00
02060             -10.00    -8400.00
02061              30.00    -8200.00
02062              14.00    -8400.00
02063             -28.00    -8400.00
02064             -22.00    -8400.00
02065              14.00    -8600.00
02066              -8.00    -8800.00
02067             -18.00    -8600.00
02068               2.00    -8800.00
02069             -10.00    -8800.00
02070               4.00    -8800.00
02071               2.00    -9000.00
02072             -24.00    -8800.00
02073             -22.00    -9000.00
02074              12.00    -8800.00
02075              26.00    -9000.00
02076             -22.00    -8800.00
02077             -44.00    -9000.00
02078               2.00    -9000.00
02079              26.00    -9000.00
02080               2.00    -9000.00
02081             -26.00    -9000.00
02082             -20.00    -9000.00
02083               4.00    -9000.00
02084              10.00    -9000.00
02085               4.00    -9000.00
02086             -28.00    -8800.00
02087             -30.00    -9000.00
02088              14.00    -9000.00
02089              18.00    -8800.00
02090             -14.00    -9000.00
02091             -30.00    -8800.00
02092              -4.00    -8800.00
02093              20.00    -8800.00
02094              -4.00    -8800.00
02095             -18.00    -8400.00
02096             -10.00    -8800.00
02097              -2.00    -8600.00
02098               6.00    -8600.00
02099              -6.00    -8400.00
02100             -18.00    -8400.00
02101             -10.00    -8400.00
02102              12.00    -8400.00
02103               6.00    -8200.00
02104             -22.00    -8200.00
02105             -18.00    -8200.00
02106              10.00    -8000.00
02107              10.00    -8000.00
02108             -12.00    -8000.00
02109             -22.00    -7800.00
02110              -6.00    -8000.00
02111               4.00    -7600.00
02112               4.00    -7800.00
02113              -6.00    -7400.00
02114             -18.00    -7200.00
02115              -4.00    -7200.00
02116              10.00    -7200.00
02117              -4.00    -7000.00
02118             -22.00    -6800.00
02119             -16.00    -6800.00
02120              10.00    -6600.00
02121               4.00    -6600.00
02122             -20.00    -6400.00
02123             -18.00    -6400.00
02124              -2.00    -6200.00
02125              10.00    -6200.00
02126               0.00    -6000.00
02127             -18.00    -5800.00
02128             -12.00    -5600.00
02129              -2.00    -5600.00
02130               4.00    -5600.00
02131              -6.00    -5600.00
02132             -20.00    -5200.00
02133             -10.00    -5000.00
02134              10.00    -5000.00
02135               2.00    -4800.00
02136             -16.00    -4600.00
02137             -18.00    -4400.00
02138               2.00    -4400.00
02139               4.00    -4200.00
02140              -6.00    -4000.00
02141             -20.00    -4000.00
02142             -14.00    -3600.00
02143              -2.00    -3600.00
02144               6.00    -3600.00
02145              -6.00    -3200.00
02146             -18.00    -3200.00
02147             -10.00    -3000.00
02148              10.00    -2800.00
02149              -4.00    -2600.00
02150             -14.00    -2400.00
02151             -14.00    -2400.00
02152               4.00    -2200.00
02153               4.00    -2000.00
02154              -6.00    -1800.00
02155             -18.00    -1600.00
02156              -6.00    -1400.00
02157               6.00    -1400.00
02158               8.00    -1200.00
02159             -12.00    -1000.00
02160             -18.00     -800.00
02161              -4.00     -800.00
02162               8.00     -400.00
02163              -2.00     -400.00
02164             -14.00     -200.00
02165              -6.00        0.00
02166               8.00      200.00
02167              30.00      400.00
02168              26.00      400.00
02169             -14.00      600.00
02170             -28.00      600.00
02171              -2.00     1000.00
02172              18.00     1200.00
02173              10.00     1200.00
02174              12.00     1400.00
02175             138.00     1800.00
02176             250.00     2000.00
02177             -50.00     2200.00
02178            -250.00     2200.00
02179            -250.00     2200.00
02180              54.00     2200.00
02181             250.00     2600.00
02182             250.00     3000.00
02183            -250.00     2800.00
02184            -250.00     3000.00
02185             250.00     3200.00
02186             250.00     3200.00
02187            -202.00     3800.00
02188            -250.00     3600.00
02189             -90.00     3600.00
02190             138.00     4000.00
02191             250.00     4000.00
02192            -202.00     4000.00
02193            -250.00     4600.00
02194             212.00     4600.00
02195             250.00     4400.00
02196             -52.00     4800.00
02197            -180.00     5000.00
02198            -158.00     5200.00
02199             148.00     5400.00
02200             250.00     5600.00
02201            -122.00     5600.00
02202            -250.00     5600.00
02203              62.00     6000.00
02204             220.00     6200.00
02205             -36.00     6000.00
02206            -140.00     6200.00
02207             -12.00     6400.00
02208              54.00     6600.00
02209              74.00     6600.00
02210              -6.00     6600.00
02211            -126.00     7000.00
02212             -34.00     7000.00
02213              52.00     7000.00
02214             126.00     7400.00
02215              -6.00     7200.00
02216             -98.00     7200.00
02217             -34.00     7600.00
02218              58.00     7600.00
02219              16.00     7600.00
02220             -60.00     7600.00
02221             -30.00     7800.00
02222              20.00     7800.00
02223              36.00     8200.00
02224              38.00     8200.00
02225             -12.00     8200.00
02226             -50.00     8200.00
02227              -4.00     8200.00
02228              30.00     8400.00
02229               4.00     8400.00
02230             -34.00     8400.00
02231             -18.00     8600.00
02232               6.00     8600.00
02233               4.00     8600.00
02234              18.00     8600.00
02235              20.00     8600.00
02236              -6.00     8800.00
02237             -22.00     8800.00
02238               2.00     8800.00
02239              -2.00     8800.00
02240             -14.00     8800.00
02241              10.00     9000.00
02242              20.00     9000.00
02243              -6.00     9200.00
02244             -30.00     9000.00
02245               6.00     9000.00
02246              28.00     9000.00
02247              10.00     9200.00
02248             -12.00     9200.00
02249             -18.00     9000.00
02250             -12.00     8800.00
02251               4.00     8800.00
02252              18.00     9000.00
02253              -4.00     8800.00
02254             -20.00     8800.00
02255              10.00     8800.00
02256              24.00     8800.00
02257             -10.00     8800.00
02258             -30.00     8800.00
02259              -6.00     8800.00
02260              20.00     8800.00
02261               8.00     8800.00
02262             -12.00     8800.00
02263             -20.00     8600.00
02264              -2.00     8600.00
02265              14.00     8400.00
02266               6.00     8600.00
02267             -14.00     8400.00
02268             -18.00     8400.00
02269               6.00     8400.00
02270              14.00     8200.00
02271             -12.00     8400.00
02272             -14.00     8000.00
02273               4.00     8000.00
02274              10.00     8000.00
02275              -6.00     8200.00
02276             -12.00     7800.00
02277              -6.00     7800.00
02278               4.00     7600.00
02279               4.00     7600.00
02280               2.00     7600.00
02281             -12.00     7200.00
02282              -2.00     7200.00
02283              10.00     7200.00
02284               4.00     7000.00
02285             -14.00     7000.00
02286              -6.00     6800.00
02287              12.00     6800.00
02288              12.00     6400.00
02289             -10.00     6400.00
02290             -14.00     6400.00
02291              -2.00     6200.00
02292              10.00     6000.00
02293               6.00     6000.00
02294              -4.00     6000.00
02295             -14.00     5600.00
02296              -4.00     5600.00
02297              12.00     5400.00
02298               4.00     5200.00
02299             -10.00     5400.00
02300              -4.00     4800.00
02301              12.00     4800.00
02302               6.00     4800.00
02303             -10.00     4600.00
02304             -12.00     4400.00
02305               2.00     4400.00
02306              10.00     4000.00
02307               4.00     4000.00
02308              -6.00     3800.00
02309             -10.00     3600.00
02310               2.00     3600.00
02311              10.00     3400.00
02312               2.00     3200.00
02313             -12.00     3000.00
02314              -6.00     3000.00
02315               6.00     2800.00
02316               2.00     2600.00
02317             -12.00     2400.00
02318             -10.00     2200.00
02319               4.00     2200.00
02320              10.00     2000.00
02321               0.00     1800.00
02322             -12.00     1600.00
02323             -12.00     1400.00
02324               4.00     1200.00
02325              10.00     1000.00
02326              -2.00      600.00
02327             -14.00      800.00
02328              -6.00      600.00
02329               6.00      400.00
02330               4.00      400.00
02331              -6.00        0.00
02332              -4.00     -200.00
02333              10.00     -200.00
02334              38.00     -400.00
02335              18.00     -600.00
02336             -20.00     -800.00
02337             -22.00     -800.00
02338              10.00    -1000.00
02339              28.00    -1000.00
02340              18.00    -1400.00
02341             134.00    -1400.00
02342             250.00    -1800.00
02343             -66.00    -2200.00
02344            -250.00    -2200.00
02345            -250.00    -2400.00
02346             -18.00    -2400.00
02347             250.00    -2000.00
02348             250.00    -2800.00
02349            -250.00    -3000.00
02350            -250.00    -2800.00
02351             250.00    -4000.00
02352             250.00    -3200.00
02353            -250.00    -2800.00
02354            -118.00    -4000.00
02355            -166.00    -3600.00
02356             202.00    -3800.00
02357             250.00    -4400.00
02358            -250.00    -4000.00
02359            -122.00    -4200.00
02360             250.00    -4800.00
02361             -86.00    -4400.00
02362             -46.00    -5000.00
02363             -62.00    -5000.00
02364            -158.00    -4800.00
02365             250.00    -5600.00
02366              86.00    -5200.00
02367            -180.00    -5400.00
02368             -72.00    -6000.00
02369              30.00    -5600.00
02370             140.00    -6000.00
02371             -44.00    -6000.00
02372            -102.00    -6000.00
02373              22.00    -6400.00
02374              14.00    -6200.00
02375              92.00    -6600.00
02376             -40.00    -6800.00
02377            -118.00    -6600.00
02378              34.00    -7000.00
02379              42.00    -6800.00
02380              76.00    -7200.00
02381             -36.00    -7400.00
02382            -140.00    -7200.00
02383              28.00    -7600.00
02384              66.00    -7400.00
02385              18.00    -7600.00
02386             -18.00    -8000.00
02387             -44.00    -7800.00
02388             -22.00    -8000.00
02389              -6.00    -8000.00
02390              46.00    -8000.00
02391              20.00    -8200.00
02392             -60.00    -8200.00
02393             -22.00    -8200.00
02394              26.00    -8200.00
02395              20.00    -8200.00
02396             -16.00    -8400.00
02397             -26.00    -8400.00
02398              10.00    -8600.00
02399              -6.00    -8800.00
02400             -20.00    -8600.00
02401               4.00    -8800.00
02402              -2.00    -8800.00
02403              -4.00    -8800.00
02404              -4.00    -8800.00
02405             -26.00    -8800.00
02406             -18.00    -9000.00
02407              18.00    -8800.00
02408              28.00    -8800.00
02409             -22.00    -8800.00
02410             -50.00    -9000.00
02411              -2.00    -9000.00
02412              28.00    -9000.00
02413              10.00    -9200.00
02414             -22.00    -9000.00
02415             -28.00    -9000.00
02416              -4.00    -9000.00
02417              14.00    -9000.00
02418              12.00    -9000.00
02419             -22.00    -9000.00
02420             -36.00    -9000.00
02421               6.00    -9000.00
02422              26.00    -9000.00
02423              -6.00    -9000.00
02424             -30.00    -9000.00
02425             -12.00    -8800.00
02426              10.00    -8800.00
02427              -4.00    -8800.00
02428             -10.00    -8800.00
02429              -6.00    -8800.00
02430              -2.00    -8800.00
02431              -4.00    -8400.00
02432             -12.00    -8400.00
02433             -14.00    -8400.00
02434              -2.00    -8200.00
02435              14.00    -8400.00
02436               4.00    -8200.00
02437             -32.00    -8200.00
02438             -22.00    -8200.00
02439              12.00    -8200.00
02440              14.00    -8000.00
02441              -6.00    -8000.00
02442             -24.00    -7800.00
02443             -10.00    -8000.00
02444               4.00    -7600.00
02445               0.00    -7600.00
02446             -10.00    -7400.00
02447             -20.00    -7400.00
02448              -6.00    -7200.00
02449              10.00    -7200.00
02450              -4.00    -7000.00
02451             -20.00    -6800.00
02452             -12.00    -6800.00
02453              10.00    -6800.00
02454               2.00    -6600.00
02455             -20.00    -6400.00
02456             -20.00    -6400.00
02457              -2.00    -6200.00
02458               6.00    -6000.00
02459              -4.00    -6000.00
02460             -18.00    -6000.00
02461             -18.00    -5800.00
02462              -2.00    -5600.00
02463              10.00    -5600.00
02464              -6.00    -5200.00
02465             -22.00    -5200.00
02466             -10.00    -5000.00
02467              10.00    -5000.00
02468               2.00    -4800.00
02469             -18.00    -4600.00
02470             -22.00    -4400.00
02471              -2.00    -4400.00
02472              10.00    -4200.00
02473               2.00    -4000.00
02474             -12.00    -4000.00
02475             -18.00    -3600.00
02476              -6.00    -3600.00
02477               2.00    -3400.00
02478              -4.00    -3200.00
02479             -10.00    -3200.00
02480              -4.00    -3000.00
02481               4.00    -2800.00
02482              -8.00    -2800.00
02483             -18.00    -2400.00
02484             -12.00    -2400.00
02485               6.00    -2000.00
02486               8.00    -2000.00
02487              -6.00    -1800.00
02488             -16.00    -1600.00
02489             -10.00    -1600.00
02490               6.00    -1400.00
02491              10.00    -1200.00
02492             -12.00    -1000.00
02493             -18.00     -800.00
02494               2.00     -400.00
02495              10.00     -400.00
02496              -2.00     -400.00
02497             -14.00     -200.00
02498             -10.00        0.00
02499               8.00      200.00
02500              28.00      400.00
02501              28.00      400.00
02502             -12.00      600.00
02503             -26.00      800.00
02504              -4.00      800.00
02505              18.00     1000.00
02506              12.00     1400.00
02507              12.00     1200.00
02508             124.00     1800.00
02509             250.00     2000.00
02510             -10.00     2000.00
02511            -250.00     2200.00
02512            -250.00     2200.00
02513              30.00     2400.00
02514             250.00     2400.00
02515             250.00     3000.00
02516            -158.00     2800.00
02517            -250.00     2800.00
02518             182.00     3200.00
02519             250.00     3200.00
02520            -138.00     3600.00
02521            -250.00     3800.00
02522            -100.00     3600.00
02523             114.00     4000.00
02524             250.00     4200.00
02525            -156.00     4200.00
02526            -250.00     4600.00
02527             174.00     4600.00
02528             250.00     4600.00
02529             -36.00     4800.00
02530            -174.00     5200.00
02531            -170.00     5200.00
02532             130.00     5200.00
02533             250.00     5400.00
02534             -92.00     5600.00
02535            -250.00     5600.00
02536              38.00     5600.00
02537             228.00     6000.00
02538             -20.00     6000.00
02539            -146.00     6400.00
02540             -30.00     6400.00
02541              60.00     6400.00
02542              90.00     6600.00
02543              -4.00     6800.00
02544            -110.00     6800.00
02545             -38.00     7000.00
02546              72.00     7000.00
02547              84.00     7000.00
02548             -30.00     7200.00
02549            -108.00     7200.00
02550               2.00     7600.00
02551              82.00     7600.00
02552              10.00     7800.00
02553             -42.00     7800.00
02554             -10.00     7800.00
02555              -2.00     8200.00
02556             -12.00     8000.00
02557              28.00     8200.00
02558              14.00     8200.00
02559             -38.00     8200.00
02560             -12.00     8400.00
02561              32.00     8400.00
02562              14.00     8400.00
02563             -22.00     8400.00
02564             -10.00     8400.00
02565               6.00     8600.00
02566              -6.00     8600.00
02567              -4.00     8600.00
02568              10.00     8600.00
02569              -6.00     8800.00
02570             -10.00     8800.00
02571              12.00     8800.00
02572               2.00     8800.00
02573             -22.00     8800.00
02574               2.00     8800.00
02575              28.00     8800.00
02576              -4.00     9000.00
02577             -36.00     8800.00
02578             -10.00     8800.00
02579              22.00     9000.00
02580              10.00     9000.00
02581             -10.00     9000.00
02582             -12.00     8800.00
02583             -10.00     8800.00
02584               4.00     9000.00
02585              18.00     8800.00
02586              -6.00     8800.00
02587             -28.00     8800.00
02588               4.00     9000.00
02589              26.00     8800.00
02590              -6.00     9000.00
02591             -30.00     8800.00
02592              -4.00     8800.00
02593              20.00     8600.00
02594               4.00     8600.00
02595             -10.00     8600.00
02596             -10.00     8600.00
02597              -6.00     8400.00
02598               4.00     8600.00
02599               6.00     8400.00
02600             -10.00     8400.00
02601             -10.00     8400.00
02602              10.00     8400.00
02603              12.00     8400.00
02604             -18.00     8000.00
02605             -22.00     8200.00
02606              12.00     8000.00
02607              22.00     8000.00
02608              -6.00     7800.00
02609             -18.00     8000.00
02610             -10.00     7800.00
02611               4.00     7600.00
02612              10.00     7600.00
02613               6.00     7200.00
02614             -10.00     7400.00
02615             -10.00     7200.00
02616               6.00     7200.00
02617               4.00     7200.00
02618             -14.00     7000.00
02619              -6.00     6800.00
02620              18.00     6800.00
02621              12.00     6600.00
02622             -12.00     6400.00
02623             -20.00     6400.00
02624               2.00     6200.00
02625              14.00     6200.00
02626              10.00     6000.00
02627              -6.00     6000.00
02628             -16.00     5800.00
02629              -8.00     5600.00
02630              14.00     5400.00
02631              10.00     5400.00
02632             -12.00     5200.00
02633             -12.00     5200.00
02634               4.00     4800.00
02635              12.00     4600.00
02636              -4.00     4600.00
02637             -12.00     4400.00
02638              -2.00     4200.00
02639               6.00     4200.00
02640               4.00     4000.00
02641              -6.00     3800.00
02642             -12.00     3800.00
02643              -4.00     3600.00
02644               6.00     3400.00
02645               2.00     3200.00
02646             -10.00     3000.00
02647              -4.00     2800.00
02648               6.00     2800.00
02649              -2.00     2400.00
02650             -14.00     2400.00
02651              -6.00     2400.00
02652               6.00     2200.00
02653              10.00     2000.00
02654              -2.00     1800.00
02655             -18.00     1600.00
02656             -14.00     1400.00
02657               4.00     1400.00
02658              12.00      800.00
02659              -2.00     1000.00
02660             -16.00      600.00
02661              -6.00      600.00
02662               6.00      400.00
02663               6.00      400.00
02664              -6.00        0.00
02665              -6.00     -200.00
02666               8.00     -200.00
02667              34.00     -400.00
02668              22.00     -400.00
02669             -18.00     -800.00
02670             -26.00     -800.00
02671               6.00    -1000.00
02672              26.00    -1200.00
02673              20.00    -1200.00
02674             116.00    -1400.00
02675             250.00    -1800.00
02676             -20.00    -2000.00
02677            -250.00    -2200.00
02678            -250.00    -2400.00
02679             -60.00    -2400.00
02680             250.00    -2000.00
02681             250.00    -2800.00
02682            -250.00    -3000.00
02683            -250.00    -2800.00
02684             250.00    -3600.00
02685             250.00    -3200.00
02686            -250.00    -2800.00
02687            -136.00    -4000.00
02688            -162.00    -3800.00
02689             154.00    -3600.00
02690             250.00    -4400.00
02691            -250.00    -4000.00
02692            -188.00    -4200.00
02693             250.00    -4800.00
02694             -54.00    -4400.00
02695             -64.00    -4800.00
02696             -44.00    -5000.00
02697            -174.00    -4800.00
02698             236.00    -5600.00
02699             116.00    -5400.00
02700            -182.00    -5400.00
02701             -82.00    -6000.00
02702              24.00    -5600.00
02703             144.00    -6000.00
02704             -28.00    -6200.00
02705            -118.00    -6200.00
02706              20.00    -6400.00
02707              12.00    -6400.00
02708              86.00    -6600.00
02709             -28.00    -6800.00
02710            -120.00    -6600.00
02711              24.00    -7000.00
02712              36.00    -6800.00
02713              70.00    -7200.00
02714             -22.00    -7400.00
02715            -136.00    -7200.00
02716              24.00    -7600.00
02717              74.00    -7400.00
02718              12.00    -7400.00
02719             -28.00    -8000.00
02720             -46.00    -7800.00
02721             -12.00    -8000.00
02722              -2.00    -8000.00
02723              38.00    -8200.00
02724              14.00    -8200.00
02725             -60.00    -8000.00
02726             -22.00    -8400.00
02727              30.00    -8200.00
02728              20.00    -8400.00
02729             -22.00    -8400.00
02730             -30.00    -8400.00
02731              12.00    -8600.00
02732              -2.00    -8400.00
02733             -14.00    -8600.00
02734               2.00    -8600.00
02735              -6.00    -8800.00
02736              -2.00    -8800.00
02737               4.00    -9000.00
02738             -18.00    -9000.00
02739             -22.00    -8800.00
02740               4.00    -9000.00
02741              26.00    -9000.00
02742             -14.00    -9000.00
02743             -42.00    -9000.00
02744              -2.00    -9200.00
02745              28.00    -9000.00
02746               6.00    -9000.00
02747             -26.00    -9000.00
02748             -22.00    -9000.00
02749               2.00    -9200.00
02750              14.00    -9000.00
02751              10.00    -9000.00
02752             -22.00    -9000.00
02753             -30.00    -9000.00
02754              14.00    -9000.00
02755              26.00    -9000.00
02756             -12.00    -9000.00
02757             -36.00    -9000.00
02758             -12.00    -8800.00
02759              20.00    -8800.00
02760               2.00    -8800.00
02761             -14.00    -8800.00
02762             -12.00    -8600.00
02763              -4.00    -8800.00
02764               4.00    -8400.00
02765              -4.00    -8400.00
02766             -14.00    -8400.00
02767             -12.00    -8400.00
02768               8.00    -8400.00
02769              10.00    -8200.00
02770             -20.00    -8200.00
02771             -22.00    -8000.00
02772               4.00    -8200.00
02773              10.00    -8000.00
02774             -10.00    -8000.00
02775             -22.00    -8000.00
02776             -12.00    -7800.00
02777               2.00    -7600.00
02778               0.00    -7400.00
02779              -6.00    -7600.00
02780             -20.00    -7200.00
02781              -6.00    -7200.00
02782               6.00    -7200.00
02783              -2.00    -7200.00
02784             -20.00    -7000.00
02785             -18.00    -6800.00
02786               4.00    -6600.00
02787               6.00    -6600.00
02788             -18.00    -6600.00
02789             -20.00    -6400.00
02790             -10.00    -6200.00
02791               4.00    -6200.00
02792               4.00    -6000.00
02793             -14.00    -6000.00
02794             -18.00    -5800.00
02795              -6.00    -5600.00
02796               4.00    -5600.00
02797              -6.00    -5400.00
02798             -20.00    -5200.00
02799              -8.00    -5000.00
02800               8.00    -5000.00
02801               2.00    -4800.00
02802             -14.00    -4600.00
02803             -14.00    -4400.00
02804              -2.00    -4400.00
02805               4.00    -4200.00
02806              -4.00    -4200.00
02807             -16.00    -4000.00
02808             -12.00    -3800.00
02809               2.00    -3600.00
02810               8.00    -3400.00
02811              -6.00    -3400.00
02812             -18.00    -3200.00
02813              -6.00    -2800.00
02814               8.00    -2800.00
02815               2.00    -2600.00
02816             -16.00    -2600.00
02817             -14.00    -2400.00
02818              -2.00    -2000.00
02819              10.00    -2000.00
02820              -2.00    -1800.00
02821             -14.00    -1800.00
02822             -12.00    -1400.00
02823               6.00    -1400.00
02824               8.00    -1000.00
02825              -6.00    -1000.00
02826             -18.00     -800.00
02827              -6.00     -800.00
02828               6.00     -400.00
02829              -2.00     -400.00
02830             -12.00     -200.00
02831             -10.00        0.00
02832               4.00      200.00
02833              26.00      200.00
02834              26.00      400.00
02835             -10.00      600.00
02836             -28.00      600.00
02837              -8.00      800.00
02838              14.00     1200.00
02839              12.00     1200.00
02840               8.00     1400.00
02841             106.00     1800.00
02842             250.00     2000.00
02843              30.00     2000.00
02844            -250.00     2200.00
02845            -250.00     2200.00
02846               4.00     2400.00
02847             250.00     2600.00
02848             250.00     3000.00
02849             -52.00     2800.00
02850            -250.00     2800.00
02851              74.00     3000.00
02852             250.00     3400.00
02853             -70.00     3600.00
02854            -250.00     3800.00
02855            -114.00     3400.00
02856              90.00     4000.00
02857             250.00     4200.00
02858            -102.00     4000.00
02859            -250.00     4400.00
02860             140.00     4600.00
02861             250.00     4400.00
02862             -22.00     5000.00
02863            -166.00     5000.00
02864            -168.00     5200.00
02865             104.00     5400.00
02866             250.00     5400.00
02867             -66.00     5600.00
02868            -250.00     5600.00
02869              18.00     5800.00
02870             234.00     6200.00
02871               0.00     6000.00
02872            -150.00     6200.00
02873             -42.00     6400.00
02874              60.00     6400.00
02875              94.00     6600.00
02876               4.00     6600.00
02877            -114.00     7000.00
02878             -44.00     7000.00
02879              68.00     7000.00
02880              88.00     7200.00
02881             -22.00     7200.00
02882            -108.00     7400.00
02883             -12.00     7600.00
02884              82.00     7600.00
02885              20.00     7800.00
02886             -42.00     7800.00
02887              -8.00     7800.00
02888               0.00     8000.00
02889             -12.00     8000.00
02890              26.00     8200.00
02891              20.00     8200.00
02892             -36.00     8200.00
02893             -20.00     8200.00
02894              30.00     8400.00
02895              18.00     8400.00
02896             -20.00     8400.00
02897             -14.00     8400.00
02898               6.00     8600.00
02899               2.00     8600.00
02900              -2.00     8600.00
02901               6.00     8800.00
02902              -6.00     8600.00
02903             -12.00     8800.00
02904              10.00     8800.00
02905               4.00     8800.00
02906             -26.00     8800.00
02907              -2.00     8800.00
02908              30.00     9000.00
02909               0.00     9000.00
02910             -36.00     8800.00
02911             -12.00     9000.00
02912              22.00     9000.00
02913              12.00     9000.00
02914             -10.00     9200.00
02915             -12.00     9000.00
02916              -6.00     9000.00
02917               4.00     9000.00
02918              14.00     8800.00
02919              -6.00     9000.00
02920             -28.00     8800.00
02921               4.00     8800.00
02922              28.00     8800.00
02923              -4.00     8800.00
02924             -30.00     8800.00
02925              -6.00     8800.00
02926              20.00     8800.00
02927               6.00     8800.00
02928             -10.00     8800.00
02929             -10.00     8600.00
02930              -2.00     8600.00
02931               8.00     8600.00
02932               6.00     8600.00
02933              -6.00     8400.00
02934             -12.00     8400.00
02935              10.00     8400.00
02936              14.00     8400.00
02937             -12.00     8200.00
02938             -20.00     8400.00
02939               6.00     8000.00
02940              20.00     8000.00
02941              -2.00     8000.00
02942             -16.00     7800.00
02943             -10.00     7800.00
02944               4.00     7600.00
02945              10.00     7600.00
02946               4.00     7600.00
02947             -12.00     7400.00
02948             -10.00     7200.00
02949              10.00     7000.00
02950              10.00     7000.00
02951             -12.00     6800.00
02952             -12.00     6800.00
02953              10.00     6800.00
02954              14.00     6600.00
02955              -4.00     6400.00
02956             -14.00     6400.00
02957              -6.00     6200.00
02958               6.00     6000.00
02959              10.00     6200.00
02960              -2.00     6000.00
02961             -12.00     5600.00
02962              -6.00     5600.00
02963               8.00     5200.00
02964               6.00     5400.00
02965             -12.00     5200.00
02966             -10.00     5200.00
02967              10.00     4800.00
02968               4.00     4800.00
02969             -10.00     4600.00
02970             -18.00     4400.00
02971               2.00     4400.00
02972              12.00     4000.00
02973               6.00     4000.00
02974             -12.00     3800.00
02975             -20.00     3600.00
02976              -4.00     3600.00
02977              12.00     3200.00
02978               4.00     3200.00
02979             -12.00     3000.00
02980              -8.00     2800.00
02981               4.00     2800.00
02982               2.00     2400.00
02983              -8.00     2400.00
02984             -10.00     2200.00
02985              -2.00     2000.00
02986               6.00     2000.00
02987               4.00     1800.00
02988             -10.00     1600.00
02989             -14.00     1400.00
02990               2.00     1200.00
02991              10.00     1200.00
02992               2.00      800.00
02993             -10.00      800.00
02994              -6.00      600.00
02995               6.00      400.00
02996               2.00      400.00
02997              -4.00        0.00
02998              -4.00     -200.00
02999              10.00     -200.00
03000              36.00     -400.00
03001              22.00     -400.00
03002             -20.00     -600.00
03003             -26.00     -800.00
03004              10.00     -800.00
03005              26.00    -1200.00
03006              14.00    -1200.00
03007              98.00    -1400.00
03008             250.00    -1800.00
03009              30.00    -2000.00
03010            -250.00    -2200.00
03011            -250.00    -2400.00
03012             -98.00    -2400.00
03013             250.00    -2000.00
03014             250.00    -2800.00
03015            -250.00    -3000.00
03016            -250.00    -2600.00
03017             250.00    -3600.00
03018             250.00    -3200.00
03019            -250.00    -2800.00
03020            -156.00    -4000.00
03021            -154.00    -3600.00
03022             108.00    -3400.00
03023             250.00    -4400.00
03024            -250.00    -4200.00
03025            -246.00    -4200.00
03026             250.00    -4800.00
03027             -20.00    -4400.00
03028             -82.00    -4800.00
03029             -24.00    -5000.00
03030            -188.00    -4600.00
03031             212.00    -5400.00
03032             146.00    -5400.00
03033            -178.00    -5400.00
03034             -92.00    -5800.00
03035              14.00    -5800.00
03036             142.00    -6000.00
03037             -12.00    -6200.00
03038            -122.00    -6000.00
03039              18.00    -6400.00
03040              10.00    -6200.00
03041              84.00    -6600.00
03042             -12.00    -6800.00
03043            -124.00    -6600.00
03044              20.00    -6800.00
03045              34.00    -6800.00
03046              66.00    -7200.00
03047             -10.00    -7200.00
03048            -138.00    -7200.00
03049              16.00    -7400.00
03050              74.00    -7400.00
03051              12.00    -7600.00
03052             -26.00    -7800.00
03053             -44.00    -7800.00
03054             -12.00    -8000.00
03055              -2.00    -7800.00
03056              34.00    -8000.00
03057              20.00    -8200.00
03058             -58.00    -8000.00
03059             -26.00    -8400.00
03060              28.00    -8400.00
03061              22.00    -8400.00
03062             -20.00    -8400.00
03063             -28.00    -8400.00
03064              14.00    -8400.00
03065               4.00    -8600.00
03066             -18.00    -8600.00
03067              -2.00    -8800.00
03068              -6.00    -8800.00
03069              -2.00    -8800.00
03070               6.00    -8800.00
03071             -14.00    -8800.00
03072             -22.00    -9000.00
03073               2.00    -8800.00
03074              28.00    -9000.00
03075              -6.00    -9000.00
03076             -44.00    -9000.00
03077              -4.00    -9200.00
03078              26.00    -9000.00
03079              10.00    -9000.00
03080             -20.00    -9000.00
03081             -22.00    -9000.00
03082               2.00    -9000.00
03083              12.00    -9000.00
03084              10.00    -9000.00
03085             -20.00    -9000.00
03086             -36.00    -9200.00
03087              10.00    -9000.00
03088              26.00    -8800.00
03089              -6.00    -8800.00
03090             -30.00    -9000.00
03091             -12.00    -8800.00
03092              18.00    -8800.00
03093               4.00    -8800.00
03094             -14.00    -8600.00
03095             -12.00    -8800.00
03096              -4.00    -8800.00
03097               2.00    -8600.00
03098              -4.00    -8400.00
03099             -14.00    -8400.00
03100             -12.00    -8400.00
03101               2.00    -8400.00
03102               6.00    -8400.00
03103             -18.00    -8200.00
03104             -20.00    -8200.00
03105               4.00    -8200.00
03106               4.00    -8000.00
03107             -12.00    -8000.00
03108             -20.00    -7800.00
03109              -6.00    -7600.00
03110               4.00    -7800.00
03111              -2.00    -7400.00
03112              -6.00    -7600.00
03113             -12.00    -7400.00
03114              -6.00    -7400.00
03115               4.00    -7200.00
03116              -2.00    -7000.00
03117             -22.00    -7200.00
03118             -20.00    -6800.00
03119               4.00    -6800.00
03120              12.00    -6800.00
03121             -10.00    -6400.00
03122             -20.00    -6400.00
03123             -10.00    -6200.00
03124               4.00    -6200.00
03125              -2.00    -6000.00
03126             -14.00    -6000.00
03127             -14.00    -5800.00
03128              -2.00    -5600.00
03129               4.00    -5600.00
03130              -6.00    -5400.00
03131             -22.00    -5200.00
03132              -8.00    -5200.00
03133              14.00    -5000.00
03134               2.00    -4800.00
03135             -18.00    -4600.00
03136             -20.00    -4400.00
03137               2.00    -4400.00
03138              14.00    -4200.00
03139               2.00    -4200.00
03140             -20.00    -4000.00
03141             -20.00    -3800.00
03142              -4.00    -3600.00
03143              10.00    -3400.00
03144               2.00    -3400.00
03145             -12.00    -3200.00
03146             -14.00    -3000.00
03147               4.00    -2800.00
03148               2.00    -2800.00
03149             -12.00    -2600.00
03150             -18.00    -2400.00
03151              -6.00    -2400.00
03152               4.00    -2000.00
03153              -2.00    -1800.00
03154             -10.00    -1600.00
03155              -4.00    -1600.00
03156              -2.00    -1600.00
03157              -2.00    -1200.00
03158             -10.00    -1000.00
03159             -14.00     -800.00
03160              -6.00     -800.00
03161              10.00     -400.00
03162              -2.00     -200.00
03163             -14.00     -200.00
03164              -6.00        0.00
03165               4.00        0.00
03166              22.00      400.00
03167              20.00      400.00
03168             -10.00      400.00
03169             -22.00      800.00
03170              -6.00      800.00
03171              14.00     1200.00
03172              10.00     1200.00
03173               8.00     1400.00
03174              96.00     1600.00
03175             250.00     2000.00
03176              66.00     2000.00
03177            -250.00     2200.00
03178            -250.00     2400.00
03179             -12.00     2200.00
03180             250.00     2600.00
03181             250.00     3000.00
03182              36.00     2800.00
03183            -250.00     3000.00
03184             -28.00     3200.00
03185             250.00     3200.00
03186               4.00     3600.00
03187            -250.00     3800.00
03188            -134.00     3600.00
03189              76.00     4000.00
03190             250.00     4200.00
03191             -54.00     4000.00
03192            -250.00     4400.00
03193             100.00     4600.00
03194             250.00     4400.00
03195               2.00     4800.00
03196            -158.00     5200.00
03197            -186.00     5200.00
03198              70.00     5200.00
03199             250.00     5600.00
03200             -20.00     5600.00
03201            -250.00     5600.00
03202             -14.00     5800.00
03203             228.00     6000.00
03204              18.00     6200.00
03205            -146.00     6200.00
03206             -42.00     6400.00
03207              56.00     6400.00
03208              86.00     6600.00
03209              10.00     6800.00
03210            -106.00     6800.00
03211             -46.00     7000.00
03212              66.00     7000.00
03213              90.00     7200.00
03214             -20.00     7200.00
03215            -108.00     7200.00
03216             -12.00     7400.00
03217              84.00     7600.00
03218              26.00     7800.00
03219             -46.00     7600.00
03220             -14.00     7800.00
03221               6.00     8000.00
03222              -6.00     8000.00
03223              18.00     8200.00
03224              20.00     8200.00
03225             -36.00     8400.00
03226             -24.00     8000.00
03227              30.00     8400.00
03228              20.00     8600.00
03229             -22.00     8400.00
03230             -18.00     8600.00
03231               4.00     8600.00
03232              -2.00     8600.00
03233              -4.00     8600.00
03234              12.00     8600.00
03235              -2.00     8800.00
03236             -14.00     8600.00
03237               6.00     8800.00
03238               4.00     8800.00
03239             -22.00     8800.00
03240              -6.00     8800.00
03241              30.00     9000.00
03242               4.00     9000.00
03243             -36.00     9000.00
03244             -12.00     9000.00
03245              22.00     9000.00
03246              12.00     9000.00
03247             -10.00     8800.00
03248             -12.00     9200.00
03249              -6.00     9000.00
03250               4.00     9000.00
03251              12.00     9000.00
03252              -4.00     9000.00
03253             -28.00     8800.00
03254               2.00     8800.00
03255              30.00     8800.00
03256              -2.00     9000.00
03257             -34.00     8800.00
03258             -10.00     8800.00
03259              20.00     8800.00
03260               8.00     8800.00
03261             -10.00     8600.00
03262             -10.00     8600.00
03263              -6.00     8600.00
03264               6.00     8600.00
03265               8.00     8600.00
03266              -6.00     8400.00
03267             -12.00     8400.00
03268               6.00     8400.00
03269              16.00     8400.00
03270             -10.00     8400.00
03271             -20.00     8000.00
03272               4.00     8200.00
03273              22.00     8000.00
03274              -2.00     7800.00
03275             -14.00     7800.00
03276             -10.00     7600.00
03277               6.00     7800.00
03278              10.00     7600.00
03279               4.00     7600.00
03280             -10.00     7200.00
03281             -10.00     7200.00
03282               6.00     7200.00
03283              12.00     7000.00
03284             -10.00     7000.00
03285             -12.00     6800.00
03286               6.00     6800.00
03287              14.00     6600.00
03288              -2.00     6400.00
03289             -16.00     6400.00
03290              -6.00     6200.00
03291               6.00     6200.00
03292              10.00     6000.00
03293              -4.00     6000.00
03294             -14.00     5800.00
03295              -6.00     5600.00
03296               6.00     5400.00
03297               4.00     5400.00
03298             -10.00     5200.00
03299             -10.00     5000.00
03300              10.00     4800.00
03301               8.00     4600.00
03302             -10.00     4600.00
03303             -12.00     4400.00
03304              -4.00     4200.00
03305              10.00     4000.00
03306               6.00     4000.00
03307              -6.00     3800.00
03308             -18.00     3600.00
03309              -4.00     3600.00
03310              10.00     3400.00
03311               2.00     3200.00
03312             -12.00     3000.00
03313             -10.00     2800.00
03314               6.00     2800.00
03315               4.00     2800.00
03316              -6.00     2400.00
03317             -10.00     2200.00
03318               0.00     2200.00
03319               6.00     2000.00
03320               2.00     1800.00
03321             -12.00     1600.00
03322             -12.00     1400.00
03323               2.00     1400.00
03324              14.00     1200.00
03325              -2.00     1200.00
03326             -12.00      800.00
03327              -6.00      600.00
03328               6.00      400.00
03329               4.00      400.00
03330              -6.00        0.00
03331              -4.00        0.00
03332              10.00     -200.00
03333              34.00     -400.00
03334              26.00     -400.00
03335             -18.00     -600.00
03336             -26.00     -800.00
03337               6.00    -1000.00
03338              26.00    -1000.00
03339              20.00    -1200.00
03340              86.00    -1400.00
03341             250.00    -1600.00
03342              68.00    -2200.00
03343            -250.00    -2200.00
03344            -250.00    -2600.00
03345            -136.00    -2400.00
03346             250.00    -2000.00
03347             250.00    -2600.00
03348            -250.00    -3000.00
03349            -250.00    -2600.00
03350             250.00    -3600.00
03351             250.00    -3200.00
03352            -250.00    -2800.00
03353            -182.00    -4000.00
03354            -138.00    -4000.00
03355              66.00    -3600.00
03356             250.00    -4400.00
03357            -250.00    -4200.00
03358            -250.00    -4200.00
03359             250.00    -4800.00
03360              20.00    -4400.00
03361            -100.00    -4600.00
03362             -12.00    -5200.00
03363            -198.00    -4800.00
03364             190.00    -5600.00
03365             172.00    -5600.00
03366            -170.00    -5200.00
03367            -102.00    -6000.00
03368               4.00    -5600.00
03369             140.00    -6000.00
03370               4.00    -6400.00
03371            -132.00    -6000.00
03372              12.00    -6600.00
03373              12.00    -6200.00
03374              78.00    -6400.00
03375               2.00    -6800.00
03376            -130.00    -6600.00
03377              12.00    -7200.00
03378              36.00    -6800.00
03379              62.00    -7200.00
03380               4.00    -7400.00
03381            -138.00    -7200.00
03382               4.00    -7600.00
03383              76.00    -7400.00
03384              14.00    -7600.00
03385             -14.00    -7800.00
03386             -42.00    -7600.00
03387             -18.00    -8000.00
03388              -4.00    -8000.00
03389              34.00    -8000.00
03390              26.00    -8200.00
03391             -54.00    -8000.00
03392             -28.00    -8400.00
03393              26.00    -8400.00
03394              20.00    -8400.00
03395             -18.00    -8400.00
03396             -26.00    -8400.00
03397              10.00    -8400.00
03398               2.00    -8600.00
03399             -22.00    -8600.00
03400              -2.00    -8600.00
03401              -4.00    -8600.00
03402               2.00    -8800.00
03403              12.00    -8800.00
03404             -14.00    -8600.00
03405             -26.00    -8800.00
03406              -2.00    -9000.00
03407              28.00    -8800.00
03408              -4.00    -9000.00
03409             -42.00    -9000.00
03410              -6.00    -9200.00
03411              26.00    -8800.00
03412              10.00    -9000.00
03413             -20.00    -9000.00
03414             -22.00    -9000.00
03415              -4.00    -9000.00
03416               8.00    -9000.00
03417              10.00    -9000.00
03418             -18.00    -9000.00
03419             -30.00    -8800.00
03420              10.00    -9000.00
03421              26.00    -8800.00
03422              -6.00    -8800.00
03423             -30.00    -9000.00
03424             -14.00    -8800.00
03425              18.00    -8800.00
03426               0.00    -8800.00
03427             -20.00    -8800.00
03428             -14.00    -8800.00
03429              -2.00    -8600.00
03430              12.00    -8400.00
03431              -2.00    -8400.00
03432             -22.00    -8400.00
03433             -18.00    -8600.00
03434               6.00    -8400.00
03435              14.00    -8400.00
03436             -20.00    -8200.00
03437             -30.00    -8200.00
03438              -2.00    -8200.00
03439              10.00    -8000.00
03440               2.00    -8000.00
03441             -18.00    -8000.00
03442             -12.00    -7800.00
03443               2.00    -7600.00
03444               4.00    -7600.00
03445              -6.00    -7400.00
03446             -22.00    -7400.00
03447             -12.00    -7400.00
03448               8.00    -7400.00
03449               4.00    -7000.00
03450             -18.00    -6800.00
03451             -14.00    -6800.00
03452               2.00    -6800.00
03453               6.00    -6800.00
03454             -10.00    -6600.00
03455             -18.00    -6400.00
03456             -10.00    -6400.00
03457              -2.00    -6200.00
03458               4.00    -6000.00
03459             -12.00    -5800.00
03460             -18.00    -5800.00
03461              -6.00    -5600.00
03462               4.00    -5600.00
03463              -2.00    -5400.00
03464             -16.00    -5000.00
03465              -6.00    -5000.00
03466               8.00    -4800.00
03467              -4.00    -4800.00
03468             -12.00    -4600.00
03469             -14.00    -4400.00
03470              -4.00    -4400.00
03471              10.00    -4200.00
03472              -2.00    -4000.00
03473             -12.00    -4000.00
03474             -14.00    -3600.00
03475               2.00    -3600.00
03476               6.00    -3400.00
03477              -6.00    -3200.00
03478             -18.00    -3200.00
03479              -8.00    -3000.00
03480              10.00    -3000.00
03481               2.00    -2600.00
03482             -14.00    -2600.00
03483             -18.00    -2400.00
03484              -4.00    -2400.00
03485              10.00    -2000.00
03486               0.00    -2000.00
03487             -18.00    -1800.00
03488             -18.00    -1600.00
03489               2.00    -1600.00
03490               8.00    -1200.00
03491              -6.00    -1200.00
03492             -20.00     -800.00
03493             -10.00     -600.00
03494               4.00     -400.00
03495              -2.00     -400.00
03496             -12.00     -200.00
03497             -14.00        0.00
03498               0.00        0.00
03499              26.00      200.00
03500              30.00      400.00
03501              -6.00      600.00
03502             -28.00      800.00
03503             -12.00      800.00
03504              12.00     1200.00
03505              12.00     1200.00
03506               4.00     1400.00
03507              84.00     1400.00
03508             250.00     2000.00
03509             100.00     2000.00
03510            -250.00     2000.00
03511            -250.00     2200.00
03512             -44.00     2200.00
03513             250.00     2400.00
03514             250.00     2800.00
03515             130.00     3000.00
03516            -250.00     2800.00
03517            -130.00     3200.00
03518             250.00     3200.00
03519              82.00     3600.00
03520            -250.00     3800.00
03521            -148.00     3400.00
03522              54.00     4000.00
03523             250.00     4200.00
03524              -6.00     4000.00
03525            -250.00     4400.00
03526              52.00     4600.00
03527             250.00     4400.00
03528              20.00     4800.00
03529            -150.00     5200.00
03530            -188.00     5200.00
03531              52.00     5200.00
03532             250.00     5600.00
03533               2.00     5600.00
03534            -250.00     5600.00
03535             -38.00     5800.00
03536             230.00     6000.00
03537              42.00     6200.00
03538            -148.00     6200.00
03539             -52.00     6400.00
03540              50.00     6400.00
03541              92.00     6600.00
03542              20.00     6800.00
03543            -106.00     7000.00
03544             -60.00     7000.00
03545              58.00     7000.00
03546              94.00     7200.00
03547              -6.00     7200.00
03548            -110.00     7200.00
03549             -28.00     7400.00
03550              82.00     7600.00
03551              32.00     7600.00
03552             -44.00     7800.00
03553             -20.00     8000.00
03554               2.00     8200.00
03555             -12.00     8000.00
03556              18.00     8000.00
03557              22.00     8200.00
03558             -30.00     8200.00
03559             -28.00     8200.00
03560              26.00     8400.00
03561              22.00     8400.00
03562             -18.00     8400.00
03563             -16.00     8600.00
03564               4.00     8600.00
03565              -2.00     8600.00
03566              -4.00     8600.00
03567               8.00     8800.00
03568              -4.00     8800.00
03569             -14.00     8800.00
03570               6.00     8800.00
03571               6.00     8800.00
03572             -20.00     8800.00
03573              -8.00     9000.00
03574              30.00     8800.00
03575               6.00     9000.00
03576             -34.00     8800.00
03577             -18.00     9200.00
03578              22.00     9000.00
03579              12.00     9000.00
03580             -10.00     8800.00
03581             -12.00     9000.00
03582              -6.00     9000.00
03583               4.00     8800.00
03584              18.00     9000.00
03585              -2.00     8800.00
03586             -28.00     9000.00
03587              -2.00     9000.00
03588              30.00     8800.00
03589               2.00     8800.00
03590             -30.00     8800.00
03591             -12.00     8800.00
03592              20.00     8800.00
03593              14.00     8800.00
03594              -6.00     8800.00
03595              -6.00     8600.00
03596              -6.00     8600.00
03597               6.00     8600.00
03598               6.00     8400.00
03599              -4.00     8600.00
03600             -12.00     8400.00
03601               6.00     8400.00
03602              18.00     8400.00
03603              -6.00     8200.00
03604             -22.00     8200.00
03605               4.00     8000.00
03606              20.00     8000.00
03607               2.00     8000.00
03608             -18.00     8000.00
03609             -12.00     7800.00
03610               4.00     7600.00
03611              10.00     7600.00
03612               6.00     7400.00
03613             -10.00     7400.00
03614             -10.00     7200.00
03615              10.00     7200.00
03616              10.00     7000.00
03617             -10.00     6800.00
03618             -18.00     7000.00
03619               4.00     6800.00
03620              14.00     6600.00
03621              -4.00     6400.00
03622             -14.00     6400.00
03623             -10.00     6400.00
03624               4.00     6200.00
03625              10.00     6000.00
03626               2.00     6000.00
03627             -14.00     5800.00
03628             -10.00     5600.00
03629               6.00     5400.00
03630               4.00     5400.00
03631             -10.00     5200.00
03632             -10.00     5000.00
03633               4.00     4800.00
03634               8.00     4800.00
03635              -6.00     4600.00
03636             -14.00     4400.00
03637              -2.00     4200.00
03638              10.00     4000.00
03639               6.00     4000.00
03640              -6.00     3800.00
03641             -16.00     3600.00
03642              -2.00     3600.00
03643               8.00     3400.00
03644               2.00     3200.00
03645             -10.00     3200.00
03646             -10.00     3000.00
03647               6.00     2800.00
03648               4.00     2600.00
03649              -6.00     2400.00
03650             -12.00     2200.00
03651               0.00     2200.00
03652              10.00     2000.00
03653               2.00     2000.00
03654             -12.00     1600.00
03655             -12.00     1600.00
03656               4.00     1400.00
03657              10.00     1200.00
03658               4.00     1000.00
03659             -12.00      800.00
03660              -8.00      800.00
03661               4.00      400.00
03662               6.00      400.00
03663              -4.00        0.00
03664              -6.00        0.00
03665               4.00     -200.00
03666              36.00     -400.00
03667              34.00     -400.00
03668             -12.00     -600.00
03669             -28.00     -800.00
03670               4.00    -1000.00
03671              26.00    -1000.00
03672              20.00    -1200.00
03673              74.00    -1600.00
03674             250.00    -1800.00
03675             106.00    -2200.00
03676            -250.00    -2200.00
03677            -250.00    -2600.00
03678            -172.00    -2400.00
03679             250.00    -2000.00
03680             250.00    -2600.00
03681            -250.00    -3200.00
03682            -250.00    -2600.00
03683             250.00    -3600.00
03684             250.00    -3400.00
03685            -250.00    -2800.00
03686            -210.00    -4000.00
03687            -130.00    -4000.00
03688              22.00    -3600.00
03689             250.00    -4400.00
03690            -250.00    -4200.00
03691            -250.00    -4000.00
03692             250.00    -4800.00
03693              54.00    -4400.00
03694            -118.00    -4800.00
03695               2.00    -5200.00
03696            -200.00    -4600.00
03697             156.00    -5400.00
03698             194.00    -5600.00
03699            -164.00    -5200.00
03700            -106.00    -6000.00
03701               2.00    -5600.00
03702             136.00    -6000.00
03703              26.00    -6200.00
03704            -126.00    -6000.00
03705               6.00    -6400.00
03706               2.00    -6200.00
03707              60.00    -6400.00
03708              20.00    -6800.00
03709            -114.00    -6600.00
03710               6.00    -7000.00
03711              26.00    -7200.00
03712              52.00    -6800.00
03713              26.00    -7400.00
03714            -118.00    -7200.00
03715             -14.00    -7600.00
03716              58.00    -7600.00
03717              10.00    -7400.00
03718               2.00    -8000.00
03719             -28.00    -7600.00
03720             -22.00    -8000.00
03721             -20.00    -8000.00
03722              22.00    -8000.00
03723              34.00    -8200.00
03724             -44.00    -8000.00
03725             -22.00    -8200.00
03726              28.00    -8400.00
03727              10.00    -8400.00
03728             -22.00    -8400.00
03729             -22.00    -8400.00
03730              20.00    -8400.00
03731              10.00    -8600.00
03732             -22.00    -8600.00
03733              -6.00    -8800.00
03734              -4.00    -8800.00
03735              -4.00    -8800.00
03736              14.00    -8800.00
03737             -10.00    -8800.00
03738             -26.00    -9000.00
03739              -4.00    -8800.00
03740              28.00    -8800.00
03741               4.00    -9000.00
03742             -44.00    -9000.00
03743             -18.00    -9000.00
03744              20.00    -9000.00
03745              18.00    -9200.00
03746              -8.00    -9000.00
03747             -22.00    -9000.00
03748             -10.00    -9000.00
03749               2.00    -9000.00
03750              10.00    -9000.00
03751             -12.00    -9000.00
03752             -28.00    -8800.00
03753               6.00    -9000.00
03754              22.00    -9000.00
03755              -4.00    -9000.00
03756             -36.00    -9000.00
03757             -22.00    -8800.00
03758              14.00    -8800.00
03759              10.00    -8800.00
03760              -8.00    -8800.00
03761             -14.00    -8400.00
03762             -14.00    -8600.00
03763               2.00    -8600.00
03764               2.00    -8400.00
03765             -12.00    -8400.00
03766             -14.00    -8400.00
03767               2.00    -8400.00
03768              10.00    -8400.00
03769             -20.00    -8200.00
03770             -26.00    -8200.00
03771               4.00    -8200.00
03772              12.00    -8200.00
03773              -6.00    -8000.00
03774             -22.00    -8000.00
03775             -18.00    -8000.00
03776              -2.00    -7600.00
03777               2.00    -7600.00
03778               2.00    -7400.00
03779             -10.00    -7400.00
03780             -10.00    -7400.00
03781               2.00    -7200.00
03782              -4.00    -7200.00
03783             -14.00    -7200.00
03784             -12.00    -6800.00
03785              10.00    -6800.00
03786               4.00    -6600.00
03787             -22.00    -6600.00
03788             -22.00    -6400.00
03789               4.00    -6400.00
03790              10.00    -6200.00
03791               2.00    -6000.00
03792             -18.00    -6000.00
03793             -18.00    -6000.00
03794              -2.00    -5800.00
03795              10.00    -5400.00
03796              -2.00    -5600.00
03797             -24.00    -5200.00
03798             -18.00    -5000.00
03799              12.00    -4800.00
03800              10.00    -4800.00
03801             -12.00    -4600.00
03802             -22.00    -4400.00
03803              -6.00    -4400.00
03804              10.00    -4200.00
03805               2.00    -4200.00
03806             -14.00    -4000.00
03807             -18.00    -3800.00
03808              -6.00    -3800.00
03809               6.00    -3400.00
03810               4.00    -3400.00
03811             -10.00    -3200.00
03812             -12.00    -3000.00
03813               2.00    -2800.00
03814              -4.00    -2600.00
03815             -18.00    -2600.00
03816             -16.00    -2400.00
03817               2.00    -2200.00
03818              10.00    -2000.00
03819               0.00    -2000.00
03820             -18.00    -1800.00
03821             -18.00    -1600.00
03822              -2.00    -1400.00
03823              10.00    -1200.00
03824              -4.00    -1000.00
03825             -20.00     -800.00
03826             -12.00     -800.00
03827               6.00     -600.00
03828               0.00     -400.00
03829             -12.00     -200.00
03830             -14.00        0.00
03831               4.00        0.00
03832              22.00      200.00
03833              26.00      400.00
03834              -6.00      600.00
03835             -30.00      600.00
03836             -14.00      800.00
03837              14.00     1200.00
03838              12.00     1200.00
03839               4.00     1200.00
03840              70.00     1600.00
03841             250.00     2000.00
03842             132.00     2000.00
03843            -250.00     2000.00
03844            -250.00     2200.00
03845             -70.00     2400.00
03846             250.00     2400.00
03847             250.00     3000.00
03848             218.00     2800.00
03849            -250.00     2800.00
03850            -230.00     3200.00
03851             250.00     3200.00
03852             154.00     3600.00
03853            -250.00     3800.00
03854            -160.00     3600.00
03855              38.00     3800.00
03856             250.00     4400.00
03857              38.00     4000.00
03858            -250.00     4600.00
03859              14.00     4800.00
03860             250.00     4400.00
03861              36.00     4800.00
03862            -146.00     5200.00
03863            -190.00     5200.00
03864              26.00     5400.00
03865             250.00     5400.00
03866              30.00     5600.00
03867            -250.00     5600.00
03868             -66.00     5600.00
03869             230.00     6000.00
03870              62.00     6200.00
03871            -150.00     6200.00
03872             -66.00     6400.00
03873              46.00     6400.00
03874              90.00     6400.00
03875              28.00     6600.00
03876            -100.00     6800.00
03877             -68.00     6800.00
03878              50.00     7000.00
03879              92.00     7200.00
03880               4.00     7000.00
03881            -106.00     7200.00
03882             -38.00     7400.00
03883              78.00     7600.00
03884              36.00     7600.00
03885             -44.00     7800.00
03886             -20.00     7800.00
03887               4.00     8000.00
03888             -12.00     7800.00
03889              12.00     8000.00
03890              26.00     8400.00
03891             -28.00     8200.00
03892             -30.00     8200.00
03893              22.00     8400.00
03894              26.00     8400.00
03895             -18.00     8400.00
03896             -20.00     8400.00
03897               6.00     8400.00
03898              -2.00     8600.00
03899              -6.00     8600.00
03900               6.00     8800.00
03901               2.00     8800.00
03902             -16.00     8800.00
03903               6.00     8800.00
03904               6.00     8800.00
03905             -20.00     8800.00
03906             -10.00     9000.00
03907              28.00     9000.00
03908              12.00     9000.00
03909             -34.00     8800.00
03910             -20.00     9000.00
03911              20.00     9000.00
03912              14.00     8800.00
03913              -6.00     8800.00
03914             -12.00     9000.00
03915             -10.00     8800.00
03916               2.00     8800.00
03917              20.00     8800.00
03918               2.00     8800.00
03919             -26.00     8800.00
03920              -4.00     9000.00
03921              28.00     8800.00
03922               4.00     8800.00
03923             -30.00     8800.00
03924             -10.00     8600.00
03925              20.00     8800.00
03926              12.00     8600.00
03927              -6.00     8800.00
03928             -10.00     8600.00
03929              -4.00     8800.00
03930               6.00     8600.00
03931              12.00     8400.00
03932              -4.00     8400.00
03933             -14.00     8600.00
03934               4.00     8400.00
03935              20.00     8400.00
03936              -6.00     8400.00
03937             -24.00     8400.00
03938               0.00     8200.00
03939              20.00     8000.00
03940               2.00     8000.00
03941             -14.00     7800.00
03942             -12.00     7800.00
03943               2.00     7800.00
03944               8.00     7400.00
03945               8.00     7400.00
03946             -10.00     7200.00
03947             -12.00     7200.00
03948               4.00     7200.00
03949              10.00     7200.00
03950             -10.00     6800.00
03951             -16.00     6800.00
03952               4.00     6800.00
03953              14.00     6400.00
03954              -4.00     6400.00
03955             -20.00     6400.00
03956             -10.00     6200.00
03957               4.00     6200.00
03958              10.00     6000.00
03959               0.00     5800.00
03960             -20.00     5800.00
03961             -10.00     5800.00
03962              10.00     5400.00
03963               6.00     5400.00
03964             -12.00     5200.00
03965             -10.00     4800.00
03966               6.00     4800.00
03967               6.00     4600.00
03968              -8.00     4600.00
03969             -12.00     4400.00
03970              -2.00     4400.00
03971               6.00     4000.00
03972              10.00     4000.00
03973              -4.00     3800.00
03974             -14.00     3800.00
03975              -6.00     3600.00
03976              10.00     3200.00
03977               6.00     3400.00
03978              -8.00     3200.00
03979             -10.00     3000.00
03980               4.00     2800.00
03981               6.00     2800.00
03982              -6.00     2400.00
03983             -12.00     2200.00
03984               2.00     2200.00
03985               8.00     2000.00
03986               4.00     2000.00
03987             -12.00     1800.00
03988             -10.00     1400.00
03989              -2.00     1400.00
03990              10.00     1200.00
03991               4.00      800.00
03992             -10.00      800.00
03993              -6.00      600.00
03994               4.00      400.00
03995               4.00      200.00
03996              -6.00        0.00
03997              -6.00        0.00
03998               6.00     -200.00
03999              30.00     -400.00
04000              32.00     -400.00
04001              -8.00     -600.00
04002             -26.00     -800.00
04003               2.00     -800.00
04004              26.00    -1000.00
04005              18.00    -1400.00
04006              58.00    -1200.00
04007             250.00    -1600.00
04008             148.00    -2200.00
04009            -250.00    -2400.00
04010            -250.00    -2600.00
04011            -202.00    -2600.00
04012             250.00    -2000.00
04013             250.00    -2600.00
04014            -250.00    -3000.00
04015            -250.00    -2400.00
04016             250.00    -3600.00
04017             250.00    -3400.00
04018            -250.00    -2800.00
04019            -238.00    -4000.00
04020            -124.00    -4000.00
04021             -16.00    -3400.00
04022             250.00    -4400.00
04023            -226.00    -4200.00
04024            -250.00    -4000.00
04025             250.00    -4800.00
04026              98.00    -4600.00
04027            -134.00    -4600.00
04028               8.00    -5200.00
04029            -202.00    -4600.00
04030             132.00    -5200.00
04031             218.00    -5600.00
04032            -156.00    -5200.00
04033            -116.00    -5800.00
04034             -10.00    -5800.00
04035             130.00    -5800.00
04036              38.00    -6400.00
04037            -134.00    -6000.00
04038              -4.00    -6400.00
04039              16.00    -6400.00
04040              68.00    -6400.00
04041              26.00    -6800.00
04042            -130.00    -6600.00
04043              -6.00    -7000.00
04044              42.00    -7000.00
04045              58.00    -7000.00
04046              26.00    -7400.00
04047            -134.00    -7400.00
04048             -20.00    -7400.00
04049              84.00    -7400.00
04050              22.00    -7400.00
04051             -18.00    -7800.00
04052             -44.00    -7800.00
04053             -18.00    -8000.00
04054              -2.00    -8000.00
04055              28.00    -8000.00
04056              34.00    -8200.00
04057             -50.00    -8000.00
04058             -38.00    -8200.00
04059              26.00    -8400.00
04060              28.00    -8400.00
04061             -12.00    -8400.00
04062             -34.00    -8400.00
04063               4.00    -8400.00
04064              12.00    -8400.00
04065             -16.00    -8600.00
04066              -2.00    -8800.00
04067              -6.00    -8800.00
04068              -4.00    -8800.00
04069              10.00    -8800.00
04070             -12.00    -8800.00
04071             -26.00    -8800.00
04072              -4.00    -8800.00
04073              26.00    -9000.00
04074               4.00    -8800.00
04075             -42.00    -8800.00
04076             -18.00    -9000.00
04077              22.00    -9000.00
04078              12.00    -8800.00
04079             -18.00    -9000.00
04080             -28.00    -9000.00
04081              -6.00    -9000.00
04082              10.00    -9000.00
04083              10.00    -9000.00
04084             -12.00    -9000.00
04085             -36.00    -9000.00
04086              -2.00    -8800.00
04087              26.00    -8800.00
04088              -4.00    -8800.00
04089             -34.00    -9000.00
04090             -18.00    -9000.00
04091              18.00    -8800.00
04092               6.00    -8800.00
04093             -14.00    -8800.00
04094             -12.00    -8800.00
04095              -6.00    -8800.00
04096               4.00    -8600.00
04097              -2.00    -8400.00
04098             -14.00    -8400.00
04099             -14.00    -8600.00
04100               2.00    -8400.00
04101              12.00    -8400.00
04102             -14.00    -8200.00
04103             -28.00    -8400.00
04104              -2.00    -8200.00
04105              14.00    -8000.00
04106              -4.00    -8000.00
04107             -20.00    -8000.00
04108             -14.00    -8000.00
04109              -2.00    -8000.00
04110               4.00    -7600.00
04111              -2.00    -7400.00
04112             -18.00    -7200.00
04113             -12.00    -7400.00
04114               6.00    -7200.00
04115               4.00    -7200.00
04116             -12.00    -7000.00
04117             -20.00    -6800.00
04118               2.00    -6800.00
04119              14.00    -6600.00
04120              -6.00    -6400.00
04121             -20.00    -6400.00
04122             -12.00    -6200.00
04123               2.00    -6200.00
04124              10.00    -6000.00
04125             -10.00    -5800.00
04126             -20.00    -5800.00
04127              -6.00    -5800.00
04128               4.00    -5600.00
04129               2.00    -5600.00
04130             -14.00    -5200.00
04131             -12.00    -5000.00
04132               4.00    -5000.00
04133               2.00    -4600.00
04134             -10.00    -4600.00
04135             -14.00    -4400.00
04136              -4.00    -4400.00
04137               6.00    -4400.00
04138              -2.00    -4000.00
04139             -14.00    -4000.00
04140             -14.00    -3800.00
04141              -6.00    -3600.00
04142               4.00    -3600.00
04143              -6.00    -3400.00
04144             -20.00    -3200.00
04145             -10.00    -3200.00
04146               6.00    -2800.00
04147               4.00    -2800.00
04148             -18.00    -2600.00
04149             -20.00    -2400.00
04150              -4.00    -2200.00
04151              10.00    -2000.00
04152              -2.00    -1800.00
04153             -18.00    -1800.00
04154             -16.00    -1600.00
04155              -2.00    -1400.00
04156              10.00    -1200.00
04157              -4.00    -1200.00
04158             -18.00    -1000.00
04159             -12.00     -800.00
04160               4.00     -400.00
04161               2.00     -400.00
04162             -10.00     -200.00
04163             -12.00     -200.00
04164              -4.00        0.00
04165              18.00      200.00
04166              34.00      400.00
04167              -2.00      600.00
04168             -28.00      800.00
04169             -14.00      800.00
04170              14.00     1000.00
04171              14.00     1200.00
04172               2.00     1200.00
04173              62.00     1400.00
04174             250.00     2000.00
04175             162.00     2200.00
04176            -250.00     2200.00
04177            -250.00     2400.00
04178            -100.00     2400.00
04179             244.00     2400.00
04180             250.00     3000.00
04181             250.00     3200.00
04182            -250.00     2600.00
04183            -250.00     3200.00
04184             250.00     3000.00
04185             232.00     3600.00
04186            -250.00     3800.00
04187            -180.00     3600.00
04188              22.00     3800.00
04189             250.00     4400.00
04190              84.00     4000.00
04191            -250.00     4400.00
04192             -26.00     4600.00
04193             250.00     4600.00
04194              56.00     4800.00
04195            -138.00     5200.00
04196            -194.00     5200.00
04197               6.00     5200.00
04198             250.00     5600.00
04199              58.00     5600.00
04200            -250.00     5600.00
04201             -88.00     5800.00
04202             222.00     6000.00
04203              82.00     6000.00
04204            -146.00     6200.00
04205             -70.00     6400.00
04206              38.00     6400.00
04207              90.00     6400.00
04208              36.00     6600.00
04209             -98.00     6800.00
04210             -76.00     6800.00
04211              44.00     7000.00
04212              94.00     7000.00
04213              12.00     7200.00
04214            -106.00     7200.00
04215             -46.00     7400.00
04216              76.00     7600.00
04217              42.00     7600.00
04218             -42.00     7800.00
04219             -22.00     7800.00
04220               6.00     8000.00
04221             -12.00     7800.00
04222              10.00     8200.00
04223              28.00     8200.00
04224             -26.00     8400.00
04225             -30.00     8200.00
04226              20.00     8200.00
04227              26.00     8600.00
04228             -16.00     8400.00
04229             -20.00     8400.00
04230               6.00     8600.00
04231              -2.00     8600.00
04232             -10.00     8800.00
04233               6.00     8800.00
04234               2.00     8800.00
04235             -14.00     8800.00
04236               6.00     8800.00
04237               8.00     8800.00
04238             -22.00     8800.00
04239             -10.00     8800.00
04240              26.00     8800.00
04241              14.00     9000.00
04242             -32.00     8800.00
04243             -22.00     8800.00
04244              20.00     9200.00
04245              18.00     9000.00
04246              -4.00     8800.00
04247             -12.00     8800.00
04248              -8.00     9000.00
04249               2.00     8800.00
04250              18.00     9000.00
04251               6.00     9000.00
04252             -26.00     8800.00
04253              -6.00     8800.00
04254              28.00     8800.00
04255              10.00     8800.00
04256             -28.00     8800.00
04257             -14.00     8800.00
04258              18.00     8800.00
04259              14.00     8800.00
04260              -6.00     8800.00
04261              -8.00     8600.00
04262              -4.00     8600.00
04263               4.00     8600.00
04264              10.00     8400.00
04265              -2.00     8600.00
04266             -12.00     8400.00
04267               4.00     8400.00
04268              18.00     8400.00
04269              -4.00     8200.00
04270             -22.00     8200.00
04271              -2.00     8000.00
04272              20.00     8000.00
04273               6.00     8000.00
04274             -12.00     7800.00
04275             -12.00     7800.00
04276              -2.00     7600.00
04277              10.00     7600.00
04278              10.00     7600.00
04279              -6.00     7600.00
04280             -14.00     7200.00
04281               2.00     7200.00
04282              14.00     7000.00
04283              -4.00     7000.00
04284             -14.00     6800.00
04285              -2.00     6800.00
04286              14.00     6400.00
04287               0.00     6400.00
04288             -14.00     6400.00
04289             -12.00     6400.00
04290               2.00     6000.00
04291              10.00     6000.00
04292               2.00     6000.00
04293             -10.00     5800.00
04294              -8.00     5600.00
04295               2.00     5600.00
04296               4.00     5400.00
04297              -6.00     5200.00
04298             -12.00     5200.00
04299              10.00     4800.00
04300              10.00     4600.00
04301              -8.00     4600.00
04302             -14.00     4400.00
04303              -2.00     4200.00
04304              10.00     4200.00
04305               4.00     4000.00
04306              -6.00     3800.00
04307             -12.00     3600.00
04308              -6.00     3600.00
04309              10.00     3400.00
04310              10.00     3200.00
04311             -10.00     3200.00
04312             -16.00     3000.00
04313               2.00     2800.00
04314              14.00     2800.00
04315               2.00     2400.00
04316             -14.00     2400.00
04317             -12.00     2200.00
04318               2.00     2000.00
04319               6.00     2000.00
04320              -2.00     1600.00
04321              -4.00     1600.00
04322              -2.00     1200.00
04323               2.00     1000.00
04324              -4.00     1000.00
04325              -6.00      600.00
04326              -2.00      600.00
04327               4.00      400.00
04328              -2.00      400.00
04329             -10.00        0.00
04330              -4.00        0.00
04331               8.00     -200.00
04332              34.00     -400.00
04333              36.00     -400.00
04334             -12.00     -800.00
04335             -30.00     -800.00
04336              -2.00    -1000.00
04337              28.00    -1200.00
04338              20.00    -1200.00
04339              42.00    -1400.00
04340             250.00    -1600.00
04341             186.00    -2000.00
04342            -250.00    -2200.00
04343            -250.00    -2600.00
04344            -236.00    -2600.00
04345             250.00    -2000.00
04346             250.00    -2400.00
04347            -150.00    -3200.00
04348            -250.00    -2600.00
04349             250.00    -3600.00
04350             250.00    -3600.00
04351            -250.00    -2600.00
04352            -250.00    -3600.00
04353            -104.00    -4000.00
04354             -52.00    -3600.00
04355             250.00    -4400.00
04356            -166.00    -4200.00
04357            -250.00    -4000.00
04358             250.00    -4800.00
04359             138.00    -4600.00
04360            -156.00    -4400.00
04361              12.00    -5000.00
04362            -196.00    -4600.00
04363             102.00    -5200.00
04364             236.00    -5600.00
04365            -140.00    -5200.00
04366            -128.00    -5800.00
04367             -12.00    -5600.00
04368             134.00    -5800.00
04369              68.00    -6200.00
04370            -130.00    -6000.00
04371             -14.00    -6400.00
04372               4.00    -6400.00
04373              52.00    -6400.00
04374              32.00    -6800.00
04375            -134.00    -6600.00
04376             -12.00    -6800.00
04377              58.00    -7000.00
04378              70.00    -6800.00
04379              50.00    -7200.00
04380            -130.00    -7200.00
04381             -44.00    -7400.00
04382              74.00    -7400.00
04383              20.00    -7600.00
04384             -12.00    -8000.00
04385             -44.00    -7600.00
04386             -20.00    -8000.00
04387               2.00    -8000.00
04388              34.00    -8000.00
04389              46.00    -8200.00
04390             -38.00    -8000.00
04391             -44.00    -8400.00
04392              18.00    -8400.00
04393              22.00    -8400.00
04394             -12.00    -8400.00
04395             -36.00    -8600.00
04396               2.00    -8400.00
04397              18.00    -8800.00
04398             -10.00    -8600.00
04399               2.00    -8800.00
04400              -2.00    -8800.00
04401              -6.00    -8800.00
04402               4.00    -8800.00
04403             -14.00    -8800.00
04404             -30.00    -9000.00
04405             -10.00    -8800.00
04406              26.00    -8800.00
04407              10.00    -9000.00
04408             -38.00    -9000.00
04409             -18.00    -9000.00
04410              22.00    -9000.00
04411              14.00    -9000.00
04412             -18.00    -9000.00
04413             -30.00    -9000.00
04414             -12.00    -9000.00
04415               6.00    -9000.00
04416              12.00    -9000.00
04417             -10.00    -8800.00
04418             -36.00    -9000.00
04419              -2.00    -9000.00
04420              28.00    -8800.00
04421               0.00    -9000.00
04422             -34.00    -8800.00
04423             -22.00    -8800.00
04424              10.00    -8800.00
04425               6.00    -8800.00
04426             -14.00    -8800.00
04427             -12.00    -8600.00
04428              -6.00    -8600.00
04429               4.00    -8600.00
04430              -2.00    -8400.00
04431             -14.00    -8400.00
04432             -14.00    -8400.00
04433              -2.00    -8400.00
04434              12.00    -8400.00
04435             -10.00    -8200.00
04436             -28.00    -8200.00
04437              -4.00    -8200.00
04438              12.00    -8000.00
04439              -2.00    -8000.00
04440             -18.00    -8000.00
04441             -12.00    -8000.00
04442               2.00    -7600.00
04443               6.00    -7600.00
04444              -4.00    -7400.00
04445             -18.00    -7400.00
04446             -12.00    -7400.00
04447               6.00    -7200.00
04448               6.00    -7200.00
04449             -12.00    -7000.00
04450             -22.00    -6800.00
04451               0.00    -6800.00
04452              14.00    -6600.00
04453              -6.00    -6600.00
04454             -20.00    -6400.00
04455             -10.00    -6400.00
04456               2.00    -6200.00
04457               6.00    -6000.00
04458              -6.00    -6000.00
04459             -18.00    -5800.00
04460             -10.00    -5800.00
04461               2.00    -5600.00
04462               4.00    -5200.00
04463             -18.00    -5400.00
04464             -14.00    -5000.00
04465               4.00    -4800.00
04466               6.00    -4600.00
04467             -10.00    -4600.00
04468             -20.00    -4400.00
04469             -10.00    -4400.00
04470               4.00    -4200.00
04471               2.00    -4200.00
04472             -12.00    -4000.00
04473             -12.00    -4000.00
04474              -6.00    -3600.00
04475               4.00    -3400.00
04476              -4.00    -3400.00
04477             -14.00    -3200.00
04478             -12.00    -3200.00
04479               4.00    -2800.00
04480               4.00    -2800.00
04481             -14.00    -2400.00
04482             -22.00    -2400.00
04483              -6.00    -2200.00
04484               8.00    -2000.00
04485               2.00    -2000.00
04486             -14.00    -1600.00
04487             -14.00    -1600.00
04488              -6.00    -1400.00
04489               4.00    -1200.00
04490              -4.00    -1000.00
04491             -12.00     -800.00
04492             -10.00     -800.00
04493               2.00     -400.00
04494              -6.00     -400.00
04495             -12.00     -200.00
04496              -6.00        0.00
04497               4.00      200.00
04498              18.00      200.00
04499              26.00      400.00
04500              -4.00      600.00
04501             -28.00      600.00
04502              -8.00      800.00
04503              14.00     1200.00
04504              10.00     1200.00
04505               0.00     1400.00
04506              52.00     1800.00
04507             250.00     2000.00
04508             194.00     2200.00
04509            -250.00     2200.00
04510            -250.00     2200.00
04511            -132.00     2400.00
04512             226.00     2400.00
04513             250.00     3000.00
04514             250.00     3000.00
04515            -250.00     2800.00
04516            -250.00     3200.00
04517             250.00     3200.00
04518             250.00     3600.00
04519            -250.00     3800.00
04520            -202.00     3600.00
04521               2.00     3800.00
04522             250.00     4200.00
04523             126.00     4000.00
04524            -250.00     4400.00
04525             -70.00     4600.00
04526             250.00     4400.00
04527              76.00     4800.00
04528            -134.00     5200.00
04529            -194.00     5400.00
04530             -12.00     5200.00
04531             250.00     5400.00
04532              84.00     5400.00
04533            -250.00     5600.00
04534            -114.00     5600.00
04535             218.00     6000.00
04536             100.00     6200.00
04537            -142.00     6200.00
04538             -86.00     6400.00
04539              34.00     6400.00
04540              92.00     6600.00
04541              46.00     6600.00
04542             -98.00     6800.00
04543             -90.00     6800.00
04544              36.00     7000.00
04545             100.00     7200.00
04546              22.00     7200.00
04547            -102.00     7200.00
04548             -60.00     7200.00
04549              68.00     7600.00
04550              48.00     7600.00
04551             -34.00     7800.00
04552             -26.00     7800.00
04553               2.00     7800.00
04554             -16.00     8000.00
04555               6.00     8200.00
04556              34.00     8200.00
04557             -20.00     8200.00
04558             -36.00     8200.00
04559              16.00     8400.00
04560              30.00     8400.00
04561             -10.00     8400.00
04562             -20.00     8600.00
04563               2.00     8600.00
04564               2.00     8600.00
04565              -6.00     8600.00
04566               6.00     8800.00
04567               4.00     8800.00
04568             -16.00     8800.00
04569               2.00     8800.00
04570              12.00     8800.00
04571             -20.00     8800.00
04572             -14.00     8800.00
04573              26.00     9000.00
04574              18.00     8800.00
04575             -30.00     9000.00
04576             -22.00     9200.00
04577              18.00     9000.00
04578              18.00     9000.00
04579              -4.00     9200.00
04580             -10.00     9000.00
04581              -8.00     8800.00
04582               2.00     8800.00
04583              18.00     9000.00
04584               6.00     9000.00
04585             -26.00     9000.00
04586             -10.00     9000.00
04587              28.00     9000.00
04588              12.00     8800.00
04589             -26.00     8800.00
04590             -14.00     8800.00
04591              14.00     8800.00
04592              16.00     8800.00
04593              -6.00     8800.00
04594              -8.00     8600.00
04595              -4.00     8800.00
04596               2.00     8600.00
04597               6.00     8400.00
04598              -4.00     8600.00
04599             -14.00     8400.00
04600               0.00     8400.00
04601              18.00     8200.00
04602              -4.00     8400.00
04603             -22.00     8200.00
04604              -4.00     8000.00
04605              18.00     8000.00
04606               4.00     7800.00
04607             -12.00     7800.00
04608             -14.00     7600.00
04609              -2.00     7800.00
04610              10.00     7400.00
04611               6.00     7400.00
04612             -10.00     7200.00
04613             -14.00     7200.00
04614               4.00     7200.00
04615              12.00     7200.00
04616              -8.00     6800.00
04617             -18.00     6800.00
04618               2.00     6600.00
04619              14.00     6800.00
04620              -2.00     6400.00
04621             -16.00     6400.00
04622             -12.00     6400.00
04623               4.00     6200.00
04624              12.00     6000.00
04625               2.00     6000.00
04626             -14.00     5800.00
04627             -12.00     5600.00
04628               6.00     5400.00
04629              10.00     5400.00
04630              -6.00     5000.00
04631             -14.00     5200.00
04632               2.00     4800.00
04633              10.00     4800.00
04634               0.00     4600.00
04635             -14.00     4400.00
04636              -6.00     4400.00
04637               6.00     4000.00
04638              10.00     4000.00
04639              -2.00     4000.00
04640             -12.00     3600.00
04641             -10.00     3600.00
04642               6.00     3400.00
04643              12.00     3400.00
04644             -10.00     3000.00
04645             -10.00     3000.00
04646               4.00     2800.00
04647               6.00     2800.00
04648              -4.00     2400.00
04649             -10.00     2200.00
04650               0.00     2200.00
04651               4.00     2000.00
04652               4.00     2000.00
04653              -6.00     1600.00
04654             -12.00     1600.00
04655              -4.00     1400.00
04656              10.00     1200.00
04657               4.00      800.00
04658             -10.00      800.00
04659             -12.00      600.00
04660               2.00      400.00
04661               4.00      400.00
04662              -6.00      200.00
04663              -6.00        0.00
04664               2.00     -200.00
04665              26.00     -400.00
04666              34.00     -400.00
04667              -6.00     -600.00
04668             -28.00     -800.00
04669              -6.00     -800.00
04670              26.00    -1000.00
04671              20.00    -1200.00
04672              38.00    -1600.00
04673             250.00    -1800.00
04674             214.00    -2000.00
04675            -250.00    -2200.00
04676            -250.00    -2400.00
04677            -250.00    -2600.00
04678             250.00    -2000.00
04679             250.00    -2600.00
04680             -12.00    -3200.00
04681            -250.00    -2600.00
04682             138.00    -3400.00
04683             250.00    -3600.00
04684            -194.00    -2800.00
04685            -250.00    -3600.00
04686            -102.00    -4000.00
04687             -82.00    -3400.00
04688             250.00    -4200.00
04689             -98.00    -4400.00
04690            -250.00    -4000.00
04691             250.00    -4600.00
04692             182.00    -4600.00
04693            -158.00    -4600.00
04694              22.00    -5200.00
04695            -194.00    -4600.00
04696              66.00    -5200.00
04697             250.00    -5600.00
04698            -120.00    -5200.00
04699            -134.00    -5800.00
04700             -22.00    -5800.00
04701             114.00    -5800.00
04702              74.00    -6200.00
04703            -132.00    -6000.00
04704             -18.00    -6400.00
04705              18.00    -6400.00
04706              52.00    -6200.00
04707              52.00    -6800.00
04708            -124.00    -6600.00
04709             -26.00    -6800.00
04710              46.00    -7000.00
04711              46.00    -6800.00
04712              44.00    -7200.00
04713            -126.00    -7200.00
04714             -46.00    -7400.00
04715              86.00    -7400.00
04716              28.00    -7400.00
04717             -12.00    -7800.00
04718             -44.00    -7600.00
04719             -22.00    -7800.00
04720              -6.00    -8000.00
04721              20.00    -8000.00
04722              42.00    -8200.00
04723             -38.00    -8200.00
04724             -44.00    -8200.00
04725              22.00    -8400.00
04726              30.00    -8200.00
04727              -6.00    -8400.00
04728             -34.00    -8400.00
04729              -2.00    -8800.00
04730              14.00    -8800.00
04731             -18.00    -8600.00
04732              -6.00    -8800.00
04733              -2.00    -8800.00
04734              -6.00    -8800.00
04735               6.00    -8800.00
04736              -8.00    -8800.00
04737             -24.00    -8800.00
04738              -6.00    -9000.00
04739              22.00    -9200.00
04740              12.00    -8800.00
04741             -42.00    -9000.00
04742             -24.00    -9000.00
04743              24.00    -9000.00
04744              16.00    -9000.00
04745             -14.00    -9000.00
04746             -28.00    -9000.00
04747             -10.00    -9000.00
04748              10.00    -9000.00
04749              10.00    -9000.00
04750              -8.00    -9000.00
04751             -36.00    -9000.00
04752              -8.00    -9000.00
04753              26.00    -8800.00
04754               4.00    -8800.00
04755             -30.00    -9000.00
04756             -22.00    -9000.00
04757              14.00    -8800.00
04758              12.00    -8800.00
04759             -18.00    -8800.00
04760             -10.00    -8600.00
04761              -6.00    -8800.00
04762               4.00    -8800.00
04763               0.00    -8400.00
04764             -14.00    -8600.00
04765             -16.00    -8400.00
04766               2.00    -8400.00
04767              14.00    -8400.00
04768             -10.00    -8200.00
04769             -30.00    -8200.00
04770              -4.00    -8000.00
04771              14.00    -8000.00
04772               4.00    -8000.00
04773             -20.00    -8000.00
04774             -20.00    -8000.00
04775               2.00    -7800.00
04776               6.00    -7600.00
04777              -2.00    -7400.00
04778             -16.00    -7400.00
04779             -14.00    -7200.00
04780               6.00    -7200.00
04781               8.00    -7000.00
04782             -10.00    -7000.00
04783             -20.00    -6800.00
04784              -6.00    -6600.00
04785              12.00    -6600.00
04786              -4.00    -6600.00
04787             -18.00    -6400.00
04788             -12.00    -6400.00
04789              -2.00    -6200.00
04790               4.00    -6000.00
04791              -8.00    -5800.00
04792             -18.00    -6000.00
04793              -6.00    -5800.00
04794               2.00    -5600.00
04795               2.00    -5600.00
04796             -16.00    -5400.00
04797             -18.00    -5000.00
04798               2.00    -5000.00
04799              10.00    -5000.00
04800             -10.00    -4600.00
04801             -22.00    -4600.00
04802              -6.00    -4400.00
04803               4.00    -4200.00
04804               4.00    -4000.00
04805             -12.00    -4000.00
04806             -20.00    -4000.00
04807              -6.00    -3600.00
04808               4.00    -3600.00
04809               0.00    -3400.00
04810             -14.00    -3200.00
04811             -14.00    -3200.00
04812               4.00    -3000.00
04813               4.00    -2800.00
04814             -12.00    -2600.00
04815             -20.00    -2400.00
04816              -4.00    -2400.00
04817               6.00    -2000.00
04818               2.00    -2000.00
04819             -12.00    -1800.00
04820             -14.00    -1600.00
04821              -2.00    -1400.00
04822              10.00    -1200.00
04823              -2.00    -1000.00
04824             -16.00    -1000.00
04825             -12.00     -800.00
04826               4.00     -600.00
04827               4.00     -400.00
04828             -10.00     -400.00
04829             -12.00        0.00
04830              -2.00        0.00
04831              20.00      200.00
04832              32.00      400.00
04833               4.00      400.00
04834             -28.00      800.00
04835             -18.00      800.00
04836              10.00     1000.00
04837              16.00     1200.00
04838               4.00     1400.00
04839              44.00     1600.00
04840             250.00     2000.00
04841             218.00     2000.00
04842            -250.00     2200.00
04843            -250.00     2200.00
04844            -164.00     2200.00
04845             200.00     2400.00
04846             250.00     2800.00
04847             250.00     3000.00
04848            -250.00     2800.00
04849            -250.00     3200.00
04850             250.00     3200.00
04851             250.00     3600.00
04852            -250.00     3800.00
04853            -220.00     3600.00
04854              -6.00     3800.00
04855             250.00     4400.00
04856             164.00     4400.00
04857            -250.00     4400.00
04858            -114.00     4800.00
04859             250.00     4400.00
04860             102.00     4800.00
04861            -128.00     5000.00
04862            -198.00     5200.00
04863             -38.00     5400.00
04864             250.00     5400.00
04865             112.00     5600.00
04866            -250.00     5800.00
04867            -138.00     6000.00
04868             202.00     6000.00
04869             118.00     6200.00
04870            -134.00     6000.00
04871             -92.00     6400.00
04872              26.00     6400.00
04873              86.00     6400.00
04874              52.00     6800.00
04875             -84.00     6800.00
04876             -92.00     6800.00
04877              28.00     7000.00
04878              98.00     7000.00
04879              30.00     7200.00
04880             -98.00     7200.00
04881             -68.00     7400.00
04882              66.00     7600.00
04883              56.00     7600.00
04884             -34.00     7600.00
04885             -26.00     7800.00
04886               2.00     7800.00
04887             -14.00     8000.00
04888               6.00     8200.00
04889              32.00     8200.00
04890             -14.00     8200.00
04891             -38.00     8200.00
04892              14.00     8400.00
04893              28.00     8400.00
04894             -10.00     8400.00
04895             -20.00     8600.00
04896               4.00     8400.00
04897               2.00     8600.00
04898              -8.00     8800.00
04899              10.00     8800.00
04900               6.00     8800.00
04901             -14.00     8800.00
04902              -2.00     8800.00
04903              10.00     8800.00
04904             -12.00     8800.00
04905             -12.00     8800.00
04906              22.00     8800.00
04907              18.00     8800.00
04908             -28.00     9000.00
04909             -22.00     8800.00
04910              18.00     9000.00
04911              20.00     9000.00
04912              -2.00     9000.00
04913             -10.00     9000.00
04914             -12.00     9200.00
04915               2.00     9000.00
04916              18.00     9000.00
04917               8.00     8800.00
04918             -26.00     9000.00
04919             -12.00     8800.00
04920              26.00     9000.00
04921              14.00     8800.00
04922             -28.00     8800.00
04923             -20.00     8800.00
04924              14.00     8800.00
04925              18.00     8800.00
04926              -6.00     8600.00
04927             -12.00     8600.00
04928              -6.00     8600.00
04929               2.00     8400.00
04930              10.00     8400.00
04931              -2.00     8400.00
04932             -14.00     8400.00
04933              -4.00     8400.00
04934              18.00     8400.00
04935              -2.00     8200.00
04936             -26.00     8200.00
04937              -6.00     8000.00
04938              20.00     8200.00
04939               6.00     7800.00
04940             -14.00     7800.00
04941             -14.00     7800.00
04942               0.00     7600.00
04943               8.00     7600.00
04944              10.00     7600.00
04945             -10.00     7200.00
04946             -14.00     7400.00
04947               2.00     7000.00
04948              12.00     7000.00
04949              -4.00     7000.00
04950             -14.00     6800.00
04951               2.00     6800.00
04952              14.00     6600.00
04953               4.00     6400.00
04954             -14.00     6400.00
04955             -12.00     6200.00
04956               2.00     6000.00
04957              12.00     6200.00
04958               4.00     6000.00
04959             -12.00     6000.00
04960             -12.00     5800.00
04961               6.00     5600.00
04962              12.00     5400.00
04963              -6.00     5200.00
04964             -12.00     5200.00
04965               4.00     4800.00
04966              10.00     4800.00
04967               2.00     4600.00
04968             -12.00     4400.00
04969              -4.00     4400.00
04970               4.00     4200.00
04971              10.00     4000.00
04972              -4.00     3800.00
04973             -12.00     3800.00
04974              -6.00     3600.00
04975               6.00     3400.00
04976               8.00     3200.00
04977              -6.00     3200.00
04978             -10.00     3000.00
04979               4.00     3000.00
04980              10.00     2800.00
04981              -4.00     2400.00
04982             -10.00     2400.00
04983              -4.00     2200.00
04984              10.00     2000.00
04985               6.00     1800.00
04986              -6.00     1600.00
04987             -12.00     1600.00
04988              -4.00     1200.00
04989              10.00     1200.00
04990               6.00      800.00
04991             -10.00      800.00
04992             -14.00      600.00
04993              -2.00      400.00
04994               6.00      200.00
04995               2.00      200.00
04996              -6.00        0.00
04997              -6.00     -200.00
04998              20.00     -400.00
04999              38.00     -400.00
05000               4.00     -600.00
