Unit:(mV)
                     CH1         CH2
Frequency              ? 261.250 kHz
00001               6.00    -4000.00
00002               6.00    -3800.00
00003               6.00    -3600.00
00004               0.00    -3600.00
00005              -2.00    -3400.00
00006               0.00    -3200.00
00007               4.00    -3000.00
00008               6.00    -2800.00
00009               4.00    -2600.00
00010               0.00    -2600.00
00011              -4.00    -2200.00
00012              -4.00    -2000.00
00013              -2.00    -1800.00
00014              -2.00    -1600.00
00015               0.00    -1600.00
00016              -2.00    -1200.00
00017              -4.00    -1000.00
00018              -8.00     -800.00
00019              -4.00     -800.00
00020              -2.00     -400.00
00021              -4.00     -400.00
00022              -2.00     -200.00
00023              -2.00        0.00
00024              -2.00      400.00
00025              22.00      400.00
00026              24.00      600.00
00027             -18.00      800.00
00028             -32.00     1000.00
00029               0.00     1200.00
00030              20.00     1200.00
00031              38.00     1400.00
00032             252.00     1800.00
00033             246.00     2000.00
00034            -248.00     2400.00
00035            -248.00     2400.00
00036             -24.00     2400.00
00037             252.00     2600.00
00038             252.00     3000.00
00039              76.00     3000.00
00040            -248.00     3200.00
00041              68.00     3600.00
00042             252.00     3600.00
00043            -248.00     4000.00
00044            -248.00     4000.00
00045             164.00     4000.00
00046              60.00     4600.00
00047             252.00     4000.00
00048             -44.00     5000.00
00049            -248.00     5200.00
00050             214.00     4600.00
00051             252.00     5600.00
00052             -68.00     5600.00
00053             -98.00     5200.00
00054            -248.00     6200.00
00055             118.00     6000.00
00056             252.00     5600.00
00057            -100.00     6800.00
00058            -248.00     6200.00
00059            -140.00     6400.00
00060             252.00     7000.00
00061              72.00     6800.00
00062            -248.00     7200.00
00063               0.00     7200.00
00064             -66.00     7600.00
00065              44.00     7600.00
00066              96.00     7600.00
00067            -168.00     8000.00
00068             -42.00     7600.00
00069              28.00     8400.00
00070             -10.00     8400.00
00071             -50.00     8000.00
00072             -44.00     8800.00
00073              20.00     8600.00
00074             -60.00     8800.00
00075              -2.00     9000.00
00076             -32.00     9000.00
00077             -92.00     9200.00
00078              54.00     9200.00
00079             -22.00     9400.00
00080             -88.00     9600.00
00081               4.00     9600.00
00082             -18.00    10000.00
00083             -52.00     9800.00
00084             -28.00    10200.00
00085             -14.00    10200.00
00086             -42.00    10000.00
00087             -24.00    10400.00
00088             -20.00    10400.00
00089             -60.00    10400.00
00090             -12.00    10600.00
00091             -10.00    10800.00
00092             -60.00    10800.00
00093             -26.00    10800.00
00094             -16.00    11000.00
00095             -44.00    11000.00
00096             -24.00    11000.00
00097             -28.00    11200.00
00098             -60.00    11000.00
00099             -20.00    11200.00
00100               0.00    11200.00
00101             -48.00    11400.00
00102             -50.00    11200.00
00103             -20.00    11600.00
00104             -36.00    11600.00
00105             -32.00    11400.00
00106             -18.00    11600.00
00107             -44.00    11600.00
00108             -36.00    11600.00
00109             -20.00    11600.00
00110             -40.00    11800.00
00111             -40.00    11600.00
00112             -20.00    11600.00
00113             -34.00    11600.00
00114             -32.00    11800.00
00115             -26.00    11800.00
00116             -48.00    11600.00
00117             -40.00    11800.00
00118             -18.00    11800.00
00119             -32.00    11800.00
00120             -36.00    11800.00
00121             -28.00    11800.00
00122             -36.00    11600.00
00123             -40.00    11600.00
00124             -24.00    11800.00
00125             -34.00    11600.00
00126             -36.00    11600.00
00127             -26.00    11600.00
00128             -30.00    11600.00
00129             -36.00    11600.00
00130             -34.00    11400.00
00131             -34.00    11600.00
00132             -32.00    11600.00
00133             -24.00    11200.00
00134             -32.00    11400.00
00135             -40.00    11200.00
00136             -32.00    11200.00
00137             -28.00    11200.00
00138             -32.00    11200.00
00139             -26.00    11200.00
00140             -28.00    11000.00
00141             -34.00    11000.00
00142             -26.00    10800.00
00143             -28.00    11000.00
00144             -34.00    10600.00
00145             -26.00    10600.00
00146             -26.00    10400.00
00147             -28.00    10200.00
00148             -28.00    10400.00
00149             -28.00    10200.00
00150             -32.00    10000.00
00151             -26.00    10000.00
00152             -22.00    10000.00
00153             -24.00     9800.00
00154             -26.00     9600.00
00155             -26.00     9600.00
00156             -26.00     9600.00
00157             -26.00     9400.00
00158             -24.00     9200.00
00159             -24.00     9200.00
00160             -20.00     9200.00
00161             -20.00     8800.00
00162             -26.00     8800.00
00163             -26.00     8600.00
00164             -20.00     8400.00
00165             -20.00     8400.00
00166             -24.00     8400.00
00167             -24.00     8000.00
00168             -18.00     8000.00
00169             -20.00     7800.00
00170             -18.00     7800.00
00171             -20.00     7600.00
00172             -26.00     7400.00
00173             -16.00     7400.00
00174             -10.00     7200.00
00175             -14.00     7000.00
00176             -22.00     6800.00
00177             -26.00     6600.00
00178             -20.00     6400.00
00179              -8.00     6200.00
00180             -10.00     6000.00
00181             -20.00     6000.00
00182             -24.00     5600.00
00183             -16.00     5600.00
00184             -12.00     5400.00
00185             -10.00     5200.00
00186             -10.00     5200.00
00187             -18.00     5200.00
00188             -14.00     4800.00
00189             -10.00     4600.00
00190             -12.00     4400.00
00191             -14.00     4200.00
00192             -10.00     4000.00
00193             -10.00     3800.00
00194             -10.00     3600.00
00195             -10.00     3400.00
00196             -12.00     3200.00
00197             -10.00     3200.00
00198              -8.00     3000.00
00199              -8.00     2800.00
00200              -8.00     2600.00
00201              -4.00     2400.00
00202             -10.00     2200.00
00203              -4.00     2000.00
00204              -4.00     1600.00
00205              -4.00     1600.00
00206              -4.00     1400.00
00207               0.00     1200.00
00208              -2.00     1200.00
00209              -4.00      800.00
00210              -2.00      800.00
00211              -4.00      400.00
00212               0.00      200.00
00213               0.00        0.00
00214               6.00     -200.00
00215               6.00     -400.00
00216              20.00     -400.00
00217              34.00     -600.00
00218               6.00     -800.00
00219             -20.00    -1000.00
00220               4.00    -1000.00
00221              30.00    -1200.00
00222              30.00    -1600.00
00223              70.00    -1600.00
00224             252.00    -2000.00
00225             182.00    -2600.00
00226            -248.00    -2600.00
00227            -248.00    -2800.00
00228              88.00    -2800.00
00229             252.00    -2800.00
00230             252.00    -2800.00
00231             228.00    -3600.00
00232            -248.00    -3200.00
00233            -248.00    -3200.00
00234             252.00    -4400.00
00235             206.00    -3600.00
00236            -248.00    -4000.00
00237            -114.00    -5000.00
00238             212.00    -4200.00
00239             252.00    -5000.00
00240              12.00    -5200.00
00241            -248.00    -4600.00
00242             -18.00    -5600.00
00243             252.00    -5400.00
00244             172.00    -5200.00
00245            -194.00    -6000.00
00246            -248.00    -5800.00
00247             162.00    -6000.00
00248             252.00    -6400.00
00249              -4.00    -6400.00
00250            -248.00    -6600.00
00251             -88.00    -6400.00
00252             252.00    -7000.00
00253             166.00    -7200.00
00254            -154.00    -7200.00
00255            -128.00    -7600.00
00256              60.00    -7400.00
00257             188.00    -7600.00
00258              44.00    -7800.00
00259            -122.00    -8000.00
00260             -12.00    -8200.00
00261             102.00    -8200.00
00262              86.00    -8400.00
00263             -32.00    -8600.00
00264             -48.00    -8400.00
00265              70.00    -8800.00
00266              88.00    -9000.00
00267              12.00    -9000.00
00268             -44.00    -9200.00
00269              12.00    -9200.00
00270              88.00    -9600.00
00271              60.00    -9600.00
00272              -8.00    -9800.00
00273             -16.00    -9800.00
00274              42.00    -9800.00
00275              62.00   -10000.00
00276              20.00   -10000.00
00277               4.00   -10000.00
00278              30.00   -10200.00
00279              44.00   -10400.00
00280              36.00   -10400.00
00281              14.00   -10600.00
00282              14.00   -10600.00
00283              38.00   -10800.00
00284              48.00   -10800.00
00285              28.00   -10800.00
00286              16.00   -11000.00
00287              28.00   -11200.00
00288              30.00   -11200.00
00289              32.00   -11200.00
00290              28.00   -11200.00
00291              30.00   -11200.00
00292              42.00   -11400.00
00293              38.00   -11400.00
00294              20.00   -11600.00
00295              22.00   -11400.00
00296              36.00   -11600.00
00297              38.00   -11400.00
00298              34.00   -11600.00
00299              30.00   -11600.00
00300              22.00   -11600.00
00301              24.00   -11600.00
00302              32.00   -11600.00
00303              32.00   -11600.00
00304              34.00   -11800.00
00305              32.00   -11800.00
00306              30.00   -11800.00
00307              24.00   -12000.00
00308              24.00   -11800.00
00309              28.00   -12000.00
00310              32.00   -11800.00
00311              36.00   -11600.00
00312              28.00   -11800.00
00313              28.00   -11800.00
00314              26.00   -11800.00
00315              26.00   -11800.00
00316              28.00   -11600.00
00317              30.00   -11800.00
00318              32.00   -11600.00
00319              28.00   -11600.00
00320              22.00   -11800.00
00321              22.00   -11600.00
00322              22.00   -11600.00
00323              30.00   -11400.00
00324              30.00   -11600.00
00325              28.00   -11600.00
00326              28.00   -11400.00
00327              22.00   -11400.00
00328              20.00   -11200.00
00329              26.00   -11200.00
00330              30.00   -11000.00
00331              28.00   -11200.00
00332              24.00   -11000.00
00333              24.00   -11000.00
00334              20.00   -10800.00
00335              22.00   -10800.00
00336              22.00   -10600.00
00337              28.00   -10600.00
00338              30.00   -10400.00
00339              24.00   -10400.00
00340              22.00   -10400.00
00341              20.00   -10400.00
00342              22.00   -10200.00
00343              22.00   -10400.00
00344              24.00   -10000.00
00345              22.00    -9800.00
00346              22.00    -9800.00
00347              20.00    -9600.00
00348              20.00    -9600.00
00349              18.00    -9600.00
00350              20.00    -9200.00
00351              22.00    -9000.00
00352              22.00    -9000.00
00353              16.00    -8800.00
00354              16.00    -8800.00
00355              16.00    -8800.00
00356              16.00    -8600.00
00357              24.00    -8400.00
00358              20.00    -8200.00
00359              16.00    -8000.00
00360              14.00    -8000.00
00361              12.00    -8000.00
00362              14.00    -7600.00
00363              16.00    -7600.00
00364              18.00    -7400.00
00365              14.00    -7200.00
00366              12.00    -7000.00
00367              12.00    -6800.00
00368               8.00    -6600.00
00369               8.00    -6600.00
00370              12.00    -6400.00
00371              14.00    -6400.00
00372              12.00    -6000.00
00373               8.00    -6000.00
00374               8.00    -5800.00
00375               4.00    -5600.00
00376               6.00    -5400.00
00377              10.00    -5200.00
00378               8.00    -5000.00
00379               6.00    -5000.00
00380               4.00    -4800.00
00381               4.00    -4600.00
00382               4.00    -4400.00
00383               6.00    -4200.00
00384               6.00    -4000.00
00385               6.00    -4000.00
00386               4.00    -3600.00
00387               0.00    -3600.00
00388               0.00    -3400.00
00389               0.00    -3200.00
00390               2.00    -2800.00
00391               6.00    -2800.00
00392               0.00    -2600.00
00393              -2.00    -2400.00
00394              -4.00    -2200.00
00395              -4.00    -2000.00
00396               0.00    -1800.00
00397              -2.00    -1600.00
00398               0.00    -1400.00
00399              -2.00    -1200.00
00400              -4.00    -1200.00
00401              -4.00     -800.00
00402              -4.00     -800.00
00403              -4.00     -400.00
00404              -4.00     -200.00
00405               0.00     -200.00
00406              -2.00        0.00
00407               0.00      400.00
00408              22.00      400.00
00409              14.00      600.00
00410             -20.00      800.00
00411             -26.00     1000.00
00412               6.00     1200.00
00413              22.00     1400.00
00414              68.00     1400.00
00415             252.00     2000.00
00416             124.00     2200.00
00417            -248.00     2400.00
00418            -248.00     2400.00
00419             102.00     2400.00
00420             252.00     2600.00
00421             252.00     3000.00
00422            -248.00     3000.00
00423            -248.00     3200.00
00424             252.00     3400.00
00425             252.00     3600.00
00426            -248.00     4000.00
00427            -248.00     3600.00
00428             196.00     4400.00
00429              78.00     4600.00
00430             252.00     4000.00
00431            -248.00     5200.00
00432            -248.00     5200.00
00433             252.00     4600.00
00434             184.00     5800.00
00435             -64.00     5400.00
00436            -154.00     5200.00
00437            -248.00     6400.00
00438             238.00     5600.00
00439             228.00     6000.00
00440            -164.00     6800.00
00441            -248.00     6000.00
00442             -50.00     6800.00
00443             252.00     7000.00
00444             -52.00     6800.00
00445            -204.00     7400.00
00446              20.00     7200.00
00447             -82.00     7600.00
00448             100.00     7400.00
00449              30.00     7800.00
00450            -176.00     8000.00
00451              -2.00     7600.00
00452              20.00     8400.00
00453             -16.00     8200.00
00454             -62.00     8200.00
00455             -20.00     8800.00
00456               6.00     8400.00
00457             -66.00     8800.00
00458              16.00     8800.00
00459             -66.00     9000.00
00460             -64.00     9200.00
00461              62.00     9200.00
00462             -58.00     9600.00
00463             -68.00     9400.00
00464               6.00     9600.00
00465             -32.00     9800.00
00466             -46.00     9600.00
00467             -22.00    10200.00
00468             -18.00    10200.00
00469             -44.00    10000.00
00470             -16.00    10400.00
00471             -30.00    10400.00
00472             -60.00    10400.00
00473              -2.00    10400.00
00474             -26.00    10600.00
00475             -60.00    10800.00
00476             -16.00    10800.00
00477             -26.00    11000.00
00478             -42.00    11000.00
00479             -18.00    11000.00
00480             -36.00    11200.00
00481             -58.00    11000.00
00482              -8.00    11200.00
00483             -10.00    11400.00
00484             -58.00    11400.00
00485             -42.00    11200.00
00486             -24.00    11600.00
00487             -38.00    11600.00
00488             -22.00    11600.00
00489             -26.00    11600.00
00490             -48.00    11600.00
00491             -32.00    11600.00
00492             -20.00    11800.00
00493             -42.00    11800.00
00494             -34.00    11800.00
00495             -26.00    11600.00
00496             -34.00    11800.00
00497             -28.00    11800.00
00498             -28.00    12000.00
00499             -50.00    11800.00
00500             -34.00    11800.00
00501             -18.00    11800.00
00502             -36.00    11800.00
00503             -40.00    11800.00
00504             -28.00    11800.00
00505             -40.00    11800.00
00506             -36.00    11600.00
00507             -24.00    11800.00
00508             -40.00    11600.00
00509             -36.00    11600.00
00510             -24.00    11600.00
00511             -34.00    11600.00
00512             -38.00    11600.00
00513             -32.00    11600.00
00514             -36.00    11400.00
00515             -32.00    11400.00
00516             -24.00    11600.00
00517             -36.00    11200.00
00518             -40.00    11200.00
00519             -28.00    11200.00
00520             -34.00    11200.00
00521             -32.00    11200.00
00522             -24.00    11000.00
00523             -32.00    11000.00
00524             -36.00    11000.00
00525             -26.00    10800.00
00526             -30.00    10800.00
00527             -36.00    10400.00
00528             -24.00    10600.00
00529             -26.00    10400.00
00530             -28.00    10400.00
00531             -28.00    10400.00
00532             -32.00    10200.00
00533             -32.00    10200.00
00534             -24.00    10000.00
00535             -24.00    10000.00
00536             -26.00    10000.00
00537             -26.00     9600.00
00538             -28.00     9600.00
00539             -30.00     9600.00
00540             -24.00     9400.00
00541             -24.00     9200.00
00542             -26.00     9200.00
00543             -20.00     9200.00
00544             -22.00     8800.00
00545             -26.00     8800.00
00546             -26.00     8600.00
00547             -20.00     8400.00
00548             -22.00     8400.00
00549             -18.00     8200.00
00550             -20.00     8200.00
00551             -24.00     7800.00
00552             -24.00     7800.00
00553             -18.00     7600.00
00554             -18.00     7600.00
00555             -18.00     7200.00
00556             -18.00     7400.00
00557             -16.00     7200.00
00558             -18.00     7000.00
00559             -20.00     6800.00
00560             -20.00     6400.00
00561             -16.00     6400.00
00562             -12.00     6200.00
00563             -14.00     6200.00
00564             -16.00     6000.00
00565             -16.00     5600.00
00566             -12.00     5600.00
00567             -12.00     5400.00
00568             -10.00     5200.00
00569             -12.00     5200.00
00570             -14.00     4800.00
00571             -12.00     4800.00
00572             -14.00     4600.00
00573             -12.00     4400.00
00574             -10.00     4200.00
00575              -8.00     4000.00
00576             -10.00     4000.00
00577              -8.00     3600.00
00578             -10.00     3600.00
00579             -10.00     3200.00
00580              -6.00     3000.00
00581              -8.00     2800.00
00582              -4.00     2600.00
00583              -4.00     2600.00
00584              -8.00     2400.00
00585              -4.00     2200.00
00586              -4.00     2000.00
00587              -8.00     1600.00
00588              -4.00     1600.00
00589              -2.00     1400.00
00590               0.00     1200.00
00591              -2.00     1000.00
00592              -4.00      800.00
00593              -4.00      600.00
00594               0.00      400.00
00595               0.00      200.00
00596               6.00        0.00
00597               4.00     -200.00
00598               6.00     -200.00
00599              26.00     -400.00
00600              32.00     -600.00
00601              -4.00     -800.00
00602             -18.00    -1000.00
00603               8.00    -1200.00
00604              32.00    -1600.00
00605              28.00    -1400.00
00606             104.00    -1600.00
00607             252.00    -2000.00
00608              60.00    -2600.00
00609            -248.00    -2600.00
00610            -248.00    -2800.00
00611             200.00    -2800.00
00612             252.00    -2800.00
00613             252.00    -2800.00
00614              18.00    -3600.00
00615            -248.00    -3200.00
00616              84.00    -3600.00
00617             252.00    -4400.00
00618            -136.00    -3400.00
00619            -248.00    -4400.00
00620               4.00    -4800.00
00621             246.00    -4000.00
00622             252.00    -5000.00
00623            -146.00    -5000.00
00624            -248.00    -4800.00
00625             122.00    -5600.00
00626             252.00    -5400.00
00627              92.00    -5400.00
00628            -248.00    -6000.00
00629            -196.00    -5800.00
00630             252.00    -6000.00
00631             252.00    -6400.00
00632             -86.00    -6600.00
00633            -248.00    -6800.00
00634               4.00    -6600.00
00635             252.00    -7200.00
00636              78.00    -7200.00
00637            -176.00    -7400.00
00638             -88.00    -7600.00
00639             104.00    -7400.00
00640             182.00    -7800.00
00641             -12.00    -7800.00
00642            -114.00    -8000.00
00643              22.00    -8200.00
00644             112.00    -8200.00
00645              62.00    -8600.00
00646             -50.00    -8800.00
00647             -26.00    -8600.00
00648              86.00    -8800.00
00649              78.00    -9000.00
00650              -8.00    -9200.00
00651             -42.00    -9200.00
00652              32.00    -9400.00
00653              90.00    -9600.00
00654              40.00    -9600.00
00655             -16.00    -9800.00
00656              -4.00    -9800.00
00657              52.00   -10000.00
00658              54.00   -10000.00
00659              12.00   -10000.00
00660               8.00   -10200.00
00661              34.00   -10400.00
00662              44.00   -10400.00
00663              30.00   -10400.00
00664              12.00   -10600.00
00665              16.00   -10800.00
00666              40.00   -10600.00
00667              44.00   -10800.00
00668              22.00   -10800.00
00669              18.00   -11000.00
00670              28.00   -11200.00
00671              30.00   -11200.00
00672              30.00   -11400.00
00673              26.00   -11400.00
00674              30.00   -11200.00
00675              40.00   -11400.00
00676              30.00   -11400.00
00677              16.00   -11400.00
00678              22.00   -11600.00
00679              38.00   -11600.00
00680              38.00   -11600.00
00681              32.00   -11600.00
00682              28.00   -11600.00
00683              24.00   -11600.00
00684              28.00   -11600.00
00685              32.00   -11800.00
00686              30.00   -11800.00
00687              36.00   -11800.00
00688              36.00   -11800.00
00689              28.00   -11600.00
00690              24.00   -11800.00
00691              28.00   -11800.00
00692              30.00   -11800.00
00693              36.00   -11800.00
00694              36.00   -11800.00
00695              28.00   -11600.00
00696              28.00   -11600.00
00697              28.00   -11800.00
00698              26.00   -11600.00
00699              28.00   -11600.00
00700              32.00   -11800.00
00701              30.00   -11600.00
00702              28.00   -11600.00
00703              26.00   -11600.00
00704              22.00   -11600.00
00705              24.00   -11400.00
00706              28.00   -11600.00
00707              32.00   -11400.00
00708              30.00   -11400.00
00709              28.00   -11200.00
00710              20.00   -11400.00
00711              22.00   -11400.00
00712              28.00   -11200.00
00713              30.00   -11200.00
00714              28.00   -11200.00
00715              24.00   -11000.00
00716              22.00   -11000.00
00717              20.00   -10800.00
00718              22.00   -10800.00
00719              24.00   -10600.00
00720              28.00   -10600.00
00721              28.00   -10600.00
00722              22.00   -10400.00
00723              16.00   -10400.00
00724              22.00   -10400.00
00725              22.00   -10200.00
00726              22.00   -10000.00
00727              26.00   -10000.00
00728              24.00    -9800.00
00729              20.00    -9600.00
00730              20.00    -9600.00
00731              20.00    -9600.00
00732              20.00    -9400.00
00733              22.00    -9200.00
00734              22.00    -9200.00
00735              20.00    -9000.00
00736              18.00    -8800.00
00737              16.00    -8800.00
00738              16.00    -8600.00
00739              20.00    -8400.00
00740              22.00    -8400.00
00741              22.00    -8200.00
00742              18.00    -8000.00
00743              14.00    -8000.00
00744              10.00    -7800.00
00745              16.00    -7600.00
00746              16.00    -7400.00
00747              20.00    -7200.00
00748              16.00    -7200.00
00749              12.00    -7200.00
00750               6.00    -6800.00
00751              12.00    -6800.00
00752              14.00    -6600.00
00753              14.00    -6400.00
00754              14.00    -6400.00
00755              12.00    -6000.00
00756               8.00    -6000.00
00757              10.00    -5800.00
00758               6.00    -5400.00
00759               8.00    -5200.00
00760              12.00    -5200.00
00761              12.00    -5000.00
00762               8.00    -4800.00
00763               4.00    -4800.00
00764               4.00    -4400.00
00765               4.00    -4400.00
00766               6.00    -4200.00
00767               4.00    -4000.00
00768               6.00    -4000.00
00769               4.00    -3600.00
00770               4.00    -3600.00
00771               0.00    -3200.00
00772              -2.00    -3200.00
00773               2.00    -2800.00
00774               6.00    -2600.00
00775               4.00    -2400.00
00776              -2.00    -2400.00
00777              -4.00    -2000.00
00778              -4.00    -2000.00
00779               0.00    -1800.00
00780              -2.00    -1600.00
00781              -4.00    -1400.00
00782              -2.00    -1200.00
00783              -4.00    -1000.00
00784              -4.00     -800.00
00785              -4.00     -800.00
00786              -6.00     -400.00
00787              -4.00     -200.00
00788              -2.00        0.00
00789              -4.00        0.00
00790               8.00      400.00
00791              28.00      400.00
00792               6.00      800.00
00793             -28.00      800.00
00794             -20.00     1000.00
00795              14.00     1200.00
00796              22.00     1400.00
00797             108.00     1600.00
00798             252.00     2000.00
00799             -40.00     2200.00
00800            -248.00     2400.00
00801            -248.00     2600.00
00802             196.00     2400.00
00803             252.00     2800.00
00804             252.00     3000.00
00805            -248.00     3000.00
00806            -248.00     3400.00
00807             252.00     3200.00
00808             252.00     4000.00
00809            -248.00     4000.00
00810            -178.00     3800.00
00811             168.00     4600.00
00812             150.00     4400.00
00813             252.00     4400.00
00814            -248.00     5400.00
00815            -248.00     4800.00
00816             252.00     4800.00
00817              68.00     6000.00
00818             -52.00     5000.00
00819            -220.00     5600.00
00820            -192.00     6200.00
00821             252.00     5600.00
00822             124.00     6400.00
00823            -210.00     6800.00
00824            -248.00     6000.00
00825              64.00     7000.00
00826             252.00     7000.00
00827            -162.00     7000.00
00828            -138.00     7400.00
00829              12.00     7400.00
00830             -72.00     7600.00
00831             134.00     7400.00
00832             -44.00     7800.00
00833            -148.00     8000.00
00834              26.00     7800.00
00835               6.00     8600.00
00836             -26.00     8000.00
00837             -70.00     8400.00
00838               4.00     8800.00
00839             -16.00     8400.00
00840             -56.00     8800.00
00841              20.00     9000.00
00842             -92.00     9200.00
00843             -26.00     9400.00
00844              54.00     9400.00
00845             -84.00     9600.00
00846             -44.00     9400.00
00847               6.00     9800.00
00848             -40.00    10000.00
00849             -48.00     9600.00
00850             -18.00    10000.00
00851             -26.00    10000.00
00852             -42.00    10200.00
00853             -12.00    10400.00
00854             -44.00    10400.00
00855             -48.00    10400.00
00856               6.00    10400.00
00857             -42.00    10600.00
00858             -52.00    10600.00
00859             -10.00    11000.00
00860             -32.00    11000.00
00861             -38.00    11000.00
00862             -16.00    11200.00
00863             -46.00    11000.00
00864             -50.00    11200.00
00865               0.00    11200.00
00866             -22.00    11200.00
00867             -60.00    11400.00
00868             -32.00    11400.00
00869             -26.00    11600.00
00870             -38.00    11400.00
00871             -18.00    11600.00
00872             -30.00    11600.00
00873             -46.00    11600.00
00874             -26.00    11800.00
00875             -26.00    11600.00
00876             -44.00    11800.00
00877             -28.00    11800.00
00878             -26.00    11800.00
00879             -34.00    11800.00
00880             -24.00    11800.00
00881             -34.00    11800.00
00882             -48.00    11800.00
00883             -24.00    11800.00
00884             -20.00    11800.00
00885             -40.00    11600.00
00886             -32.00    11800.00
00887             -30.00    11800.00
00888             -42.00    11800.00
00889             -28.00    11800.00
00890             -26.00    11800.00
00891             -40.00    11600.00
00892             -30.00    11600.00
00893             -24.00    11600.00
00894             -36.00    11600.00
00895             -34.00    11600.00
00896             -32.00    11600.00
00897             -34.00    11600.00
00898             -26.00    11600.00
00899             -24.00    11600.00
00900             -36.00    11200.00
00901             -36.00    11200.00
00902             -28.00    11200.00
00903             -32.00    11200.00
00904             -26.00    11200.00
00905             -26.00    11000.00
00906             -36.00    10800.00
00907             -34.00    11000.00
00908             -26.00    10800.00
00909             -32.00    10600.00
00910             -32.00    10600.00
00911             -24.00    10400.00
00912             -28.00    10400.00
00913             -28.00    10400.00
00914             -28.00    10400.00
00915             -32.00    10200.00
00916             -32.00    10000.00
00917             -24.00    10000.00
00918             -26.00    10000.00
00919             -20.00     9600.00
00920             -26.00     9600.00
00921             -28.00     9600.00
00922             -26.00     9400.00
00923             -20.00     9200.00
00924             -24.00     9200.00
00925             -26.00     9200.00
00926             -20.00     8800.00
00927             -24.00     8800.00
00928             -26.00     8800.00
00929             -26.00     8600.00
00930             -20.00     8600.00
00931             -20.00     8400.00
00932             -18.00     8400.00
00933             -20.00     8000.00
00934             -22.00     8000.00
00935             -20.00     7800.00
00936             -16.00     7600.00
00937             -18.00     7600.00
00938             -18.00     7200.00
00939             -18.00     7200.00
00940             -18.00     7000.00
00941             -12.00     7000.00
00942             -20.00     6800.00
00943             -20.00     6400.00
00944             -16.00     6400.00
00945             -12.00     6200.00
00946             -12.00     6000.00
00947             -18.00     6000.00
00948             -18.00     5800.00
00949             -16.00     5600.00
00950             -10.00     5400.00
00951             -10.00     5200.00
00952             -10.00     5200.00
00953             -12.00     4800.00
00954             -12.00     4800.00
00955             -10.00     4800.00
00956             -10.00     4400.00
00957              -8.00     4000.00
00958             -10.00     4000.00
00959              -8.00     3800.00
00960              -8.00     3600.00
00961              -8.00     3200.00
00962             -10.00     3200.00
00963              -8.00     3200.00
00964              -4.00     3000.00
00965              -4.00     2800.00
00966              -4.00     2400.00
00967              -8.00     2200.00
00968              -4.00     2000.00
00969              -4.00     2000.00
00970              -4.00     1800.00
00971              -2.00     1600.00
00972               0.00     1400.00
00973              -2.00     1200.00
00974              -4.00     1000.00
00975              -4.00      800.00
00976              -2.00      600.00
00977              -2.00      400.00
00978               2.00        0.00
00979               6.00        0.00
00980               6.00     -200.00
00981               6.00     -400.00
00982              28.00     -600.00
00983              28.00     -800.00
00984             -10.00     -800.00
00985             -16.00    -1000.00
00986              18.00    -1200.00
00987              32.00    -1400.00
00988              36.00    -1600.00
00989             150.00    -1800.00
00990             252.00    -2200.00
00991             -88.00    -2600.00
00992            -248.00    -2600.00
00993            -248.00    -3000.00
00994             252.00    -2800.00
00995             252.00    -2600.00
00996             252.00    -3200.00
00997            -240.00    -3600.00
00998            -248.00    -3000.00
00999             252.00    -3800.00
01000             252.00    -4200.00
01001            -248.00    -3400.00
01002            -248.00    -4600.00
01003              94.00    -4400.00
01004             252.00    -4200.00
01005             252.00    -5200.00
01006            -248.00    -4800.00
01007            -248.00    -5000.00
01008             236.00    -5800.00
01009             252.00    -5200.00
01010               4.00    -5800.00
01011            -248.00    -6000.00
01012             -96.00    -5800.00
01013             252.00    -6200.00
01014             198.00    -6400.00
01015            -154.00    -6600.00
01016            -228.00    -6600.00
01017             100.00    -6800.00
01018             252.00    -7200.00
01019              -8.00    -7000.00
01020            -176.00    -7400.00
01021             -42.00    -7600.00
01022             144.00    -7400.00
01023             152.00    -8000.00
01024             -60.00    -7800.00
01025             -92.00    -8200.00
01026              54.00    -8200.00
01027             112.00    -8200.00
01028              36.00    -8600.00
01029             -64.00    -8600.00
01030               4.00    -8800.00
01031             100.00    -9000.00
01032              58.00    -9000.00
01033             -24.00    -9200.00
01034             -34.00    -9200.00
01035              54.00    -9600.00
01036              88.00    -9600.00
01037              24.00    -9600.00
01038             -22.00    -9600.00
01039               6.00    -9800.00
01040              60.00   -10000.00
01041              44.00   -10000.00
01042               4.00   -10200.00
01043              14.00   -10400.00
01044              38.00   -10400.00
01045              42.00   -10600.00
01046              24.00   -10600.00
01047               8.00   -10800.00
01048              20.00   -10800.00
01049              44.00   -10600.00
01050              38.00   -10800.00
01051              20.00   -10800.00
01052              22.00   -11000.00
01053              28.00   -11000.00
01054              30.00   -11200.00
01055              32.00   -11200.00
01056              28.00   -11400.00
01057              28.00   -11400.00
01058              38.00   -11400.00
01059              30.00   -11600.00
01060              16.00   -11600.00
01061              30.00   -11400.00
01062              36.00   -11400.00
01063              28.00   -11600.00
01064              34.00   -11600.00
01065              36.00   -11600.00
01066              22.00   -11600.00
01067              24.00   -11600.00
01068              28.00   -11800.00
01069              30.00   -11600.00
01070              38.00   -11600.00
01071              38.00   -11800.00
01072              22.00   -12000.00
01073              20.00   -11800.00
01074              28.00   -11800.00
01075              32.00   -11800.00
01076              38.00   -11800.00
01077              36.00   -11800.00
01078              26.00   -11800.00
01079              26.00   -11800.00
01080              28.00   -11800.00
01081              28.00   -11600.00
01082              30.00   -11800.00
01083              36.00   -11600.00
01084              30.00   -11600.00
01085              26.00   -11600.00
01086              28.00   -11600.00
01087              22.00   -11600.00
01088              28.00   -11600.00
01089              30.00   -11400.00
01090              30.00   -11400.00
01091              30.00   -11400.00
01092              28.00   -11400.00
01093              20.00   -11400.00
01094              24.00   -11200.00
01095              28.00   -11200.00
01096              30.00   -11200.00
01097              24.00   -11000.00
01098              28.00   -11000.00
01099              22.00   -10800.00
01100              22.00   -10800.00
01101              22.00   -10800.00
01102              28.00   -10800.00
01103              24.00   -10600.00
01104              28.00   -10400.00
01105              22.00   -10400.00
01106              20.00   -10400.00
01107              20.00   -10200.00
01108              22.00   -10200.00
01109              22.00   -10000.00
01110              24.00   -10000.00
01111              24.00    -9800.00
01112              20.00    -9600.00
01113              14.00    -9600.00
01114              20.00    -9600.00
01115              20.00    -9200.00
01116              22.00    -9200.00
01117              22.00    -9200.00
01118              20.00    -9000.00
01119              16.00    -8800.00
01120              14.00    -8800.00
01121              16.00    -8800.00
01122              20.00    -8400.00
01123              22.00    -8400.00
01124              16.00    -8200.00
01125              16.00    -8200.00
01126              14.00    -8000.00
01127              12.00    -7800.00
01128              16.00    -7600.00
01129              18.00    -7400.00
01130              14.00    -7400.00
01131              14.00    -7200.00
01132              14.00    -7000.00
01133              12.00    -6800.00
01134              10.00    -6600.00
01135              14.00    -6600.00
01136              14.00    -6400.00
01137              14.00    -6400.00
01138              12.00    -6000.00
01139               8.00    -5800.00
01140               6.00    -5800.00
01141               8.00    -5400.00
01142              12.00    -5200.00
01143              12.00    -5200.00
01144              10.00    -5000.00
01145               8.00    -4800.00
01146               6.00    -4800.00
01147               6.00    -4400.00
01148               4.00    -4400.00
01149               8.00    -4000.00
01150              10.00    -4000.00
01151               6.00    -3800.00
01152               4.00    -3600.00
01153               4.00    -3400.00
01154               0.00    -3200.00
01155               0.00    -3200.00
01156               4.00    -2800.00
01157               4.00    -2600.00
01158               0.00    -2600.00
01159              -2.00    -2400.00
01160              -4.00    -2200.00
01161              -2.00    -2000.00
01162               0.00    -1800.00
01163               0.00    -1600.00
01164              -2.00    -1200.00
01165              -4.00    -1200.00
01166              -4.00    -1000.00
01167              -8.00     -800.00
01168              -4.00     -800.00
01169              -4.00     -200.00
01170              -2.00     -200.00
01171              -2.00        0.00
01172              -4.00        0.00
01173              10.00      400.00
01174              26.00      600.00
01175              -4.00      800.00
01176             -32.00     1000.00
01177             -10.00     1200.00
01178              16.00     1200.00
01179              22.00     1400.00
01180             164.00     1800.00
01181             252.00     2200.00
01182            -224.00     2200.00
01183            -248.00     2600.00
01184            -224.00     2400.00
01185             252.00     2400.00
01186             252.00     2800.00
01187             252.00     3000.00
01188            -248.00     3000.00
01189            -248.00     3600.00
01190             252.00     3600.00
01191             252.00     4000.00
01192            -248.00     4000.00
01193              16.00     3800.00
01194             112.00     4600.00
01195             252.00     4200.00
01196             240.00     4600.00
01197            -248.00     5400.00
01198             -70.00     4600.00
01199             252.00     5200.00
01200             -20.00     6000.00
01201             -58.00     5000.00
01202            -248.00     6000.00
01203             -64.00     6400.00
01204             252.00     5600.00
01205              18.00     6600.00
01206            -236.00     6400.00
01207            -220.00     6200.00
01208             172.00     7000.00
01209             220.00     6800.00
01210            -234.00     7200.00
01211             -64.00     7400.00
01212             -18.00     7600.00
01213             -28.00     7600.00
01214             140.00     7600.00
01215            -116.00     8000.00
01216            -104.00     7800.00
01217              40.00     8000.00
01218              -4.00     8400.00
01219             -34.00     8000.00
01220             -64.00     8600.00
01221              16.00     8800.00
01222             -40.00     8400.00
01223             -30.00     9200.00
01224               4.00     8800.00
01225            -106.00     9200.00
01226              12.00     9200.00
01227              24.00     9400.00
01228             -92.00     9400.00
01229             -18.00     9400.00
01230               0.00    10000.00
01231             -48.00     9800.00
01232             -42.00    10000.00
01233             -14.00    10200.00
01234             -30.00    10000.00
01235             -36.00    10200.00
01236             -16.00    10400.00
01237             -56.00    10400.00
01238             -32.00    10400.00
01239               4.00    10400.00
01240             -56.00    10800.00
01241             -42.00    10800.00
01242              -8.00    10800.00
01243             -44.00    11000.00
01244             -36.00    11000.00
01245             -12.00    11000.00
01246             -58.00    11200.00
01247             -48.00    11200.00
01248               6.00    11200.00
01249             -34.00    11200.00
01250             -52.00    11400.00
01251             -20.00    11600.00
01252             -40.00    11600.00
01253             -44.00    11600.00
01254             -12.00    11600.00
01255             -28.00    11600.00
01256             -52.00    11600.00
01257             -24.00    11600.00
01258             -26.00    11600.00
01259             -48.00    11600.00
01260             -28.00    11800.00
01261             -24.00    11800.00
01262             -28.00    11800.00
01263             -32.00    11800.00
01264             -44.00    12000.00
01265             -40.00    11800.00
01266             -18.00    11800.00
01267             -26.00    11800.00
01268             -40.00    11800.00
01269             -32.00    11800.00
01270             -36.00    11800.00
01271             -36.00    11800.00
01272             -20.00    11600.00
01273             -26.00    11800.00
01274             -44.00    11800.00
01275             -30.00    11600.00
01276             -18.00    11600.00
01277             -32.00    11600.00
01278             -36.00    11600.00
01279             -36.00    11600.00
01280             -28.00    11600.00
01281             -20.00    11400.00
01282             -26.00    11400.00
01283             -40.00    11200.00
01284             -36.00    11200.00
01285             -28.00    11200.00
01286             -32.00    11200.00
01287             -28.00    11000.00
01288             -26.00    11000.00
01289             -34.00    11000.00
01290             -32.00    11000.00
01291             -26.00    10800.00
01292             -32.00    10800.00
01293             -32.00    10600.00
01294             -24.00    10600.00
01295             -26.00    10400.00
01296             -26.00    10400.00
01297             -28.00    10200.00
01298             -34.00    10200.00
01299             -28.00    10000.00
01300             -24.00    10000.00
01301             -24.00    10000.00
01302             -26.00     9800.00
01303             -28.00     9600.00
01304             -28.00     9400.00
01305             -26.00     9400.00
01306             -26.00     9400.00
01307             -26.00     9000.00
01308             -20.00     9200.00
01309             -20.00     8800.00
01310             -26.00     8800.00
01311             -26.00     8800.00
01312             -26.00     8600.00
01313             -24.00     8400.00
01314             -20.00     8200.00
01315             -18.00     8200.00
01316             -20.00     8000.00
01317             -26.00     8000.00
01318             -20.00     7800.00
01319             -18.00     7600.00
01320             -18.00     7600.00
01321             -20.00     7200.00
01322             -20.00     7400.00
01323             -16.00     7000.00
01324             -18.00     6800.00
01325             -20.00     6800.00
01326             -18.00     6600.00
01327             -16.00     6400.00
01328             -12.00     6200.00
01329             -18.00     6000.00
01330             -18.00     6000.00
01331             -12.00     5600.00
01332             -16.00     5600.00
01333             -10.00     5400.00
01334             -12.00     5200.00
01335             -12.00     5000.00
01336             -10.00     4800.00
01337             -10.00     4800.00
01338             -12.00     4600.00
01339             -12.00     4200.00
01340             -10.00     4000.00
01341              -8.00     3800.00
01342              -4.00     3800.00
01343              -8.00     3600.00
01344             -10.00     3400.00
01345              -8.00     3200.00
01346              -4.00     3000.00
01347              -2.00     2800.00
01348              -4.00     2600.00
01349             -12.00     2400.00
01350             -14.00     2200.00
01351              -8.00     2000.00
01352               4.00     1800.00
01353               8.00     1600.00
01354               8.00     1400.00
01355              -4.00     1400.00
01356             -12.00     1200.00
01357             -16.00      800.00
01358              -4.00      600.00
01359               6.00      600.00
01360               6.00      400.00
01361               4.00        0.00
01362               0.00        0.00
01363               4.00     -200.00
01364              12.00     -400.00
01365              36.00     -600.00
01366              16.00     -800.00
01367             -20.00     -800.00
01368             -12.00    -1200.00
01369              22.00    -1200.00
01370              32.00    -1600.00
01371              42.00    -1600.00
01372             200.00    -1800.00
01373             252.00    -2400.00
01374            -244.00    -2600.00
01375            -248.00    -2800.00
01376            -108.00    -2800.00
01377             252.00    -2800.00
01378             252.00    -2600.00
01379             252.00    -3400.00
01380            -248.00    -3600.00
01381            -248.00    -3000.00
01382             252.00    -4200.00
01383             252.00    -3800.00
01384            -248.00    -3600.00
01385            -248.00    -4800.00
01386             156.00    -4400.00
01387             252.00    -4400.00
01388             190.00    -5400.00
01389            -248.00    -4800.00
01390            -208.00    -5200.00
01391             252.00    -5600.00
01392             252.00    -5200.00
01393             -84.00    -5800.00
01394            -248.00    -5800.00
01395              16.00    -6000.00
01396             252.00    -6400.00
01397             116.00    -6400.00
01398            -212.00    -6600.00
01399            -180.00    -6600.00
01400             188.00    -6800.00
01401             252.00    -7200.00
01402             -84.00    -7200.00
01403            -162.00    -7400.00
01404               0.00    -7400.00
01405             174.00    -7600.00
01406             112.00    -8000.00
01407            -100.00    -8000.00
01408             -60.00    -8200.00
01409              78.00    -8200.00
01410             108.00    -8200.00
01411               6.00    -8600.00
01412             -64.00    -8400.00
01413              36.00    -8800.00
01414             102.00    -8800.00
01415              36.00    -9200.00
01416             -38.00    -9200.00
01417             -20.00    -9200.00
01418              70.00    -9600.00
01419              78.00    -9600.00
01420               6.00    -9600.00
01421             -20.00    -9800.00
01422              20.00   -10000.00
01423              64.00   -10000.00
01424              34.00   -10000.00
01425               0.00   -10200.00
01426              22.00   -10200.00
01427              40.00   -10400.00
01428              38.00   -10400.00
01429              18.00   -10600.00
01430              12.00   -10600.00
01431              28.00   -10800.00
01432              48.00   -10800.00
01433              36.00   -10800.00
01434              16.00   -11000.00
01435              22.00   -11000.00
01436              28.00   -11200.00
01437              30.00   -11200.00
01438              28.00   -11200.00
01439              24.00   -11400.00
01440              36.00   -11400.00
01441              38.00   -11400.00
01442              22.00   -11600.00
01443              16.00   -11400.00
01444              30.00   -11600.00
01445              38.00   -11600.00
01446              36.00   -11400.00
01447              32.00   -11600.00
01448              26.00   -11600.00
01449              22.00   -11600.00
01450              28.00   -11600.00
01451              32.00   -12000.00
01452              32.00   -11800.00
01453              36.00   -12000.00
01454              32.00   -11800.00
01455              26.00   -11800.00
01456              28.00   -11800.00
01457              28.00   -11800.00
01458              30.00   -11800.00
01459              36.00   -12000.00
01460              32.00   -11800.00
01461              28.00   -11800.00
01462              24.00   -11800.00
01463              28.00   -11800.00
01464              28.00   -11600.00
01465              32.00   -11600.00
01466              32.00   -11600.00
01467              30.00   -11600.00
01468              28.00   -11600.00
01469              24.00   -11600.00
01470              28.00   -11600.00
01471              28.00   -11400.00
01472              30.00   -11400.00
01473              32.00   -11600.00
01474              32.00   -11400.00
01475              28.00   -11200.00
01476              22.00   -11200.00
01477              28.00   -11400.00
01478              30.00   -11200.00
01479              32.00   -11200.00
01480              28.00   -11000.00
01481              24.00   -11200.00
01482              22.00   -10800.00
01483              22.00   -10800.00
01484              24.00   -10800.00
01485              22.00   -10800.00
01486              28.00   -10600.00
01487              28.00   -10400.00
01488              22.00   -10400.00
01489              20.00   -10400.00
01490              20.00   -10200.00
01491              22.00   -10000.00
01492              28.00   -10000.00
01493              24.00   -10000.00
01494              22.00    -9800.00
01495              16.00    -9800.00
01496              16.00    -9600.00
01497              20.00    -9600.00
01498              20.00    -9200.00
01499              20.00    -9200.00
01500              22.00    -9200.00
01501              18.00    -9000.00
01502              14.00    -8800.00
01503              14.00    -8800.00
01504              16.00    -8400.00
01505              20.00    -8400.00
01506              20.00    -8200.00
01507              16.00    -8000.00
01508              14.00    -8000.00
01509              12.00    -8000.00
01510              12.00    -7600.00
01511              16.00    -7600.00
01512              16.00    -7400.00
01513              16.00    -7400.00
01514              14.00    -7200.00
01515              12.00    -7000.00
01516               8.00    -6600.00
01517               8.00    -6800.00
01518              14.00    -6600.00
01519              12.00    -6400.00
01520              12.00    -6200.00
01521               8.00    -6000.00
01522               6.00    -5800.00
01523               6.00    -5600.00
01524               8.00    -5400.00
01525               8.00    -5200.00
01526              12.00    -5000.00
01527               8.00    -5000.00
01528               6.00    -4800.00
01529               6.00    -4600.00
01530               4.00    -4400.00
01531               6.00    -4200.00
01532               6.00    -4200.00
01533               6.00    -4000.00
01534               6.00    -3800.00
01535               4.00    -3600.00
01536               0.00    -3400.00
01537               4.00    -3200.00
01538               4.00    -3000.00
01539               6.00    -2800.00
01540               4.00    -2800.00
01541               0.00    -2400.00
01542              -2.00    -2400.00
01543              -4.00    -2000.00
01544              -2.00    -2000.00
01545               0.00    -1800.00
01546               0.00    -1400.00
01547              -2.00    -1400.00
01548              -4.00    -1200.00
01549              -8.00    -1000.00
01550              -4.00     -800.00
01551              -4.00     -600.00
01552              -4.00     -400.00
01553              -4.00     -200.00
01554              -2.00        0.00
01555              -2.00      200.00
01556              18.00      400.00
01557              22.00      600.00
01558             -12.00      800.00
01559             -32.00     1000.00
01560              -2.00     1200.00
01561              20.00     1200.00
01562              30.00     1400.00
01563             228.00     1800.00
01564             252.00     2200.00
01565            -248.00     2200.00
01566            -248.00     2400.00
01567             -68.00     2400.00
01568             252.00     2600.00
01569             252.00     3000.00
01570             198.00     3000.00
01571            -248.00     3200.00
01572            -114.00     3600.00
01573             252.00     3200.00
01574            -120.00     4000.00
01575            -248.00     3800.00
01576             140.00     4000.00
01577              64.00     4800.00
01578             252.00     4000.00
01579              30.00     4800.00
01580            -248.00     5400.00
01581             154.00     4600.00
01582             252.00     5600.00
01583             -56.00     5600.00
01584             -72.00     5200.00
01585            -248.00     6200.00
01586              70.00     6000.00
01587             252.00     5600.00
01588             -78.00     7000.00
01589            -248.00     6200.00
01590            -162.00     6200.00
01591             252.00     7200.00
01592             132.00     6600.00
01593            -248.00     7400.00
01594             -48.00     7200.00
01595             -42.00     7600.00
01596              22.00     7600.00
01597              74.00     7600.00
01598            -170.00     8400.00
01599              -8.00     7800.00
01600              62.00     8200.00
01601             -34.00     8400.00
01602             -64.00     8000.00
01603             -36.00     8800.00
01604              60.00     8400.00
01605             -70.00     8800.00
01606             -32.00     9200.00
01607             -38.00     8800.00
01608             -96.00     9200.00
01609              72.00     9200.00
01610              -2.00     9600.00
01611            -106.00     9600.00
01612             -20.00     9600.00
01613              -6.00    10000.00
01614             -24.00     9600.00
01615             -20.00    10000.00
01616             -36.00    10000.00
01617             -50.00    10000.00
01618             -12.00    10200.00
01619              -4.00    10400.00
01620             -84.00    10400.00
01621             -34.00    10400.00
01622               4.00    10600.00
01623             -48.00    10600.00
01624             -30.00    10800.00
01625             -26.00    11000.00
01626             -44.00    11000.00
01627             -18.00    11000.00
01628             -18.00    11200.00
01629             -66.00    11200.00
01630             -34.00    11200.00
01631              -2.00    11200.00
01632             -44.00    11400.00
01633             -44.00    11600.00
01634             -26.00    11600.00
01635             -48.00    11600.00
01636             -32.00    11400.00
01637              -4.00    11600.00
01638             -40.00    11600.00
01639             -44.00    11600.00
01640             -26.00    11800.00
01641             -34.00    11800.00
01642             -36.00    11800.00
01643             -28.00    11800.00
01644             -42.00    11600.00
01645             -36.00    11800.00
01646             -16.00    11800.00
01647             -36.00    11800.00
01648             -42.00    11800.00
01649             -26.00    11800.00
01650             -32.00    11800.00
01651             -34.00    11800.00
01652             -26.00    11800.00
01653             -42.00    12000.00
01654             -46.00    11800.00
01655             -20.00    11800.00
01656             -26.00    11800.00
01657             -36.00    11800.00
01658             -28.00    11600.00
01659             -28.00    11800.00
01660             -34.00    11600.00
01661             -26.00    11600.00
01662             -36.00    11600.00
01663             -34.00    11400.00
01664             -20.00    11600.00
01665             -24.00    11400.00
01666             -40.00    11200.00
01667             -34.00    11200.00
01668             -32.00    11200.00
01669             -28.00    11200.00
01670             -20.00    11000.00
01671             -28.00    11000.00
01672             -36.00    11000.00
01673             -26.00    10800.00
01674             -24.00    10800.00
01675             -32.00    10800.00
01676             -32.00    10400.00
01677             -28.00    10600.00
01678             -28.00    10400.00
01679             -26.00    10400.00
01680             -28.00    10200.00
01681             -32.00    10200.00
01682             -28.00    10000.00
01683             -22.00    10000.00
01684             -26.00    10000.00
01685             -26.00     9600.00
01686             -28.00     9600.00
01687             -28.00     9600.00
01688             -26.00     9400.00
01689             -24.00     9200.00
01690             -26.00     9200.00
01691             -24.00     9200.00
01692             -20.00     8800.00
01693             -26.00     8800.00
01694             -26.00     8800.00
01695             -20.00     8600.00
01696             -26.00     8400.00
01697             -20.00     8400.00
01698             -20.00     8000.00
01699             -24.00     8000.00
01700             -26.00     7800.00
01701             -20.00     7800.00
01702             -20.00     7600.00
01703             -16.00     7600.00
01704             -18.00     7200.00
01705             -18.00     7200.00
01706             -16.00     7000.00
01707             -20.00     6800.00
01708             -24.00     6600.00
01709             -18.00     6400.00
01710             -14.00     6400.00
01711             -16.00     6200.00
01712             -16.00     6000.00
01713             -18.00     6000.00
01714             -18.00     5600.00
01715             -12.00     5600.00
01716             -10.00     5400.00
01717             -12.00     5200.00
01718             -12.00     5000.00
01719             -12.00     4800.00
01720             -10.00     4600.00
01721             -12.00     4600.00
01722             -12.00     4200.00
01723              -8.00     4000.00
01724              -4.00     3800.00
01725             -10.00     3800.00
01726             -10.00     3600.00
01727             -10.00     3200.00
01728              -6.00     3200.00
01729              -4.00     2800.00
01730              -4.00     2800.00
01731              -4.00     2600.00
01732              -4.00     2400.00
01733              -6.00     2200.00
01734              -4.00     2200.00
01735              -4.00     2000.00
01736              -4.00     1600.00
01737               0.00     1400.00
01738               2.00     1200.00
01739              -2.00     1000.00
01740              -2.00     1000.00
01741               0.00      800.00
01742               0.00      400.00
01743               2.00      200.00
01744               0.00      200.00
01745               6.00     -200.00
01746               4.00     -400.00
01747              16.00     -400.00
01748              32.00     -600.00
01749               6.00     -800.00
01750             -20.00    -1000.00
01751              -4.00    -1000.00
01752              30.00    -1400.00
01753              28.00    -1200.00
01754              60.00    -1600.00
01755             252.00    -1600.00
01756             214.00    -2400.00
01757            -248.00    -2600.00
01758            -248.00    -2600.00
01759              44.00    -2800.00
01760             252.00    -2800.00
01761             252.00    -2600.00
01762             252.00    -3600.00
01763            -248.00    -3400.00
01764            -248.00    -3200.00
01765             252.00    -4400.00
01766             252.00    -3400.00
01767            -248.00    -4000.00
01768            -160.00    -4800.00
01769             196.00    -4000.00
01770             252.00    -4800.00
01771              60.00    -5200.00
01772            -248.00    -4600.00
01773             -62.00    -5400.00
01774             252.00    -5600.00
01775             198.00    -5200.00
01776            -170.00    -5800.00
01777            -248.00    -5800.00
01778             128.00    -6000.00
01779             252.00    -6400.00
01780              28.00    -6400.00
01781            -244.00    -6800.00
01782            -112.00    -6600.00
01783             252.00    -7000.00
01784             190.00    -7200.00
01785            -138.00    -7000.00
01786            -136.00    -7600.00
01787              48.00    -7400.00
01788             188.00    -7600.00
01789              62.00    -8000.00
01790            -116.00    -8000.00
01791             -24.00    -8200.00
01792             100.00    -8200.00
01793              94.00    -8400.00
01794             -20.00    -8400.00
01795             -52.00    -8600.00
01796              60.00    -8800.00
01797              94.00    -8800.00
01798              18.00    -9200.00
01799             -42.00    -9200.00
01800               6.00    -9200.00
01801              86.00    -9600.00
01802              64.00    -9600.00
01803              -4.00    -9800.00
01804             -16.00    -9600.00
01805              38.00   -10000.00
01806              68.00   -10000.00
01807              22.00   -10000.00
01808               4.00   -10200.00
01809              28.00   -10400.00
01810              44.00   -10400.00
01811              36.00   -10400.00
01812              16.00   -10600.00
01813              12.00   -10600.00
01814              34.00   -10600.00
01815              46.00   -10800.00
01816              28.00   -10800.00
01817              16.00   -11200.00
01818              24.00   -11000.00
01819              30.00   -11200.00
01820              28.00   -11400.00
01821              28.00   -11200.00
01822              28.00   -11200.00
01823              36.00   -11400.00
01824              36.00   -11400.00
01825              16.00   -11400.00
01826              20.00   -11600.00
01827              36.00   -11600.00
01828              36.00   -11600.00
01829              32.00   -11600.00
01830              28.00   -11600.00
01831              22.00   -11800.00
01832              22.00   -11600.00
01833              30.00   -11800.00
01834              32.00   -11800.00
01835              32.00   -11800.00
01836              32.00   -11800.00
01837              30.00   -12000.00
01838              28.00   -11800.00
01839              24.00   -11600.00
01840              28.00   -11800.00
01841              34.00   -11800.00
01842              32.00   -11800.00
01843              30.00   -11800.00
01844              28.00   -11800.00
01845              26.00   -11800.00
01846              28.00   -11800.00
01847              30.00   -11600.00
01848              30.00   -11600.00
01849              32.00   -11600.00
01850              30.00   -11600.00
01851              26.00   -11600.00
01852              22.00   -11600.00
01853              24.00   -11600.00
01854              30.00   -11600.00
01855              34.00   -11400.00
01856              32.00   -11400.00
01857              28.00   -11400.00
01858              24.00   -11200.00
01859              24.00   -11200.00
01860              28.00   -11200.00
01861              28.00   -11000.00
01862              30.00   -11200.00
01863              28.00   -11000.00
01864              22.00   -10800.00
01865              22.00   -10800.00
01866              22.00   -10800.00
01867              24.00   -10600.00
01868              28.00   -10600.00
01869              28.00   -10400.00
01870              26.00   -10400.00
01871              20.00   -10400.00
01872              22.00   -10400.00
01873              20.00   -10200.00
01874              22.00   -10200.00
01875              24.00   -10000.00
01876              26.00    -9800.00
01877              20.00    -9800.00
01878              16.00    -9600.00
01879              18.00    -9600.00
01880              20.00    -9400.00
01881              20.00    -9400.00
01882              22.00    -9200.00
01883              20.00    -9000.00
01884              16.00    -9000.00
01885              14.00    -8800.00
01886              14.00    -8800.00
01887              16.00    -8600.00
01888              20.00    -8400.00
01889              20.00    -8200.00
01890              16.00    -8200.00
01891              12.00    -8000.00
01892              10.00    -7800.00
01893              12.00    -7600.00
01894              16.00    -7600.00
01895              16.00    -7400.00
01896              14.00    -7400.00
01897              12.00    -7200.00
01898              12.00    -6800.00
01899               8.00    -6800.00
01900              10.00    -6600.00
01901              12.00    -6400.00
01902              14.00    -6400.00
01903              12.00    -6000.00
01904              12.00    -5800.00
01905               6.00    -5800.00
01906               6.00    -5400.00
01907               8.00    -5400.00
01908               8.00    -5200.00
01909              12.00    -5200.00
01910               8.00    -5000.00
01911               4.00    -4800.00
01912               4.00    -4800.00
01913               0.00    -4400.00
01914               6.00    -4200.00
01915               8.00    -4000.00
01916               6.00    -4000.00
01917               4.00    -3800.00
01918               2.00    -3400.00
01919              -2.00    -3400.00
01920               4.00    -3200.00
01921               4.00    -3000.00
01922               4.00    -2800.00
01923               2.00    -2600.00
01924               0.00    -2400.00
01925              -4.00    -2400.00
01926              -2.00    -2000.00
01927               0.00    -1800.00
01928              -2.00    -1600.00
01929               0.00    -1400.00
01930              -2.00    -1200.00
01931              -2.00    -1200.00
01932              -4.00     -800.00
01933              -8.00     -800.00
01934              -4.00     -400.00
01935               0.00     -400.00
01936              -2.00        0.00
01937              -2.00        0.00
01938               0.00      200.00
01939              22.00      600.00
01940              14.00      600.00
01941             -24.00     1000.00
01942             -28.00     1000.00
01943               6.00     1200.00
01944              20.00     1400.00
01945              54.00     1400.00
01946             252.00     1800.00
01947             164.00     2000.00
01948            -248.00     2200.00
01949            -248.00     2400.00
01950              60.00     2400.00
01951             252.00     2800.00
01952             252.00     3000.00
01953            -212.00     2800.00
01954            -248.00     3200.00
01955             252.00     3400.00
01956             252.00     3600.00
01957            -248.00     4200.00
01958            -248.00     3600.00
01959             190.00     4200.00
01960              60.00     4600.00
01961             252.00     4000.00
01962            -214.00     5000.00
01963            -248.00     5200.00
01964             252.00     4600.00
01965             216.00     5800.00
01966             -68.00     5400.00
01967            -132.00     5200.00
01968            -248.00     6400.00
01969             208.00     6000.00
01970             252.00     6000.00
01971            -152.00     6800.00
01972            -248.00     6000.00
01973             -82.00     6400.00
01974             252.00     7000.00
01975             -16.00     6800.00
01976            -220.00     7200.00
01977              20.00     7400.00
01978             -78.00     7400.00
01979              86.00     7600.00
01980              54.00     7800.00
01981            -172.00     8000.00
01982             -12.00     7800.00
01983              22.00     8400.00
01984             -16.00     8200.00
01985             -58.00     8400.00
01986             -28.00     8800.00
01987              14.00     8600.00
01988             -64.00     8800.00
01989              12.00     9000.00
01990             -52.00     9000.00
01991             -74.00     9200.00
01992              60.00     9400.00
01993             -44.00     9400.00
01994             -74.00     9400.00
01995               6.00     9600.00
01996             -26.00    10000.00
01997             -48.00     9600.00
01998             -24.00    10000.00
01999             -16.00    10000.00
02000             -42.00    10000.00
02001             -20.00    10400.00
02002             -26.00    10200.00
02003             -58.00    10400.00
02004              -4.00    10400.00
02005             -24.00    10400.00
02006             -60.00    10800.00
02007             -18.00    10800.00
02008             -22.00    11000.00
02009             -44.00    10800.00
02010             -20.00    11000.00
02011             -36.00    11200.00
02012             -58.00    11200.00
02013             -12.00    11200.00
02014              -4.00    11200.00
02015             -58.00    11200.00
02016             -44.00    11600.00
02017             -26.00    11400.00
02018             -40.00    11400.00
02019             -24.00    11400.00
02020             -24.00    11600.00
02021             -46.00    11600.00
02022             -34.00    11600.00
02023             -24.00    11600.00
02024             -42.00    11800.00
02025             -36.00    11600.00
02026             -26.00    11800.00
02027             -36.00    11800.00
02028             -28.00    11800.00
02029             -30.00    11800.00
02030             -48.00    11800.00
02031             -36.00    11800.00
02032             -20.00    11800.00
02033             -36.00    11800.00
02034             -36.00    11800.00
02035             -28.00    12000.00
02036             -40.00    11800.00
02037             -36.00    11600.00
02038             -26.00    11600.00
02039             -34.00    11800.00
02040             -36.00    11600.00
02041             -24.00    11600.00
02042             -32.00    11600.00
02043             -36.00    11600.00
02044             -32.00    11600.00
02045             -34.00    11600.00
02046             -28.00    11400.00
02047             -22.00    11600.00
02048             -32.00    11400.00
02049             -40.00    11200.00
02050             -28.00    11200.00
02051             -32.00    11200.00
02052             -28.00    11000.00
02053             -26.00    11000.00
02054             -32.00    11000.00
02055             -34.00    11000.00
02056             -28.00    11000.00
02057             -28.00    10800.00
02058             -34.00    10600.00
02059             -24.00    10600.00
02060             -26.00    10400.00
02061             -26.00    10400.00
02062             -28.00    10200.00
02063             -28.00    10200.00
02064             -32.00    10200.00
02065             -24.00    10000.00
02066             -24.00    10000.00
02067             -26.00     9800.00
02068             -24.00     9800.00
02069             -26.00     9600.00
02070             -28.00     9400.00
02071             -24.00     9400.00
02072             -26.00     9200.00
02073             -24.00     9000.00
02074             -20.00     8800.00
02075             -24.00     8800.00
02076             -28.00     8800.00
02077             -26.00     8600.00
02078             -20.00     8400.00
02079             -26.00     8400.00
02080             -20.00     8200.00
02081             -20.00     8000.00
02082             -24.00     8000.00
02083             -26.00     7800.00
02084             -22.00     7600.00
02085             -20.00     7600.00
02086             -18.00     7400.00
02087             -20.00     7200.00
02088             -18.00     7000.00
02089             -18.00     7000.00
02090             -20.00     6800.00
02091             -26.00     6800.00
02092             -18.00     6400.00
02093             -12.00     6200.00
02094             -16.00     6200.00
02095             -18.00     6000.00
02096             -14.00     5800.00
02097             -18.00     5600.00
02098             -12.00     5400.00
02099             -10.00     5200.00
02100             -12.00     5200.00
02101             -16.00     5000.00
02102             -10.00     4800.00
02103             -12.00     4600.00
02104             -16.00     4400.00
02105             -10.00     4200.00
02106              -8.00     4000.00
02107              -8.00     3800.00
02108              -4.00     3600.00
02109             -10.00     3600.00
02110             -10.00     3200.00
02111              -8.00     3000.00
02112              -4.00     3000.00
02113              -4.00     2800.00
02114              -2.00     2600.00
02115              -8.00     2400.00
02116              -8.00     2200.00
02117              -4.00     2000.00
02118              -4.00     1800.00
02119              -2.00     1600.00
02120              -2.00     1400.00
02121               0.00     1200.00
02122              -2.00     1200.00
02123              -2.00      800.00
02124              -4.00      600.00
02125               0.00      400.00
02126               4.00      400.00
02127               4.00        0.00
02128               6.00     -200.00
02129               6.00     -200.00
02130              24.00     -400.00
02131              36.00     -800.00
02132              -2.00     -800.00
02133             -20.00    -1000.00
02134               6.00    -1200.00
02135              30.00    -1400.00
02136              28.00    -1600.00
02137              92.00    -1600.00
02138             252.00    -2000.00
02139             102.00    -2600.00
02140            -248.00    -2600.00
02141            -248.00    -2800.00
02142             172.00    -3000.00
02143             252.00    -2800.00
02144             252.00    -2800.00
02145              92.00    -3800.00
02146            -248.00    -3200.00
02147             -36.00    -3400.00
02148             252.00    -4400.00
02149             -30.00    -3600.00
02150            -248.00    -4200.00
02151             -32.00    -4800.00
02152             234.00    -4000.00
02153             252.00    -5000.00
02154             -98.00    -5000.00
02155            -248.00    -4800.00
02156              78.00    -5600.00
02157             252.00    -5400.00
02158             116.00    -5200.00
02159            -240.00    -6000.00
02160            -226.00    -6000.00
02161             228.00    -6000.00
02162             252.00    -6400.00
02163             -58.00    -6600.00
02164            -248.00    -6800.00
02165             -26.00    -6800.00
02166             252.00    -7000.00
02167             108.00    -7200.00
02168            -170.00    -7200.00
02169             -98.00    -7600.00
02170              92.00    -7400.00
02171             184.00    -7800.00
02172               6.00    -8000.00
02173            -116.00    -8000.00
02174              12.00    -8200.00
02175             108.00    -8200.00
02176              72.00    -8400.00
02177             -46.00    -8800.00
02178             -30.00    -8600.00
02179              84.00    -9000.00
02180              80.00    -9000.00
02181              -2.00    -9200.00
02182             -42.00    -9400.00
02183              28.00    -9200.00
02184              92.00    -9400.00
02185              46.00    -9600.00
02186             -16.00    -9800.00
02187              -8.00    -9800.00
02188              52.00   -10000.00
02189              58.00   -10000.00
02190              14.00   -10000.00
02191               8.00   -10200.00
02192              34.00   -10200.00
02193              44.00   -10400.00
02194              32.00   -10600.00
02195              14.00   -10600.00
02196              16.00   -10600.00
02197              40.00   -10800.00
02198              44.00   -10800.00
02199              24.00   -11000.00
02200              16.00   -11000.00
02201              28.00   -11200.00
02202              28.00   -11200.00
02203              30.00   -11200.00
02204              26.00   -11200.00
02205              30.00   -11200.00
02206              38.00   -11400.00
02207              32.00   -11400.00
02208              14.00   -11400.00
02209              20.00   -11600.00
02210              38.00   -11600.00
02211              36.00   -11600.00
02212              32.00   -11600.00
02213              28.00   -11600.00
02214              22.00   -11800.00
02215              22.00   -11600.00
02216              30.00   -11800.00
02217              30.00   -11600.00
02218              30.00   -11800.00
02219              32.00   -11600.00
02220              28.00   -11800.00
02221              22.00   -11800.00
02222              24.00   -11800.00
02223              28.00   -11800.00
02224              36.00   -11800.00
02225              36.00   -11600.00
02226              28.00   -11800.00
02227              26.00   -11800.00
02228              28.00   -11800.00
02229              28.00   -11600.00
02230              28.00   -11600.00
02231              36.00   -11600.00
02232              30.00   -11600.00
02233              28.00   -11600.00
02234              24.00   -11600.00
02235              22.00   -11600.00
02236              24.00   -11600.00
02237              30.00   -11400.00
02238              32.00   -11400.00
02239              30.00   -11400.00
02240              28.00   -11400.00
02241              22.00   -11200.00
02242              22.00   -11400.00
02243              28.00   -11200.00
02244              30.00   -11200.00
02245              28.00   -11200.00
02246              28.00   -10800.00
02247              24.00   -10800.00
02248              22.00   -10800.00
02249              28.00   -10800.00
02250              24.00   -10600.00
02251              22.00   -10600.00
02252              28.00   -10600.00
02253              24.00   -10600.00
02254              20.00   -10400.00
02255              20.00   -10200.00
02256              22.00   -10200.00
02257              24.00   -10000.00
02258              28.00   -10000.00
02259              24.00    -9800.00
02260              20.00    -9800.00
02261              18.00    -9600.00
02262              18.00    -9600.00
02263              20.00    -9400.00
02264              22.00    -9200.00
02265              22.00    -9200.00
02266              20.00    -9000.00
02267              16.00    -9000.00
02268              12.00    -8800.00
02269              14.00    -8800.00
02270              18.00    -8600.00
02271              20.00    -8400.00
02272              14.00    -8200.00
02273              16.00    -8200.00
02274              14.00    -8000.00
02275              12.00    -7800.00
02276              12.00    -7600.00
02277              14.00    -7600.00
02278              16.00    -7400.00
02279              14.00    -7400.00
02280              14.00    -7200.00
02281               6.00    -6800.00
02282               8.00    -6600.00
02283              10.00    -6600.00
02284              12.00    -6400.00
02285              12.00    -6400.00
02286              12.00    -6000.00
02287               8.00    -5800.00
02288               6.00    -5800.00
02289               6.00    -5400.00
02290               8.00    -5400.00
02291              10.00    -5200.00
02292               8.00    -5000.00
02293               6.00    -5000.00
02294               6.00    -4800.00
02295               4.00    -4600.00
02296               4.00    -4400.00
02297               6.00    -4200.00
02298               8.00    -4000.00
02299               8.00    -3800.00
02300               0.00    -3600.00
02301               0.00    -3600.00
02302               0.00    -3200.00
02303               0.00    -3200.00
02304               4.00    -2800.00
02305               4.00    -2800.00
02306               4.00    -2600.00
02307               0.00    -2400.00
02308              -4.00    -2200.00
02309              -4.00    -2000.00
02310               0.00    -1600.00
02311               2.00    -1600.00
02312               0.00    -1200.00
02313              -2.00    -1200.00
02314              -4.00    -1000.00
02315              -6.00     -800.00
02316              -4.00     -600.00
02317              -4.00     -400.00
02318              -2.00     -400.00
02319               0.00        0.00
02320              -2.00        0.00
02321               6.00      400.00
02322              28.00      600.00
02323               6.00      600.00
02324             -26.00     1000.00
02325             -24.00     1000.00
02326              12.00     1200.00
02327              20.00     1400.00
02328              92.00     1600.00
02329             252.00     2000.00
02330              14.00     2200.00
02331            -248.00     2400.00
02332            -248.00     2400.00
02333             168.00     2400.00
02334             252.00     3000.00
02335             252.00     3000.00
02336            -248.00     3000.00
02337            -248.00     3200.00
02338             252.00     3600.00
02339             252.00     4000.00
02340            -248.00     4000.00
02341            -248.00     3800.00
02342             176.00     4400.00
02343             118.00     4400.00
02344             252.00     4200.00
02345            -248.00     5400.00
02346            -248.00     4800.00
02347             252.00     4800.00
02348             100.00     5800.00
02349             -58.00     5200.00
02350            -200.00     5400.00
02351            -220.00     6400.00
02352             252.00     5600.00
02353             156.00     6200.00
02354            -196.00     6800.00
02355            -248.00     6000.00
02356              24.00     6800.00
02357             252.00     7000.00
02358            -134.00     7000.00
02359            -162.00     7200.00
02360              16.00     7400.00
02361             -76.00     7600.00
02362             126.00     7400.00
02363             -24.00     8000.00
02364            -158.00     8000.00
02365              20.00     7800.00
02366              12.00     8600.00
02367             -20.00     8200.00
02368             -68.00     8400.00
02369              -4.00     9000.00
02370              -8.00     8400.00
02371             -58.00     8800.00
02372              20.00     8800.00
02373             -84.00     9200.00
02374             -36.00     9200.00
02375              56.00     9200.00
02376             -76.00     9600.00
02377             -52.00     9400.00
02378               6.00     9800.00
02379             -40.00     9800.00
02380             -42.00     9800.00
02381             -16.00    10000.00
02382             -24.00    10200.00
02383             -42.00    10200.00
02384             -10.00    10400.00
02385             -40.00    10200.00
02386             -52.00    10400.00
02387               4.00    10400.00
02388             -36.00    10600.00
02389             -56.00    10600.00
02390             -10.00    11000.00
02391             -28.00    11000.00
02392             -42.00    11000.00
02393             -16.00    11000.00
02394             -44.00    11000.00
02395             -54.00    11200.00
02396              -2.00    11200.00
02397             -18.00    11400.00
02398             -60.00    11200.00
02399             -34.00    11600.00
02400             -26.00    11600.00
02401             -40.00    11600.00
02402             -20.00    11600.00
02403             -30.00    11600.00
02404             -50.00    11600.00
02405             -26.00    11600.00
02406             -26.00    11800.00
02407             -44.00    11600.00
02408             -28.00    11600.00
02409             -28.00    11800.00
02410             -36.00    11800.00
02411             -26.00    11800.00
02412             -36.00    11800.00
02413             -50.00    11800.00
02414             -28.00    11800.00
02415             -20.00    11800.00
02416             -38.00    11600.00
02417             -34.00    11800.00
02418             -32.00    11800.00
02419             -42.00    11600.00
02420             -32.00    11800.00
02421             -26.00    11800.00
02422             -40.00    11600.00
02423             -34.00    11800.00
02424             -26.00    11600.00
02425             -34.00    11600.00
02426             -36.00    11600.00
02427             -34.00    11600.00
02428             -34.00    11400.00
02429             -26.00    11600.00
02430             -24.00    11200.00
02431             -36.00    11400.00
02432             -36.00    11200.00
02433             -28.00    11200.00
02434             -32.00    11200.00
02435             -28.00    11000.00
02436             -24.00    11000.00
02437             -34.00    11000.00
02438             -32.00    11000.00
02439             -26.00    10800.00
02440             -32.00    10800.00
02441             -32.00    10600.00
02442             -24.00    10600.00
02443             -24.00    10400.00
02444             -28.00    10400.00
02445             -28.00    10400.00
02446             -32.00    10200.00
02447             -30.00    10000.00
02448             -26.00    10000.00
02449             -24.00    10000.00
02450             -26.00     9800.00
02451             -24.00     9800.00
02452             -28.00     9600.00
02453             -26.00     9400.00
02454             -24.00     9400.00
02455             -22.00     9200.00
02456             -24.00     9200.00
02457             -20.00     8800.00
02458             -22.00     8800.00
02459             -28.00     8800.00
02460             -24.00     8600.00
02461             -24.00     8400.00
02462             -24.00     8400.00
02463             -18.00     8200.00
02464             -20.00     8000.00
02465             -26.00     7800.00
02466             -22.00     7800.00
02467             -20.00     7600.00
02468             -20.00     7600.00
02469             -16.00     7200.00
02470             -20.00     7400.00
02471             -18.00     7000.00
02472             -18.00     6800.00
02473             -20.00     6800.00
02474             -20.00     6600.00
02475             -18.00     6400.00
02476             -12.00     6200.00
02477             -16.00     6000.00
02478             -18.00     6000.00
02479             -18.00     5600.00
02480             -16.00     5600.00
02481             -12.00     5400.00
02482             -10.00     5200.00
02483             -12.00     5200.00
02484             -14.00     4800.00
02485             -12.00     4800.00
02486             -12.00     4600.00
02487             -16.00     4400.00
02488             -10.00     4200.00
02489              -8.00     3800.00
02490              -8.00     3800.00
02491              -8.00     3600.00
02492             -12.00     3600.00
02493             -10.00     3200.00
02494              -8.00     3000.00
02495              -8.00     2800.00
02496              -4.00     2600.00
02497              -6.00     2400.00
02498              -4.00     2400.00
02499              -8.00     2200.00
02500              -2.00     2000.00
02501              -4.00     1800.00
02502              -2.00     1600.00
02503               0.00     1400.00
02504               0.00     1200.00
02505              -2.00     1200.00
02506              -4.00      800.00
02507              -2.00      800.00
02508               4.00      600.00
02509               4.00        0.00
02510               4.00        0.00
02511               6.00     -200.00
02512               8.00     -400.00
02513              28.00     -400.00
02514              28.00     -600.00
02515              -8.00     -800.00
02516             -18.00    -1000.00
02517              16.00    -1200.00
02518              34.00    -1400.00
02519              32.00    -1400.00
02520             132.00    -1600.00
02521             252.00    -2000.00
02522             -38.00    -2600.00
02523            -248.00    -2600.00
02524            -248.00    -2800.00
02525             252.00    -3000.00
02526             252.00    -2600.00
02527             252.00    -3000.00
02528            -164.00    -3600.00
02529            -248.00    -3200.00
02530             252.00    -3800.00
02531             252.00    -4400.00
02532            -248.00    -3400.00
02533            -248.00    -4400.00
02534              68.00    -4600.00
02535             252.00    -4200.00
02536             252.00    -5200.00
02537            -248.00    -5000.00
02538            -248.00    -4800.00
02539             206.00    -5800.00
02540             252.00    -5400.00
02541              28.00    -5600.00
02542            -248.00    -6000.00
02543            -130.00    -5800.00
02544             252.00    -6200.00
02545             220.00    -6400.00
02546            -136.00    -6600.00
02547            -242.00    -6600.00
02548              68.00    -6800.00
02549             252.00    -7000.00
02550              16.00    -7000.00
02551            -180.00    -7400.00
02552             -58.00    -7600.00
02553             134.00    -7600.00
02554             164.00    -8000.00
02555             -48.00    -7800.00
02556            -100.00    -8000.00
02557              44.00    -8400.00
02558             112.00    -8200.00
02559              44.00    -8600.00
02560             -60.00    -8400.00
02561              -4.00    -8800.00
02562              94.00    -9000.00
02563              64.00    -9000.00
02564             -20.00    -9200.00
02565             -36.00    -9200.00
02566              52.00    -9400.00
02567              86.00    -9600.00
02568              28.00    -9600.00
02569             -18.00    -9800.00
02570               4.00    -9800.00
02571              60.00   -10000.00
02572              48.00   -10000.00
02573               6.00   -10200.00
02574              12.00   -10400.00
02575              38.00   -10400.00
02576              44.00   -10400.00
02577              26.00   -10600.00
02578               8.00   -10600.00
02579              22.00   -10600.00
02580              46.00   -10800.00
02581              44.00   -10800.00
02582              20.00   -10800.00
02583              20.00   -11000.00
02584              30.00   -11200.00
02585              32.00   -11200.00
02586              30.00   -11200.00
02587              26.00   -11200.00
02588              36.00   -11400.00
02589              40.00   -11400.00
02590              28.00   -11400.00
02591              16.00   -11600.00
02592              24.00   -11600.00
02593              36.00   -11600.00
02594              36.00   -11600.00
02595              32.00   -11600.00
02596              26.00   -11800.00
02597              22.00   -11600.00
02598              24.00   -11800.00
02599              32.00   -11800.00
02600              32.00   -12000.00
02601              28.00   -11800.00
02602              32.00   -11800.00
02603              26.00   -11600.00
02604              22.00   -12000.00
02605              26.00   -11800.00
02606              28.00   -12000.00
02607              32.00   -11800.00
02608              34.00   -11800.00
02609              24.00   -11800.00
02610              24.00   -11800.00
02611              24.00   -11800.00
02612              24.00   -11800.00
02613              28.00   -11800.00
02614              32.00   -11800.00
02615              28.00   -11600.00
02616              24.00   -11600.00
02617              22.00   -11600.00
02618              22.00   -11600.00
02619              24.00   -11400.00
02620              30.00   -11600.00
02621              30.00   -11600.00
02622              30.00   -11200.00
02623              24.00   -11400.00
02624              22.00   -11400.00
02625              22.00   -11200.00
02626              28.00   -11200.00
02627              30.00   -11200.00
02628              28.00   -11000.00
02629              24.00   -10800.00
02630              24.00   -10800.00
02631              22.00   -10800.00
02632              28.00   -10800.00
02633              28.00   -10600.00
02634              28.00   -10600.00
02635              28.00   -10400.00
02636              22.00   -10400.00
02637              20.00   -10400.00
02638              20.00   -10400.00
02639              22.00   -10000.00
02640              24.00   -10000.00
02641              28.00    -9800.00
02642              24.00    -9600.00
02643              20.00    -9600.00
02644              20.00    -9600.00
02645              20.00    -9600.00
02646              20.00    -9400.00
02647              24.00    -9200.00
02648              22.00    -9000.00
02649              22.00    -9000.00
02650              14.00    -8800.00
02651              14.00    -8800.00
02652              16.00    -8800.00
02653              20.00    -8400.00
02654              20.00    -8200.00
02655              20.00    -8200.00
02656              16.00    -8000.00
02657              14.00    -8000.00
02658              12.00    -7600.00
02659              14.00    -7600.00
02660              18.00    -7400.00
02661              16.00    -7400.00
02662              12.00    -7200.00
02663              14.00    -7000.00
02664              12.00    -6800.00
02665               6.00    -6800.00
02666              12.00    -6600.00
02667              12.00    -6400.00
02668              12.00    -6200.00
02669              14.00    -6000.00
02670               6.00    -6000.00
02671               6.00    -5600.00
02672               6.00    -5400.00
02673               8.00    -5200.00
02674              12.00    -5200.00
02675               8.00    -5000.00
02676               4.00    -4800.00
02677               4.00    -4800.00
02678               6.00    -4400.00
02679               2.00    -4400.00
02680               8.00    -4200.00
02681              10.00    -4000.00
02682               0.00    -3800.00
02683               0.00    -3600.00
02684               0.00    -3600.00
02685               4.00    -3200.00
02686               2.00    -3000.00
02687               4.00    -2800.00
02688               4.00    -2600.00
02689               4.00    -2600.00
02690               0.00    -2400.00
02691              -6.00    -2000.00
02692              -8.00    -1800.00
02693               0.00    -1800.00
02694               4.00    -1600.00
02695               0.00    -1200.00
02696              -4.00    -1200.00
02697              -4.00    -1000.00
02698              -4.00     -800.00
02699              -4.00     -600.00
02700              -6.00     -200.00
02701               0.00     -200.00
02702               2.00        0.00
02703               0.00      200.00
02704               8.00      400.00
02705              26.00      600.00
02706              -4.00      800.00
02707             -28.00     1000.00
02708             -10.00     1200.00
02709              16.00     1400.00
02710              22.00     1400.00
02711             148.00     1600.00
02712             252.00     2200.00
02713            -164.00     2200.00
02714            -248.00     2400.00
02715            -248.00     2400.00
02716             252.00     2400.00
02717             252.00     3000.00
02718             252.00     3000.00
02719            -248.00     3000.00
02720            -248.00     3600.00
02721             252.00     3200.00
02722             252.00     4000.00
02723            -248.00     3800.00
02724             -38.00     3800.00
02725             124.00     4600.00
02726             220.00     4000.00
02727             252.00     4400.00
02728            -248.00     5400.00
02729            -148.00     4600.00
02730             252.00     5000.00
02731               0.00     6000.00
02732             -52.00     5200.00
02733            -248.00     5800.00
02734            -106.00     6400.00
02735             252.00     5600.00
02736              54.00     6600.00
02737            -232.00     6600.00
02738            -236.00     6200.00
02739             136.00     7200.00
02740             248.00     6800.00
02741            -216.00     7000.00
02742             -90.00     7200.00
02743             -10.00     7400.00
02744             -44.00     7600.00
02745             142.00     7400.00
02746             -96.00     8000.00
02747            -122.00     7800.00
02748              32.00     8000.00
02749              -2.00     8600.00
02750             -28.00     8000.00
02751             -68.00     8600.00
02752              14.00     8800.00
02753             -32.00     8600.00
02754             -40.00     9200.00
02755              10.00     8800.00
02756            -104.00     9200.00
02757               2.00     9200.00
02758              36.00     9200.00
02759             -94.00     9600.00
02760             -24.00     9400.00
02761               0.00    10000.00
02762             -44.00     9600.00
02763             -38.00    10000.00
02764             -12.00    10200.00
02765             -28.00    10000.00
02766             -40.00    10200.00
02767             -10.00    10400.00
02768             -52.00    10400.00
02769             -36.00    10400.00
02770               4.00    10400.00
02771             -50.00    10800.00
02772             -42.00    10600.00
02773              -8.00    10800.00
02774             -40.00    11000.00
02775             -36.00    11000.00
02776             -20.00    11200.00
02777             -50.00    11200.00
02778             -40.00    11200.00
02779               4.00    11200.00
02780             -30.00    11400.00
02781             -58.00    11400.00
02782             -28.00    11400.00
02783             -32.00    11600.00
02784             -36.00    11600.00
02785             -18.00    11600.00
02786             -36.00    11600.00
02787             -48.00    11600.00
02788             -24.00    11600.00
02789             -32.00    11600.00
02790             -44.00    11800.00
02791             -28.00    11600.00
02792             -28.00    11800.00
02793             -36.00    11800.00
02794             -26.00    11800.00
02795             -40.00    11800.00
02796             -50.00    11800.00
02797             -24.00    11800.00
02798             -24.00    11800.00
02799             -40.00    11800.00
02800             -32.00    11800.00
02801             -34.00    11800.00
02802             -42.00    11800.00
02803             -28.00    11800.00
02804             -28.00    11600.00
02805             -40.00    11600.00
02806             -32.00    11800.00
02807             -26.00    11600.00
02808             -36.00    11600.00
02809             -36.00    11600.00
02810             -34.00    11600.00
02811             -34.00    11400.00
02812             -26.00    11600.00
02813             -26.00    11400.00
02814             -40.00    11400.00
02815             -36.00    11200.00
02816             -28.00    11200.00
02817             -32.00    11200.00
02818             -28.00    11000.00
02819             -26.00    11000.00
02820             -34.00    11000.00
02821             -30.00    10800.00
02822             -26.00    10800.00
02823             -32.00    10800.00
02824             -32.00    10600.00
02825             -24.00    10600.00
02826             -26.00    10400.00
02827             -28.00    10400.00
02828             -28.00    10200.00
02829             -28.00    10200.00
02830             -28.00    10200.00
02831             -22.00    10000.00
02832             -24.00    10000.00
02833             -26.00     9600.00
02834             -22.00     9600.00
02835             -28.00     9600.00
02836             -28.00     9400.00
02837             -22.00     9400.00
02838             -24.00     9200.00
02839             -18.00     9200.00
02840             -24.00     8800.00
02841             -28.00     8800.00
02842             -24.00     8800.00
02843             -18.00     8600.00
02844             -18.00     8600.00
02845             -20.00     8400.00
02846             -26.00     8200.00
02847             -24.00     8000.00
02848             -16.00     8000.00
02849             -18.00     7800.00
02850             -20.00     7600.00
02851             -24.00     7400.00
02852             -20.00     7400.00
02853             -18.00     7200.00
02854              -8.00     7000.00
02855             -18.00     6800.00
02856             -26.00     6800.00
02857             -20.00     6400.00
02858             -12.00     6400.00
02859             -12.00     6200.00
02860             -12.00     6000.00
02861             -20.00     6000.00
02862             -20.00     5600.00
02863             -16.00     5400.00
02864             -10.00     5400.00
02865             -12.00     5200.00
02866             -12.00     5200.00
02867             -14.00     4800.00
02868             -12.00     4800.00
02869             -12.00     4400.00
02870             -10.00     4200.00
02871             -10.00     4000.00
02872              -8.00     3800.00
02873              -8.00     3800.00
02874             -10.00     3600.00
02875             -10.00     3400.00
02876             -10.00     3200.00
02877              -8.00     3000.00
02878              -4.00     2800.00
02879              -4.00     2600.00
02880              -4.00     2400.00
02881              -4.00     2200.00
02882              -4.00     2000.00
02883              -4.00     2000.00
02884              -4.00     1600.00
02885              -2.00     1400.00
02886              -2.00     1200.00
02887               0.00     1200.00
02888              -2.00     1000.00
02889              -2.00      800.00
02890              -4.00      600.00
02891               2.00      400.00
02892               4.00        0.00
02893               6.00        0.00
02894               6.00     -200.00
02895              12.00     -400.00
02896              32.00     -600.00
02897              20.00     -800.00
02898             -16.00     -800.00
02899             -10.00    -1000.00
02900              24.00    -1200.00
02901              32.00    -1200.00
02902              38.00    -1600.00
02903             186.00    -1800.00
02904             252.00    -2200.00
02905            -196.00    -2600.00
02906            -248.00    -2800.00
02907            -156.00    -2800.00
02908             252.00    -2800.00
02909             252.00    -2600.00
02910             252.00    -3400.00
02911            -248.00    -3600.00
02912            -248.00    -3000.00
02913             252.00    -4200.00
02914             252.00    -4000.00
02915            -248.00    -3600.00
02916            -248.00    -4800.00
02917             140.00    -4400.00
02918             252.00    -4200.00
02919             226.00    -5200.00
02920            -248.00    -4800.00
02921            -248.00    -5200.00
02922             252.00    -5600.00
02923             252.00    -5200.00
02924             -60.00    -5800.00
02925            -248.00    -6000.00
02926             -20.00    -6000.00
02927             252.00    -6400.00
02928             140.00    -6200.00
02929            -200.00    -6800.00
02930            -200.00    -6600.00
02931             160.00    -6800.00
02932             252.00    -7200.00
02933             -64.00    -7000.00
02934            -170.00    -7400.00
02935             -14.00    -7600.00
02936             166.00    -7600.00
02937             126.00    -8000.00
02938             -90.00    -7800.00
02939             -72.00    -8000.00
02940              70.00    -8200.00
02941             108.00    -8400.00
02942              14.00    -8600.00
02943             -66.00    -8600.00
02944              24.00    -9000.00
02945             100.00    -9000.00
02946              44.00    -9200.00
02947             -32.00    -9200.00
02948             -22.00    -9200.00
02949              68.00    -9600.00
02950              80.00    -9600.00
02951              14.00    -9800.00
02952             -20.00    -9800.00
02953              16.00   -10000.00
02954              62.00   -10000.00
02955              38.00   -10000.00
02956               4.00   -10200.00
02957              20.00   -10200.00
02958              42.00   -10400.00
02959              38.00   -10600.00
02960              22.00   -10400.00
02961              12.00   -10600.00
02962              26.00   -10800.00
02963              48.00   -10800.00
02964              36.00   -10800.00
02965              20.00   -10800.00
02966              22.00   -10800.00
02967              30.00   -11200.00
02968              32.00   -11200.00
02969              28.00   -11200.00
02970              24.00   -11400.00
02971              36.00   -11400.00
02972              40.00   -11600.00
02973              24.00   -11400.00
02974              14.00   -11600.00
02975              32.00   -11600.00
02976              38.00   -11600.00
02977              36.00   -11600.00
02978              32.00   -11600.00
02979              26.00   -11600.00
02980              22.00   -11600.00
02981              28.00   -11800.00
02982              30.00   -11800.00
02983              32.00   -12000.00
02984              30.00   -11800.00
02985              30.00   -12000.00
02986              28.00   -11800.00
02987              22.00   -12000.00
02988              24.00   -11800.00
02989              32.00   -11800.00
02990              36.00   -12000.00
02991              32.00   -11800.00
02992              24.00   -11800.00
02993              26.00   -11600.00
02994              24.00   -12000.00
02995              28.00   -11600.00
02996              28.00   -11800.00
02997              32.00   -11600.00
02998              30.00   -11600.00
02999              28.00   -11600.00
03000              24.00   -11600.00
03001              22.00   -11600.00
03002              28.00   -11600.00
03003              32.00   -11600.00
03004              30.00   -11400.00
03005              28.00   -11400.00
03006              22.00   -11400.00
03007              22.00   -11200.00
03008              24.00   -11200.00
03009              28.00   -11000.00
03010              28.00   -11200.00
03011              28.00   -10800.00
03012              28.00   -11000.00
03013              22.00   -10800.00
03014              24.00   -10800.00
03015              24.00   -10800.00
03016              24.00   -10800.00
03017              28.00   -10600.00
03018              24.00   -10400.00
03019              20.00   -10400.00
03020              20.00   -10000.00
03021              20.00   -10200.00
03022              28.00   -10000.00
03023              24.00   -10000.00
03024              28.00    -9800.00
03025              22.00    -9800.00
03026              20.00    -9600.00
03027              20.00    -9600.00
03028              20.00    -9600.00
03029              24.00    -9200.00
03030              28.00    -9200.00
03031              20.00    -9200.00
03032              16.00    -9000.00
03033              16.00    -8800.00
03034              16.00    -8800.00
03035              22.00    -8600.00
03036              24.00    -8400.00
03037              16.00    -8400.00
03038              14.00    -8200.00
03039              14.00    -8000.00
03040              20.00    -8000.00
03041              16.00    -7600.00
03042              14.00    -7600.00
03043              12.00    -7400.00
03044              16.00    -7400.00
03045              22.00    -7200.00
03046              16.00    -7000.00
03047              12.00    -6800.00
03048               6.00    -6600.00
03049              12.00    -6400.00
03050              14.00    -6400.00
03051              16.00    -6400.00
03052               8.00    -6000.00
03053               4.00    -5800.00
03054               8.00    -5600.00
03055               8.00    -5400.00
03056              14.00    -5200.00
03057              12.00    -5200.00
03058               8.00    -5000.00
03059               8.00    -4800.00
03060               4.00    -4800.00
03061               6.00    -4600.00
03062               4.00    -4200.00
03063               6.00    -4200.00
03064               6.00    -4000.00
03065               4.00    -3800.00
03066               4.00    -3600.00
03067               4.00    -3400.00
03068               0.00    -3200.00
03069               4.00    -3000.00
03070               4.00    -2800.00
03071              -2.00    -2800.00
03072               0.00    -2400.00
03073               0.00    -2200.00
03074              -4.00    -2000.00
03075              -2.00    -1800.00
03076              -2.00    -1800.00
03077               0.00    -1600.00
03078               0.00    -1400.00
03079              -2.00    -1000.00
03080              -8.00    -1000.00
03081              -6.00     -800.00
03082              -2.00     -400.00
03083              -2.00     -400.00
03084              -2.00     -200.00
03085              -2.00        0.00
03086              -2.00        0.00
03087              20.00      400.00
03088              24.00      600.00
03089              -8.00      800.00
03090             -32.00     1000.00
03091              -8.00     1200.00
03092              22.00     1400.00
03093              30.00     1400.00
03094             212.00     1800.00
03095             252.00     2200.00
03096            -248.00     2400.00
03097            -248.00     2400.00
03098            -108.00     2400.00
03099             252.00     2400.00
03100             252.00     3000.00
03101             252.00     2800.00
03102            -248.00     3200.00
03103            -248.00     3600.00
03104             252.00     3600.00
03105              44.00     4000.00
03106            -248.00     3800.00
03107             112.00     3800.00
03108              76.00     4600.00
03109             252.00     4000.00
03110              96.00     4800.00
03111            -248.00     5400.00
03112              92.00     4400.00
03113             252.00     5200.00
03114             -52.00     5600.00
03115             -74.00     5000.00
03116            -248.00     6200.00
03117              32.00     6000.00
03118             252.00     5600.00
03119             -50.00     6800.00
03120            -248.00     6400.00
03121            -186.00     6200.00
03122             232.00     7200.00
03123             148.00     6600.00
03124            -248.00     7200.00
03125             -24.00     7200.00
03126             -44.00     7600.00
03127               6.00     7600.00
03128             120.00     7600.00
03129            -150.00     8000.00
03130             -68.00     7800.00
03131              36.00     8000.00
03132             -10.00     8400.00
03133             -44.00     8000.00
03134             -54.00     8600.00
03135              20.00     8600.00
03136             -56.00     8600.00
03137              -8.00     9200.00
03138             -20.00     8800.00
03139            -108.00     9400.00
03140              46.00     9200.00
03141               0.00     9400.00
03142             -92.00     9400.00
03143              -4.00     9400.00
03144             -16.00    10000.00
03145             -52.00     9800.00
03146             -26.00    10000.00
03147              -8.00    10000.00
03148             -46.00    10000.00
03149             -30.00    10200.00
03150              -8.00    10400.00
03151             -64.00    10400.00
03152             -24.00    10400.00
03153               0.00    10600.00
03154             -54.00    10800.00
03155             -36.00    10800.00
03156             -16.00    11000.00
03157             -36.00    11000.00
03158             -24.00    11000.00
03159             -26.00    11200.00
03160             -56.00    11000.00
03161             -28.00    11200.00
03162               4.00    11200.00
03163             -36.00    11200.00
03164             -48.00    11400.00
03165             -24.00    11600.00
03166             -40.00    11600.00
03167             -36.00    11600.00
03168             -12.00    11600.00
03169             -36.00    11600.00
03170             -44.00    11600.00
03171             -24.00    11800.00
03172             -34.00    11600.00
03173             -36.00    11600.00
03174             -24.00    11800.00
03175             -34.00    11800.00
03176             -32.00    11800.00
03177             -22.00    11800.00
03178             -44.00    11800.00
03179             -44.00    11800.00
03180             -18.00    12000.00
03181             -28.00    11800.00
03182             -42.00    11800.00
03183             -28.00    11800.00
03184             -36.00    11800.00
03185             -42.00    11800.00
03186             -24.00    11800.00
03187             -30.00    11600.00
03188             -42.00    11600.00
03189             -24.00    11600.00
03190             -28.00    11600.00
03191             -36.00    11600.00
03192             -32.00    11600.00
03193             -36.00    11600.00
03194             -42.00    11400.00
03195             -28.00    11400.00
03196             -28.00    11600.00
03197             -28.00    11200.00
03198             -18.00    11200.00
03199             -26.00    11200.00
03200             -40.00    11000.00
03201             -36.00    11000.00
03202             -36.00    11000.00
03203             -30.00    11000.00
03204             -22.00    11000.00
03205             -26.00    10800.00
03206             -34.00    10800.00
03207             -34.00    10600.00
03208             -20.00    10400.00
03209             -24.00    10400.00
03210             -26.00    10200.00
03211             -26.00    10400.00
03212             -34.00    10200.00
03213             -30.00    10000.00
03214             -24.00    10000.00
03215             -24.00     9800.00
03216             -26.00     9600.00
03217             -26.00     9600.00
03218             -26.00     9400.00
03219             -26.00     9400.00
03220             -20.00     9400.00
03221             -26.00     9000.00
03222             -22.00     9200.00
03223             -20.00     8800.00
03224             -24.00     8800.00
03225             -26.00     8800.00
03226             -22.00     8600.00
03227             -20.00     8400.00
03228             -20.00     8200.00
03229             -18.00     8200.00
03230             -22.00     8000.00
03231             -20.00     8000.00
03232             -20.00     7800.00
03233             -20.00     7600.00
03234             -18.00     7400.00
03235             -18.00     7200.00
03236             -18.00     7200.00
03237             -12.00     6800.00
03238             -16.00     6800.00
03239             -20.00     6800.00
03240             -20.00     6600.00
03241             -10.00     6400.00
03242             -12.00     6200.00
03243             -16.00     6000.00
03244             -18.00     6000.00
03245             -16.00     5800.00
03246             -16.00     5400.00
03247             -12.00     5200.00
03248             -10.00     5200.00
03249             -12.00     5000.00
03250             -12.00     4800.00
03251             -10.00     4600.00
03252             -16.00     4400.00
03253             -10.00     4200.00
03254              -8.00     4000.00
03255             -10.00     3800.00
03256              -8.00     3600.00
03257             -10.00     3600.00
03258             -12.00     3200.00
03259              -8.00     3000.00
03260              -8.00     3000.00
03261              -4.00     2800.00
03262              -4.00     2800.00
03263             -10.00     2400.00
03264              -4.00     2200.00
03265              -4.00     2000.00
03266              -4.00     1800.00
03267              -4.00     1600.00
03268              -4.00     1400.00
03269               0.00     1400.00
03270              -2.00     1200.00
03271              -2.00     1000.00
03272              -2.00      600.00
03273              -2.00      600.00
03274               2.00      400.00
03275               4.00        0.00
03276               6.00        0.00
03277               4.00     -400.00
03278              14.00     -400.00
03279              36.00     -800.00
03280              12.00     -800.00
03281             -20.00     -800.00
03282              -2.00    -1000.00
03283              28.00    -1200.00
03284              30.00    -1400.00
03285              54.00    -1600.00
03286             240.00    -1800.00
03287             238.00    -2400.00
03288            -248.00    -2600.00
03289            -248.00    -2600.00
03290               4.00    -2800.00
03291             252.00    -2800.00
03292             252.00    -2600.00
03293             252.00    -3400.00
03294            -248.00    -3400.00
03295            -248.00    -3200.00
03296             252.00    -4200.00
03297             252.00    -3600.00
03298            -248.00    -4000.00
03299            -196.00    -4800.00
03300             188.00    -4200.00
03301             252.00    -4400.00
03302             102.00    -5200.00
03303            -248.00    -4600.00
03304            -102.00    -5200.00
03305             252.00    -5600.00
03306             220.00    -5200.00
03307            -146.00    -6000.00
03308            -248.00    -5800.00
03309              96.00    -6000.00
03310             252.00    -6400.00
03311              54.00    -6400.00
03312            -236.00    -6600.00
03313            -138.00    -6800.00
03314             240.00    -6800.00
03315             214.00    -7200.00
03316            -128.00    -7200.00
03317            -146.00    -7600.00
03318              34.00    -7400.00
03319             184.00    -7800.00
03320              76.00    -8000.00
03321            -114.00    -7800.00
03322             -36.00    -8200.00
03323              92.00    -8200.00
03324              96.00    -8400.00
03325             -16.00    -8800.00
03326             -58.00    -8600.00
03327              54.00    -9000.00
03328              96.00    -9000.00
03329              24.00    -9200.00
03330             -44.00    -9200.00
03331              -2.00    -9200.00
03332              82.00    -9400.00
03333              68.00    -9600.00
03334              -2.00    -9800.00
03335             -20.00    -9800.00
03336              32.00   -10000.00
03337              64.00   -10000.00
03338              24.00   -10200.00
03339               4.00   -10000.00
03340              26.00   -10400.00
03341              44.00   -10400.00
03342              36.00   -10400.00
03343              14.00   -10600.00
03344              12.00   -10600.00
03345              32.00   -10800.00
03346              48.00   -10800.00
03347              28.00   -10800.00
03348              20.00   -10800.00
03349              26.00   -11000.00
03350              30.00   -11200.00
03351              30.00   -11200.00
03352              28.00   -11200.00
03353              28.00   -11200.00
03354              38.00   -11400.00
03355              38.00   -11400.00
03356              22.00   -11400.00
03357              18.00   -11600.00
03358              32.00   -11600.00
03359              38.00   -11400.00
03360              36.00   -11600.00
03361              30.00   -11600.00
03362              26.00   -11800.00
03363              22.00   -11600.00
03364              30.00   -11800.00
03365              32.00   -11600.00
03366              30.00   -11800.00
03367              32.00   -11800.00
03368              30.00   -11600.00
03369              24.00   -11800.00
03370              24.00   -11600.00
03371              28.00   -11800.00
03372              32.00   -11800.00
03373              36.00   -11600.00
03374              30.00   -11800.00
03375              28.00   -11800.00
03376              26.00   -11800.00
03377              24.00   -11800.00
03378              28.00   -11600.00
03379              32.00   -11800.00
03380              32.00   -11600.00
03381              28.00   -11600.00
03382              24.00   -11600.00
03383              24.00   -11600.00
03384              22.00   -11600.00
03385              28.00   -11400.00
03386              30.00   -11400.00
03387              28.00   -11400.00
03388              28.00   -11400.00
03389              24.00   -11400.00
03390              20.00   -11200.00
03391              24.00   -11400.00
03392              30.00   -11200.00
03393              28.00   -11200.00
03394              24.00   -11200.00
03395              24.00   -11000.00
03396              22.00   -10800.00
03397              22.00   -10800.00
03398              22.00   -10800.00
03399              24.00   -10600.00
03400              28.00   -10600.00
03401              28.00   -10400.00
03402              20.00   -10400.00
03403              20.00   -10200.00
03404              22.00   -10200.00
03405              22.00   -10200.00
03406              24.00   -10000.00
03407              24.00    -9800.00
03408              22.00    -9800.00
03409              16.00    -9600.00
03410              16.00    -9600.00
03411              20.00    -9600.00
03412              24.00    -9200.00
03413              22.00    -9200.00
03414              22.00    -9200.00
03415              20.00    -9000.00
03416              14.00    -8800.00
03417              16.00    -8800.00
03418              20.00    -8600.00
03419              20.00    -8600.00
03420              22.00    -8400.00
03421              20.00    -8000.00
03422              14.00    -8000.00
03423              14.00    -8000.00
03424              12.00    -7600.00
03425              20.00    -7600.00
03426              20.00    -7400.00
03427              16.00    -7200.00
03428              14.00    -7200.00
03429              12.00    -7000.00
03430              12.00    -6800.00
03431              10.00    -6800.00
03432              12.00    -6400.00
03433              14.00    -6400.00
03434              14.00    -6000.00
03435               8.00    -6000.00
03436               8.00    -5800.00
03437               8.00    -5600.00
03438               6.00    -5400.00
03439              10.00    -5200.00
03440               8.00    -5000.00
03441               6.00    -5000.00
03442              10.00    -4800.00
03443               6.00    -4400.00
03444               4.00    -4400.00
03445               0.00    -4400.00
03446               2.00    -4000.00
03447               6.00    -3800.00
03448               6.00    -3800.00
03449               4.00    -3600.00
03450              -4.00    -3400.00
03451              -4.00    -3200.00
03452               2.00    -2800.00
03453               6.00    -2800.00
03454               6.00    -2600.00
03455              -2.00    -2600.00
03456              -8.00    -2400.00
03457              -4.00    -2000.00
03458              -2.00    -1800.00
03459               0.00    -1600.00
03460              -2.00    -1600.00
03461              -4.00    -1200.00
03462              -4.00    -1000.00
03463              -4.00     -800.00
03464              -8.00     -800.00
03465              -8.00     -400.00
03466              -4.00     -200.00
03467               0.00        0.00
03468              -4.00        0.00
03469              -2.00      400.00
03470              22.00      400.00
03471              18.00      600.00
03472             -18.00     1000.00
03473             -28.00     1000.00
03474               4.00     1200.00
03475              20.00     1400.00
03476              48.00     1400.00
03477             252.00     2000.00
03478             200.00     2200.00
03479            -248.00     2400.00
03480            -248.00     2400.00
03481              30.00     2400.00
03482             252.00     2600.00
03483             252.00     3000.00
03484             -92.00     3000.00
03485            -248.00     3200.00
03486             252.00     3400.00
03487             252.00     3600.00
03488            -248.00     4000.00
03489            -248.00     3600.00
03490             184.00     4200.00
03491              60.00     4600.00
03492             252.00     4000.00
03493            -146.00     5200.00
03494            -248.00     5200.00
03495             252.00     4600.00
03496             252.00     5600.00
03497             -66.00     5400.00
03498            -120.00     5200.00
03499            -248.00     6400.00
03500             172.00     6000.00
03501             252.00     6000.00
03502            -128.00     6800.00
03503            -248.00     6200.00
03504            -108.00     6400.00
03505             252.00     7000.00
03506              22.00     6800.00
03507            -236.00     7400.00
03508              14.00     7200.00
03509             -74.00     7400.00
03510              68.00     7400.00
03511              70.00     7600.00
03512            -172.00     8000.00
03513             -26.00     7600.00
03514              26.00     8400.00
03515             -12.00     8400.00
03516             -56.00     8000.00
03517             -38.00     8600.00
03518              14.00     8600.00
03519             -64.00     8800.00
03520               6.00     9000.00
03521             -44.00     9000.00
03522             -84.00     9200.00
03523              60.00     9200.00
03524             -40.00     9400.00
03525             -80.00     9400.00
03526               6.00     9600.00
03527             -26.00    10000.00
03528             -52.00     9600.00
03529             -26.00    10000.00
03530             -16.00    10000.00
03531             -40.00    10200.00
03532             -20.00    10400.00
03533             -26.00    10400.00
03534             -58.00    10400.00
03535              -4.00    10400.00
03536             -18.00    10800.00
03537             -64.00    10600.00
03538             -20.00    10800.00
03539             -20.00    11000.00
03540             -44.00    11000.00
03541             -20.00    11000.00
03542             -32.00    11200.00
03543             -58.00    11200.00
03544             -14.00    11200.00
03545               0.00    11200.00
03546             -52.00    11400.00
03547             -44.00    11400.00
03548             -20.00    11600.00
03549             -38.00    11400.00
03550             -26.00    11600.00
03551             -20.00    11600.00
03552             -48.00    11600.00
03553             -34.00    11600.00
03554             -20.00    11600.00
03555             -40.00    11600.00
03556             -36.00    11800.00
03557             -24.00    11800.00
03558             -34.00    11800.00
03559             -28.00    11600.00
03560             -26.00    11800.00
03561             -48.00    11800.00
03562             -34.00    11800.00
03563             -18.00    11800.00
03564             -32.00    11800.00
03565             -36.00    11800.00
03566             -28.00    11800.00
03567             -36.00    11800.00
03568             -36.00    11800.00
03569             -24.00    11600.00
03570             -34.00    11600.00
03571             -36.00    11600.00
03572             -26.00    11600.00
03573             -32.00    11600.00
03574             -40.00    11600.00
03575             -32.00    11600.00
03576             -34.00    11600.00
03577             -28.00    11400.00
03578             -26.00    11400.00
03579             -34.00    11200.00
03580             -36.00    11200.00
03581             -30.00    11200.00
03582             -28.00    11200.00
03583             -32.00    11000.00
03584             -24.00    11000.00
03585             -32.00    11000.00
03586             -36.00    10800.00
03587             -26.00    10800.00
03588             -28.00    10800.00
03589             -34.00    10600.00
03590             -26.00    10600.00
03591             -26.00    10600.00
03592             -28.00    10400.00
03593             -28.00    10400.00
03594             -32.00    10200.00
03595             -32.00    10200.00
03596             -24.00    10000.00
03597             -24.00    10000.00
03598             -26.00     9800.00
03599             -26.00     9600.00
03600             -26.00     9600.00
03601             -28.00     9400.00
03602             -24.00     9400.00
03603             -26.00     9400.00
03604             -24.00     9200.00
03605             -20.00     8800.00
03606             -24.00     8800.00
03607             -26.00     8800.00
03608             -26.00     8600.00
03609             -20.00     8600.00
03610             -20.00     8400.00
03611             -18.00     8400.00
03612             -18.00     8000.00
03613             -24.00     7800.00
03614             -24.00     7800.00
03615             -20.00     7800.00
03616             -20.00     7600.00
03617             -18.00     7400.00
03618             -16.00     7200.00
03619             -20.00     7200.00
03620             -16.00     7000.00
03621             -18.00     6800.00
03622             -20.00     6800.00
03623             -18.00     6400.00
03624             -12.00     6400.00
03625             -14.00     6000.00
03626             -16.00     6000.00
03627             -16.00     5800.00
03628             -16.00     5600.00
03629             -12.00     5400.00
03630             -10.00     5400.00
03631             -10.00     5200.00
03632             -12.00     5000.00
03633             -12.00     4800.00
03634             -10.00     4400.00
03635             -16.00     4400.00
03636             -12.00     4200.00
03637              -8.00     4000.00
03638              -8.00     3800.00
03639              -8.00     3600.00
03640             -10.00     3400.00
03641             -12.00     3200.00
03642              -8.00     3200.00
03643              -8.00     2800.00
03644              -6.00     2800.00
03645              -4.00     2400.00
03646              -6.00     2400.00
03647              -8.00     2200.00
03648              -4.00     2000.00
03649              -4.00     1800.00
03650              -4.00     1600.00
03651              -2.00     1400.00
03652               0.00     1200.00
03653              -4.00     1000.00
03654              -4.00     1000.00
03655              -4.00      600.00
03656              -2.00      400.00
03657               0.00      200.00
03658               4.00        0.00
03659               6.00     -200.00
03660               4.00     -400.00
03661              20.00     -400.00
03662              34.00     -600.00
03663               4.00     -800.00
03664             -20.00    -1000.00
03665               4.00    -1200.00
03666              32.00    -1200.00
03667              24.00    -1600.00
03668              84.00    -1600.00
03669             252.00    -2000.00
03670             134.00    -2600.00
03671            -248.00    -2600.00
03672            -248.00    -2600.00
03673             138.00    -2800.00
03674             252.00    -2600.00
03675             252.00    -2800.00
03676             150.00    -3600.00
03677            -248.00    -3200.00
03678            -130.00    -3400.00
03679             252.00    -4400.00
03680              62.00    -3600.00
03681            -248.00    -4200.00
03682             -60.00    -4800.00
03683             224.00    -4000.00
03684             252.00    -5000.00
03685             -50.00    -5000.00
03686            -248.00    -4800.00
03687              40.00    -5600.00
03688             252.00    -5400.00
03689             140.00    -5400.00
03690            -222.00    -6000.00
03691            -240.00    -5800.00
03692             204.00    -6200.00
03693             252.00    -6400.00
03694             -34.00    -6400.00
03695            -248.00    -6600.00
03696             -52.00    -6800.00
03697             252.00    -7000.00
03698             132.00    -7000.00
03699            -166.00    -7200.00
03700            -108.00    -7600.00
03701              82.00    -7400.00
03702             188.00    -7800.00
03703              20.00    -7800.00
03704            -116.00    -8000.00
03705               0.00    -8200.00
03706             106.00    -8200.00
03707              80.00    -8400.00
03708             -42.00    -8800.00
03709             -40.00    -8800.00
03710              76.00    -8800.00
03711              86.00    -8800.00
03712               4.00    -9200.00
03713             -44.00    -9200.00
03714              20.00    -9400.00
03715              88.00    -9600.00
03716              54.00    -9600.00
03717             -12.00    -9600.00
03718             -10.00    -9600.00
03719              46.00    -9800.00
03720              60.00   -10000.00
03721              14.00   -10000.00
03722               6.00   -10200.00
03723              32.00   -10400.00
03724              44.00   -10400.00
03725              32.00   -10600.00
03726              10.00   -10600.00
03727              12.00   -10600.00
03728              38.00   -10600.00
03729              46.00   -10800.00
03730              20.00   -10800.00
03731              16.00   -10800.00
03732              32.00   -11000.00
03733              36.00   -11200.00
03734              30.00   -11200.00
03735              22.00   -11200.00
03736              22.00   -11400.00
03737              44.00   -11400.00
03738              40.00   -11400.00
03739              12.00   -11400.00
03740              14.00   -11600.00
03741              32.00   -11400.00
03742              36.00   -11400.00
03743              38.00   -11600.00
03744              32.00   -11600.00
03745              18.00   -11600.00
03746              22.00   -11600.00
03747              32.00   -11800.00
03748              32.00   -11800.00
03749              32.00   -11800.00
03750              38.00   -11600.00
03751              28.00   -11800.00
03752              22.00   -11600.00
03753              28.00   -12000.00
03754              32.00   -11800.00
03755              36.00   -11800.00
03756              36.00   -11800.00
03757              26.00   -12000.00
03758              24.00   -11800.00
03759              30.00   -11800.00
03760              28.00   -11800.00
03761              28.00   -11600.00
03762              34.00   -11600.00
03763              32.00   -11600.00
03764              28.00   -11600.00
03765              26.00   -11600.00
03766              22.00   -11600.00
03767              22.00   -11600.00
03768              28.00   -11600.00
03769              30.00   -11400.00
03770              28.00   -11400.00
03771              28.00   -11400.00
03772              22.00   -11400.00
03773              20.00   -11400.00
03774              28.00   -11200.00
03775              30.00   -11200.00
03776              28.00   -11200.00
03777              24.00   -11000.00
03778              24.00   -10800.00
03779              22.00   -10800.00
03780              22.00   -10600.00
03781              24.00   -10800.00
03782              28.00   -10600.00
03783              28.00   -10600.00
03784              24.00   -10400.00
03785              20.00   -10400.00
03786              20.00   -10400.00
03787              18.00   -10200.00
03788              22.00   -10000.00
03789              26.00   -10000.00
03790              24.00    -9800.00
03791              18.00    -9800.00
03792              20.00    -9600.00
03793              20.00    -9600.00
03794              20.00    -9400.00
03795              22.00    -9200.00
03796              24.00    -9200.00
03797              20.00    -9000.00
03798              18.00    -8800.00
03799              14.00    -8800.00
03800              14.00    -8800.00
03801              20.00    -8400.00
03802              20.00    -8400.00
03803              20.00    -8200.00
03804              20.00    -8000.00
03805              14.00    -8000.00
03806              14.00    -8000.00
03807              16.00    -7600.00
03808              20.00    -7600.00
03809              16.00    -7400.00
03810              16.00    -7400.00
03811              14.00    -7200.00
03812              14.00    -6800.00
03813               8.00    -6800.00
03814              12.00    -6600.00
03815              14.00    -6400.00
03816              14.00    -6400.00
03817              12.00    -6000.00
03818               8.00    -6000.00
03819               6.00    -5600.00
03820               6.00    -5400.00
03821               8.00    -5200.00
03822              12.00    -5200.00
03823              12.00    -5000.00
03824               8.00    -4800.00
03825               6.00    -4800.00
03826               6.00    -4600.00
03827               4.00    -4400.00
03828               6.00    -4200.00
03829               6.00    -4000.00
03830               6.00    -3800.00
03831               4.00    -3600.00
03832               0.00    -3400.00
03833              -2.00    -3400.00
03834              -2.00    -3200.00
03835               2.00    -3200.00
03836               6.00    -2600.00
03837               0.00    -2600.00
03838               0.00    -2400.00
03839              -4.00    -2200.00
03840              -4.00    -2000.00
03841              -2.00    -1800.00
03842               0.00    -1600.00
03843              -4.00    -1400.00
03844              -2.00    -1200.00
03845              -4.00    -1000.00
03846             -10.00     -800.00
03847              -6.00     -800.00
03848              -4.00     -400.00
03849              -4.00     -200.00
03850              -2.00        0.00
03851              -2.00        0.00
03852               4.00      400.00
03853              28.00      400.00
03854               8.00      600.00
03855             -24.00      800.00
03856             -26.00     1000.00
03857               8.00     1200.00
03858              20.00     1400.00
03859              80.00     1600.00
03860             252.00     2000.00
03861              60.00     2200.00
03862            -248.00     2200.00
03863            -248.00     2400.00
03864             142.00     2400.00
03865             252.00     2800.00
03866             252.00     3000.00
03867            -248.00     3000.00
03868            -248.00     3200.00
03869             252.00     3400.00
03870             252.00     3800.00
03871            -248.00     4000.00
03872            -248.00     3600.00
03873             190.00     4400.00
03874             100.00     4400.00
03875             252.00     4200.00
03876            -248.00     5200.00
03877            -248.00     5000.00
03878             252.00     4800.00
03879             134.00     6000.00
03880             -58.00     5200.00
03881            -180.00     5200.00
03882            -246.00     6600.00
03883             252.00     5600.00
03884             184.00     6200.00
03885            -186.00     6800.00
03886            -248.00     6200.00
03887              -2.00     6800.00
03888             252.00     7000.00
03889            -106.00     7000.00
03890            -178.00     7400.00
03891              24.00     7200.00
03892             -80.00     7600.00
03893             118.00     7600.00
03894              -4.00     7800.00
03895            -164.00     8000.00
03896              14.00     7800.00
03897              12.00     8600.00
03898             -20.00     8000.00
03899             -66.00     8400.00
03900             -10.00     8800.00
03901               0.00     8400.00
03902             -60.00     8800.00
03903              16.00     9000.00
03904             -82.00     9200.00
03905             -44.00     9200.00
03906              62.00     9200.00
03907             -72.00     9600.00
03908             -60.00     9400.00
03909               6.00     9800.00
03910             -34.00    10000.00
03911             -44.00     9600.00
03912             -20.00    10200.00
03913             -22.00    10000.00
03914             -44.00    10000.00
03915             -16.00    10200.00
03916             -36.00    10400.00
03917             -54.00    10400.00
03918               4.00    10400.00
03919             -34.00    10800.00
03920             -58.00    10800.00
03921             -12.00    10800.00
03922             -30.00    11000.00
03923             -42.00    11000.00
03924             -18.00    11200.00
03925             -42.00    11200.00
03926             -52.00    11000.00
03927              -4.00    11200.00
03928             -12.00    11200.00
03929             -58.00    11200.00
03930             -36.00    11600.00
03931             -26.00    11400.00
03932             -36.00    11400.00
03933             -22.00    11600.00
03934             -26.00    11600.00
03935             -48.00    11600.00
03936             -26.00    11600.00
03937             -24.00    11800.00
03938             -44.00    11600.00
03939             -34.00    11600.00
03940             -24.00    11800.00
03941             -36.00    11800.00
03942             -26.00    11800.00
03943             -34.00    11800.00
03944             -50.00    11800.00
03945             -28.00    11800.00
03946             -18.00    11800.00
03947             -36.00    11800.00
03948             -34.00    11800.00
03949             -28.00    11800.00
03950             -42.00    11800.00
03951             -32.00    11600.00
03952             -24.00    11600.00
03953             -38.00    11600.00
03954             -34.00    11800.00
03955             -20.00    11600.00
03956             -34.00    11600.00
03957             -36.00    11600.00
03958             -32.00    11600.00
03959             -32.00    11600.00
03960             -28.00    11400.00
03961             -24.00    11600.00
03962             -34.00    11200.00
03963             -36.00    11200.00
03964             -28.00    11200.00
03965             -34.00    11200.00
03966             -32.00    11200.00
03967             -24.00    11000.00
03968             -34.00    11000.00
03969             -34.00    10800.00
03970             -26.00    11000.00
03971             -32.00    10800.00
03972             -34.00    10400.00
03973             -28.00    10400.00
03974             -26.00    10400.00
03975             -28.00    10200.00
03976             -28.00    10400.00
03977             -34.00    10200.00
03978             -28.00    10000.00
03979             -24.00    10000.00
03980             -26.00     9800.00
03981             -26.00     9800.00
03982             -26.00     9600.00
03983             -28.00     9600.00
03984             -28.00     9400.00
03985             -26.00     9200.00
03986             -26.00     9200.00
03987             -26.00     9000.00
03988             -20.00     9200.00
03989             -26.00     8800.00
03990             -26.00     8800.00
03991             -26.00     8600.00
03992             -20.00     8400.00
03993             -24.00     8400.00
03994             -18.00     8000.00
03995             -20.00     8000.00
03996             -22.00     8000.00
03997             -22.00     7800.00
03998             -20.00     7800.00
03999             -20.00     7400.00
04000             -16.00     7600.00
04001             -18.00     7200.00
04002             -16.00     7000.00
04003             -18.00     7000.00
04004             -20.00     6800.00
04005             -20.00     6600.00
04006             -16.00     6400.00
04007             -12.00     6400.00
04008             -16.00     6000.00
04009             -16.00     6000.00
04010             -14.00     5800.00
04011             -16.00     5600.00
04012             -12.00     5400.00
04013             -10.00     5200.00
04014             -12.00     5200.00
04015             -12.00     5000.00
04016             -12.00     4800.00
04017             -12.00     4600.00
04018             -16.00     4400.00
04019             -10.00     4400.00
04020              -8.00     4000.00
04021              -8.00     3800.00
04022              -8.00     3600.00
04023             -10.00     3400.00
04024             -10.00     3200.00
04025              -8.00     3000.00
04026              -6.00     3000.00
04027              -4.00     2800.00
04028              -4.00     2400.00
04029              -6.00     2400.00
04030              -4.00     2200.00
04031              -8.00     2000.00
04032              -8.00     1800.00
04033              -4.00     1400.00
04034               0.00     1400.00
04035               0.00     1200.00
04036              -4.00     1000.00
04037              -4.00      800.00
04038              -2.00      600.00
04039               0.00      400.00
04040               4.00      200.00
04041               4.00        0.00
04042               4.00     -200.00
04043               6.00     -400.00
04044              24.00     -800.00
04045              28.00     -800.00
04046              -8.00    -1000.00
04047             -20.00    -1000.00
04048              12.00    -1200.00
04049              32.00    -1200.00
04050              30.00    -1600.00
04051             120.00    -1600.00
04052             252.00    -2200.00
04053               0.00    -2600.00
04054            -248.00    -2600.00
04055            -248.00    -2800.00
04056             236.00    -2800.00
04057             252.00    -2600.00
04058             252.00    -3200.00
04059             -92.00    -3600.00
04060            -248.00    -3200.00
04061             242.00    -3800.00
04062             252.00    -4400.00
04063            -248.00    -3600.00
04064            -248.00    -4400.00
04065              46.00    -4600.00
04066             252.00    -4000.00
04067             252.00    -5200.00
04068            -210.00    -4800.00
04069            -248.00    -5000.00
04070             176.00    -5600.00
04071             252.00    -5200.00
04072              52.00    -5400.00
04073            -248.00    -6000.00
04074            -154.00    -6000.00
04075             252.00    -6000.00
04076             240.00    -6200.00
04077            -114.00    -6400.00
04078            -246.00    -6600.00
04079              44.00    -6600.00
04080             252.00    -7200.00
04081              38.00    -7000.00
04082            -180.00    -7400.00
04083             -64.00    -7600.00
04084             124.00    -7600.00
04085             168.00    -7800.00
04086             -34.00    -7800.00
04087            -104.00    -8000.00
04088              38.00    -8200.00
04089             112.00    -8200.00
04090              52.00    -8600.00
04091             -58.00    -8400.00
04092             -10.00    -8800.00
04093              92.00    -8800.00
04094              68.00    -9200.00
04095             -16.00    -9200.00
04096             -40.00    -9200.00
04097              44.00    -9200.00
04098              92.00    -9600.00
04099              30.00    -9600.00
04100             -20.00    -9800.00
04101               2.00    -9800.00
04102              60.00    -9800.00
04103              50.00   -10000.00
04104               6.00   -10000.00
04105               8.00   -10400.00
04106              38.00   -10400.00
04107              46.00   -10400.00
04108              24.00   -10600.00
04109               6.00   -10600.00
04110              20.00   -10800.00
04111              40.00   -10600.00
04112              38.00   -10800.00
04113              22.00   -10800.00
04114              20.00   -10800.00
04115              28.00   -11200.00
04116              32.00   -11000.00
04117              28.00   -11200.00
04118              24.00   -11200.00
04119              32.00   -11400.00
04120              40.00   -11400.00
04121              28.00   -11400.00
04122              14.00   -11400.00
04123              24.00   -11600.00
04124              36.00   -11400.00
04125              38.00   -11600.00
04126              30.00   -11600.00
04127              28.00   -11600.00
04128              24.00   -11600.00
04129              28.00   -11600.00
04130              32.00   -11600.00
04131              32.00   -11600.00
04132              34.00   -11800.00
04133              36.00   -11600.00
04134              28.00   -12000.00
04135              24.00   -11800.00
04136              26.00   -11800.00
04137              28.00   -11800.00
04138              32.00   -11800.00
04139              36.00   -11600.00
04140              28.00   -11800.00
04141              24.00   -11800.00
04142              28.00   -11600.00
04143              30.00   -11800.00
04144              32.00   -11600.00
04145              34.00   -11800.00
04146              30.00   -11600.00
04147              28.00   -11600.00
04148              24.00   -11600.00
04149              24.00   -11600.00
04150              28.00   -11600.00
04151              30.00   -11400.00
04152              30.00   -11400.00
04153              30.00   -11400.00
04154              28.00   -11400.00
04155              22.00   -11400.00
04156              24.00   -11400.00
04157              28.00   -11200.00
04158              30.00   -11200.00
04159              28.00   -10800.00
04160              28.00   -11000.00
04161              22.00   -10800.00
04162              22.00   -10800.00
04163              24.00   -10600.00
04164              24.00   -10800.00
04165              28.00   -10600.00
04166              26.00   -10600.00
04167              22.00   -10400.00
04168              20.00   -10400.00
04169              16.00   -10400.00
04170              20.00   -10200.00
04171              24.00   -10000.00
04172              24.00    -9800.00
04173              22.00    -9800.00
04174              20.00    -9800.00
04175              16.00    -9600.00
04176              20.00    -9600.00
04177              20.00    -9400.00
04178              22.00    -9200.00
04179              22.00    -9200.00
04180              20.00    -9000.00
04181              16.00    -9000.00
04182              12.00    -8800.00
04183              16.00    -8800.00
04184              20.00    -8400.00
04185              20.00    -8200.00
04186              20.00    -8200.00
04187              16.00    -8000.00
04188              12.00    -8000.00
04189              14.00    -7800.00
04190              12.00    -7600.00
04191              16.00    -7400.00
04192              14.00    -7400.00
04193              14.00    -7200.00
04194              14.00    -7000.00
04195               8.00    -6800.00
04196               8.00    -6600.00
04197              12.00    -6600.00
04198              14.00    -6400.00
04199              14.00    -6200.00
04200              12.00    -6000.00
04201               8.00    -6000.00
04202               8.00    -5800.00
04203               8.00    -5400.00
04204              12.00    -5200.00
04205              12.00    -5200.00
04206              12.00    -5000.00
04207               6.00    -4800.00
04208               4.00    -4800.00
04209               6.00    -4600.00
04210               6.00    -4400.00
04211               6.00    -4200.00
04212               6.00    -3800.00
04213               6.00    -3800.00
04214               4.00    -3600.00
04215               0.00    -3400.00
04216               2.00    -3200.00
04217               4.00    -3000.00
04218               4.00    -2800.00
04219               6.00    -2800.00
04220               4.00    -2400.00
04221               0.00    -2400.00
04222              -2.00    -2000.00
04223              -2.00    -2000.00
04224              -2.00    -1800.00
04225               0.00    -1600.00
04226               0.00    -1400.00
04227              -4.00    -1200.00
04228              -4.00    -1000.00
04229              -6.00     -800.00
04230              -4.00     -600.00
04231              -4.00     -400.00
04232               0.00     -200.00
04233               0.00        0.00
04234              -4.00        0.00
04235               8.00      400.00
04236              28.00      600.00
04237               0.00      800.00
04238             -32.00     1000.00
04239             -16.00     1000.00
04240              16.00     1200.00
04241              22.00     1400.00
04242             128.00     1600.00
04243             252.00     2000.00
04244            -120.00     2200.00
04245            -248.00     2400.00
04246            -248.00     2400.00
04247             226.00     2600.00
04248             252.00     2800.00
04249             252.00     3000.00
04250            -248.00     3000.00
04251            -248.00     3600.00
04252             252.00     3200.00
04253             252.00     4000.00
04254            -248.00     4000.00
04255             -84.00     3600.00
04256             144.00     4600.00
04257             190.00     4200.00
04258             252.00     4400.00
04259            -248.00     5400.00
04260            -208.00     4800.00
04261             252.00     4800.00
04262              22.00     6000.00
04263             -52.00     5200.00
04264            -248.00     5800.00
04265            -140.00     6400.00
04266             252.00     5400.00
04267              78.00     6400.00
04268            -224.00     6600.00
04269            -240.00     6200.00
04270             110.00     7000.00
04271             252.00     7000.00
04272            -200.00     7000.00
04273            -106.00     7400.00
04274               0.00     7200.00
04275             -58.00     7600.00
04276             142.00     7400.00
04277             -76.00     8000.00
04278            -130.00     8000.00
04279              36.00     7800.00
04280               0.00     8600.00
04281             -26.00     8000.00
04282             -66.00     8600.00
04283               8.00     8800.00
04284             -26.00     8600.00
04285             -42.00     9200.00
04286              12.00     8800.00
04287            -100.00     9200.00
04288              -4.00     9000.00
04289              40.00     9400.00
04290             -92.00     9600.00
04291             -28.00     9400.00
04292               4.00     9800.00
04293             -44.00     9600.00
04294             -42.00     9800.00
04295             -16.00    10200.00
04296             -28.00    10000.00
04297             -42.00    10200.00
04298             -10.00    10400.00
04299             -52.00    10400.00
04300             -42.00    10400.00
04301               4.00    10400.00
04302             -50.00    10800.00
04303             -50.00    10600.00
04304             -10.00    11000.00
04305             -36.00    11000.00
04306             -36.00    10800.00
04307             -20.00    11200.00
04308             -52.00    11200.00
04309             -48.00    11200.00
04310               4.00    11400.00
04311             -28.00    11200.00
04312             -60.00    11400.00
04313             -28.00    11200.00
04314             -28.00    11600.00
04315             -40.00    11400.00
04316             -18.00    11600.00
04317             -36.00    11600.00
04318             -50.00    11600.00
04319             -24.00    11600.00
04320             -28.00    11800.00
04321             -44.00    11600.00
04322             -28.00    11800.00
04323             -28.00    11600.00
04324             -36.00    11800.00
04325             -26.00    11800.00
04326             -36.00    11800.00
04327             -48.00    11800.00
04328             -24.00    11600.00
04329             -22.00    11800.00
04330             -36.00    11800.00
04331             -30.00    12000.00
04332             -30.00    11800.00
04333             -40.00    11800.00
04334             -28.00    11600.00
04335             -26.00    11800.00
04336             -38.00    11600.00
04337             -30.00    11600.00
04338             -24.00    11800.00
04339             -34.00    11600.00
04340             -36.00    11600.00
04341             -34.00    11600.00
04342             -34.00    11600.00
04343             -24.00    11600.00
04344             -22.00    11400.00
04345             -36.00    11200.00
04346             -36.00    11200.00
04347             -28.00    11200.00
04348             -36.00    11200.00
04349             -26.00    11200.00
04350             -24.00    11000.00
04351             -32.00    11000.00
04352             -30.00    10800.00
04353             -26.00    10800.00
04354             -34.00    10800.00
04355             -34.00    10600.00
04356             -24.00    10400.00
04357             -28.00    10400.00
04358             -32.00    10400.00
04359             -34.00    10200.00
04360             -32.00    10200.00
04361             -26.00    10000.00
04362             -20.00    10000.00
04363             -20.00     9800.00
04364             -26.00     9600.00
04365             -24.00     9600.00
04366             -28.00     9600.00
04367             -32.00     9400.00
04368             -32.00     9200.00
04369             -32.00     9000.00
04370             -32.00     9200.00
04371             -20.00     8800.00
04372             -18.00     9000.00
04373             -20.00     8600.00
04374             -16.00     8600.00
04375             -20.00     8400.00
04376             -26.00     8400.00
04377             -24.00     8200.00
04378             -30.00     8000.00
04379             -32.00     8000.00
04380             -26.00     7600.00
04381             -20.00     7600.00
04382             -16.00     7600.00
04383             -18.00     7200.00
04384             -16.00     7200.00
04385             -12.00     7000.00
04386             -20.00     6800.00
04387             -20.00     6800.00
04388             -24.00     6400.00
04389             -16.00     6400.00
04390             -14.00     6200.00
04391             -16.00     6200.00
04392             -18.00     6000.00
04393             -14.00     5800.00
04394             -12.00     5600.00
04395             -10.00     5400.00
04396             -10.00     5200.00
04397             -12.00     5000.00
04398             -12.00     5000.00
04399              -8.00     4600.00
04400             -10.00     4600.00
04401             -16.00     4400.00
04402             -12.00     4000.00
04403              -4.00     3800.00
04404              -6.00     3800.00
04405              -6.00     3600.00
04406             -10.00     3400.00
04407             -10.00     3200.00
04408              -4.00     3000.00
04409              -2.00     2800.00
04410              -2.00     2800.00
04411              -8.00     2400.00
04412             -10.00     2400.00
04413              -4.00     2200.00
04414              -4.00     2000.00
04415              -4.00     1600.00
04416              -4.00     1600.00
04417              -4.00     1400.00
04418               0.00     1200.00
04419              -2.00     1000.00
04420              -4.00      800.00
04421               2.00      600.00
04422               0.00      400.00
04423               2.00      200.00
04424               8.00        0.00
04425               6.00     -400.00
04426               2.00     -400.00
04427              30.00     -600.00
04428              22.00     -800.00
04429             -12.00    -1000.00
04430             -12.00    -1000.00
04431              20.00    -1200.00
04432              30.00    -1600.00
04433              38.00    -1600.00
04434             172.00    -1800.00
04435             252.00    -2000.00
04436            -156.00    -2600.00
04437            -248.00    -2600.00
04438            -200.00    -2800.00
04439             252.00    -3000.00
04440             252.00    -2600.00
04441             252.00    -3200.00
04442            -248.00    -3600.00
04443            -248.00    -2800.00
04444             252.00    -4200.00
04445             252.00    -4200.00
04446            -248.00    -3400.00
04447            -248.00    -4800.00
04448             124.00    -4400.00
04449             252.00    -4200.00
04450             252.00    -5200.00
04451            -248.00    -4800.00
04452            -248.00    -5000.00
04453             252.00    -5600.00
04454             252.00    -5200.00
04455             -42.00    -5800.00
04456            -248.00    -6000.00
04457             -44.00    -5800.00
04458             252.00    -6400.00
04459             164.00    -6200.00
04460            -180.00    -6600.00
04461            -214.00    -6600.00
04462             140.00    -6800.00
04463             252.00    -7200.00
04464             -44.00    -7200.00
04465            -176.00    -7600.00
04466             -22.00    -7600.00
04467             160.00    -7600.00
04468             140.00    -8000.00
04469             -80.00    -7800.00
04470             -76.00    -8000.00
04471              68.00    -8200.00
04472             110.00    -8200.00
04473              24.00    -8600.00
04474             -66.00    -8600.00
04475              20.00    -8800.00
04476             102.00    -9000.00
04477              48.00    -9000.00
04478             -28.00    -9200.00
04479             -26.00    -9400.00
04480              64.00    -9200.00
04481              86.00    -9600.00
04482              16.00    -9600.00
04483             -20.00    -9800.00
04484              16.00    -9800.00
04485              68.00   -10000.00
04486              38.00   -10000.00
04487               4.00   -10200.00
04488              16.00   -10400.00
04489              40.00   -10400.00
04490              38.00   -10400.00
04491              22.00   -10400.00
04492               8.00   -10600.00
04493              24.00   -10600.00
04494              46.00   -10800.00
04495              36.00   -10800.00
04496              20.00   -10800.00
04497              22.00   -11000.00
04498              28.00   -11000.00
04499              30.00   -11200.00
04500              28.00   -11200.00
04501              28.00   -11200.00
04502              36.00   -11400.00
04503              38.00   -11400.00
04504              24.00   -11400.00
04505              14.00   -11600.00
04506              28.00   -11600.00
04507              36.00   -11600.00
04508              36.00   -11600.00
04509              30.00   -11600.00
04510              28.00   -11600.00
04511              20.00   -11800.00
04512              28.00   -11600.00
04513              32.00   -11600.00
04514              36.00   -11600.00
04515              32.00   -11600.00
04516              36.00   -11600.00
04517              28.00   -11800.00
04518              22.00   -12000.00
04519              28.00   -11800.00
04520              32.00   -11800.00
04521              36.00   -11800.00
04522              32.00   -11600.00
04523              28.00   -11600.00
04524              28.00   -11600.00
04525              28.00   -11600.00
04526              30.00   -11800.00
04527              32.00   -11800.00
04528              32.00   -11600.00
04529              30.00   -11600.00
04530              28.00   -11600.00
04531              26.00   -11600.00
04532              24.00   -11600.00
04533              28.00   -11600.00
04534              30.00   -11600.00
04535              30.00   -11400.00
04536              28.00   -11400.00
04537              28.00   -11400.00
04538              22.00   -11400.00
04539              24.00   -11200.00
04540              30.00   -11200.00
04541              30.00   -11200.00
04542              28.00   -10800.00
04543              26.00   -10800.00
04544              22.00   -10800.00
04545              22.00   -10800.00
04546              26.00   -10600.00
04547              28.00   -10600.00
04548              28.00   -10400.00
04549              26.00   -10400.00
04550              20.00   -10400.00
04551              20.00   -10400.00
04552              16.00   -10200.00
04553              22.00   -10200.00
04554              24.00   -10000.00
04555              24.00    -9800.00
04556              22.00    -9800.00
04557              20.00    -9600.00
04558              16.00    -9600.00
04559              20.00    -9200.00
04560              20.00    -9400.00
04561              22.00    -9200.00
04562              22.00    -9200.00
04563              20.00    -9000.00
04564              14.00    -9000.00
04565              14.00    -8800.00
04566              16.00    -8600.00
04567              16.00    -8400.00
04568              20.00    -8200.00
04569              20.00    -8200.00
04570              14.00    -8000.00
04571              12.00    -8000.00
04572              12.00    -7800.00
04573              14.00    -7600.00
04574              16.00    -7400.00
04575              16.00    -7200.00
04576              14.00    -7200.00
04577              12.00    -7000.00
04578              12.00    -6800.00
04579              12.00    -6600.00
04580              12.00    -6600.00
04581              14.00    -6600.00
04582              12.00    -6000.00
04583               8.00    -6000.00
04584               6.00    -5800.00
04585               8.00    -5800.00
04586              12.00    -5400.00
04587              12.00    -5200.00
04588               8.00    -5200.00
04589               8.00    -5000.00
04590               6.00    -4800.00
04591               8.00    -4800.00
04592               6.00    -4400.00
04593               4.00    -4200.00
04594               6.00    -4000.00
04595               8.00    -4000.00
04596               8.00    -3600.00
04597               6.00    -3600.00
04598               0.00    -3400.00
04599              -2.00    -3200.00
04600               4.00    -3000.00
04601               8.00    -2800.00
04602               4.00    -2600.00
04603              -2.00    -2400.00
04604               0.00    -2200.00
04605              -4.00    -2000.00
04606               4.00    -2000.00
04607               4.00    -1600.00
04608               0.00    -1400.00
04609              -2.00    -1200.00
04610               0.00    -1200.00
04611              -4.00    -1000.00
04612              -4.00     -800.00
04613              -8.00     -400.00
04614              -2.00     -400.00
04615              -2.00     -200.00
04616               0.00        0.00
04617              -2.00        0.00
04618              12.00      400.00
04619              24.00      600.00
04620              -4.00      600.00
04621             -28.00     1000.00
04622             -10.00     1200.00
04623              16.00     1200.00
04624              32.00     1400.00
04625             194.00     1800.00
04626             252.00     2000.00
04627            -248.00     2200.00
04628            -248.00     2400.00
04629            -154.00     2400.00
04630             252.00     2400.00
04631             252.00     3000.00
04632             252.00     3000.00
04633            -248.00     3000.00
04634            -248.00     3600.00
04635             252.00     3400.00
04636             196.00     4000.00
04637            -248.00     3800.00
04638              78.00     4000.00
04639              86.00     4800.00
04640             252.00     4200.00
04641             156.00     4800.00
04642            -248.00     5400.00
04643              28.00     4600.00
04644             252.00     5400.00
04645             -42.00     6000.00
04646             -68.00     5000.00
04647            -248.00     6000.00
04648              -2.00     6200.00
04649             252.00     5600.00
04650             -26.00     6600.00
04651            -248.00     6400.00
04652            -200.00     6200.00
04653             216.00     7200.00
04654             176.00     6800.00
04655            -248.00     7200.00
04656             -40.00     7400.00
04657             -34.00     7400.00
04658              -6.00     7600.00
04659             134.00     7600.00
04660            -138.00     8000.00
04661             -84.00     7800.00
04662              38.00     8000.00
04663              -8.00     8400.00
04664             -40.00     8000.00
04665             -56.00     8800.00
04666              22.00     8600.00
04667             -48.00     8600.00
04668             -20.00     9200.00
04669              -8.00     9000.00
04670            -104.00     9200.00
04671              36.00     9200.00
04672              12.00     9600.00
04673             -98.00     9600.00
04674             -12.00     9400.00
04675              -4.00    10000.00
04676             -48.00     9600.00
04677             -34.00    10000.00
04678             -16.00    10000.00
04679             -36.00    10000.00
04680             -32.00    10200.00
04681             -12.00    10400.00
04682             -58.00    10400.00
04683             -26.00    10400.00
04684              -4.00    10400.00
04685             -58.00    10800.00
04686             -34.00    10600.00
04687             -10.00    11000.00
04688             -44.00    11000.00
04689             -30.00    11000.00
04690             -24.00    11000.00
04691             -58.00    11200.00
04692             -32.00    11200.00
04693               4.00    11200.00
04694             -42.00    11400.00
04695             -56.00    11200.00
04696             -24.00    11600.00
04697             -34.00    11400.00
04698             -32.00    11400.00
04699             -18.00    11600.00
04700             -40.00    11600.00
04701             -42.00    11800.00
04702             -20.00    11800.00
04703             -36.00    11800.00
04704             -44.00    11600.00
04705             -26.00    11800.00
04706             -32.00    11600.00
04707             -36.00    11800.00
04708             -26.00    11800.00
04709             -44.00    11800.00
04710             -44.00    11800.00
04711             -18.00    11800.00
04712             -28.00    11800.00
04713             -42.00    11800.00
04714             -28.00    11600.00
04715             -36.00    11800.00
04716             -36.00    11800.00
04717             -26.00    11800.00
04718             -28.00    11600.00
04719             -40.00    11800.00
04720             -26.00    11600.00
04721             -28.00    11800.00
04722             -36.00    11600.00
04723             -34.00    11600.00
04724             -32.00    11600.00
04725             -32.00    11600.00
04726             -24.00    11600.00
04727             -26.00    11600.00
04728             -36.00    11400.00
04729             -32.00    11200.00
04730             -28.00    11200.00
04731             -34.00    11200.00
04732             -24.00    11200.00
04733             -26.00    11000.00
04734             -34.00    11000.00
04735             -28.00    11000.00
04736             -26.00    11000.00
04737             -34.00    10800.00
04738             -28.00    10600.00
04739             -20.00    10600.00
04740             -28.00    10400.00
04741             -28.00    10400.00
04742             -26.00    10200.00
04743             -28.00    10200.00
04744             -26.00    10000.00
04745             -22.00    10000.00
04746             -26.00    10000.00
04747             -28.00     9600.00
04748             -26.00     9600.00
04749             -26.00     9600.00
04750             -26.00     9400.00
04751             -24.00     9200.00
04752             -26.00     9200.00
04753             -24.00     9200.00
04754             -20.00     8800.00
04755             -26.00     8800.00
04756             -26.00     8600.00
04757             -24.00     8600.00
04758             -22.00     8400.00
04759             -18.00     8400.00
04760             -18.00     8000.00
04761             -24.00     8000.00
04762             -24.00     7800.00
04763             -22.00     7800.00
04764             -20.00     7600.00
04765             -16.00     7400.00
04766             -18.00     7200.00
04767             -20.00     7200.00
04768             -18.00     7000.00
04769             -18.00     6800.00
04770             -20.00     6600.00
04771             -18.00     6400.00
04772             -16.00     6400.00
04773             -12.00     6200.00
04774             -12.00     6000.00
04775             -16.00     6000.00
04776             -18.00     5600.00
04777             -14.00     5400.00
04778              -8.00     5400.00
04779             -10.00     5200.00
04780             -14.00     5200.00
04781             -12.00     4800.00
04782             -12.00     4800.00
04783             -12.00     4400.00
04784             -10.00     4200.00
04785             -10.00     4000.00
04786              -8.00     3800.00
04787              -4.00     3600.00
04788              -8.00     3600.00
04789             -10.00     3400.00
04790              -8.00     3200.00
04791              -6.00     3000.00
04792              -4.00     2800.00
04793              -2.00     2800.00
04794              -4.00     2400.00
04795              -8.00     2400.00
04796              -4.00     2200.00
04797              -4.00     2000.00
04798              -4.00     1600.00
04799               0.00     1600.00
04800               0.00     1200.00
04801              -2.00     1200.00
04802              -2.00     1000.00
04803              -2.00      800.00
04804               0.00      600.00
04805               0.00      400.00
04806               6.00        0.00
04807               8.00     -200.00
04808               6.00     -200.00
04809              12.00     -400.00
04810              36.00     -400.00
04811              12.00     -800.00
04812             -20.00    -1000.00
04813              -4.00    -1000.00
04814              28.00    -1200.00
04815              28.00    -1400.00
04816              44.00    -1600.00
04817             226.00    -1800.00
04818             252.00    -2400.00
04819            -248.00    -2800.00
04820            -248.00    -2800.00
04821             -42.00    -2800.00
04822             252.00    -2800.00
04823             252.00    -2600.00
04824             252.00    -3400.00
04825            -248.00    -3600.00
04826            -248.00    -2800.00
04827             252.00    -4200.00
04828             252.00    -3800.00
04829            -248.00    -3600.00
04830            -232.00    -5000.00
04831             172.00    -4200.00
04832             252.00    -4600.00
04833             138.00    -5200.00
04834            -248.00    -4600.00
04835            -146.00    -5200.00
04836             252.00    -5600.00
04837             240.00    -5200.00
04838            -128.00    -5800.00
04839            -248.00    -5800.00
04840              68.00    -6000.00
04841             252.00    -6400.00
04842              76.00    -6400.00
04843            -230.00    -6600.00
04844            -158.00    -6800.00
04845             222.00    -6800.00
04846             236.00    -7200.00
04847            -116.00    -7200.00
04848            -154.00    -7600.00
04849              24.00    -7400.00
04850             182.00    -7600.00
04851              92.00    -7800.00
04852            -110.00    -7800.00
04853             -44.00    -8200.00
04854              88.00    -8400.00
04855             104.00    -8400.00
04856              -8.00    -8600.00
04857             -58.00    -8600.00
04858              46.00    -8800.00
04859             100.00    -9000.00
04860              30.00    -9000.00
04861             -40.00    -9000.00
04862              -8.00    -9200.00
04863              78.00    -9600.00
04864              76.00    -9600.00
04865               4.00    -9600.00
04866             -20.00    -9800.00
04867              30.00   -10000.00
04868              62.00   -10000.00
04869              28.00   -10000.00
04870               4.00   -10200.00
04871              24.00   -10200.00
04872              44.00   -10400.00
04873              38.00   -10600.00
04874              20.00   -10600.00
04875               8.00   -10600.00
04876              30.00   -10800.00
04877              46.00   -10800.00
04878              30.00   -10800.00
04879              16.00   -11000.00
04880              22.00   -11200.00
04881              28.00   -11200.00
04882              32.00   -11200.00
04883              28.00   -11200.00
04884              24.00   -11400.00
04885              36.00   -11400.00
04886              38.00   -11400.00
04887              18.00   -11400.00
04888              20.00   -11600.00
04889              32.00   -11400.00
04890              36.00   -11600.00
04891              32.00   -11600.00
04892              28.00   -11600.00
04893              24.00   -11800.00
04894              22.00   -11800.00
04895              30.00   -11800.00
04896              30.00   -11600.00
04897              30.00   -11600.00
04898              34.00   -11800.00
04899              32.00   -11800.00
04900              28.00   -11800.00
04901              22.00   -11800.00
04902              24.00   -12000.00
04903              30.00   -11800.00
04904              38.00   -11600.00
04905              32.00   -11800.00
04906              24.00   -11600.00
04907              24.00   -11800.00
04908              26.00   -11600.00
04909              28.00   -11800.00
04910              32.00   -11600.00
04911              30.00   -11600.00
04912              28.00   -11600.00
04913              28.00   -11600.00
04914              26.00   -11600.00
04915              24.00   -11600.00
04916              28.00   -11600.00
04917              30.00   -11400.00
04918              32.00   -11400.00
04919              30.00   -11400.00
04920              28.00   -11400.00
04921              22.00   -11400.00
04922              24.00   -11200.00
04923              30.00   -11200.00
04924              28.00   -11200.00
04925              30.00   -10800.00
04926              26.00   -10800.00
04927              24.00   -10800.00
04928              24.00   -10800.00
04929              22.00   -10800.00
04930              24.00   -10600.00
04931              30.00   -10600.00
04932              28.00   -10400.00
04933              22.00   -10400.00
04934              20.00   -10400.00
04935              22.00   -10400.00
04936              24.00   -10000.00
04937              28.00   -10000.00
04938              26.00    -9800.00
04939              20.00    -9800.00
04940              18.00    -9600.00
04941              20.00    -9600.00
04942              20.00    -9400.00
04943              22.00    -9400.00
04944              20.00    -9200.00
04945              20.00    -9200.00
04946              20.00    -8800.00
04947              16.00    -8800.00
04948              14.00    -8800.00
04949              14.00    -8800.00
04950              20.00    -8400.00
04951              20.00    -8400.00
04952              16.00    -8200.00
04953              14.00    -8000.00
04954              12.00    -8000.00
04955              12.00    -7800.00
04956              16.00    -7600.00
04957              14.00    -7400.00
04958              14.00    -7200.00
04959              14.00    -7200.00
04960              12.00    -7200.00
04961               8.00    -6800.00
04962              12.00    -6600.00
04963              12.00    -6600.00
04964              14.00    -6400.00
04965              12.00    -6000.00
04966               8.00    -6000.00
04967               6.00    -5600.00
04968               6.00    -5400.00
04969               8.00    -5400.00
04970              12.00    -5200.00
04971              12.00    -5200.00
04972               8.00    -5000.00
04973               4.00    -4800.00
04974               4.00    -4600.00
04975               2.00    -4400.00
04976               4.00    -4200.00
04977               8.00    -4000.00
04978               6.00    -3800.00
04979               6.00    -3600.00
04980               4.00    -3600.00
04981              -2.00    -3400.00
04982               0.00    -3200.00
04983               4.00    -3000.00
04984               6.00    -2800.00
04985               4.00    -2600.00
04986              -2.00    -2400.00
04987               0.00    -2200.00
04988              -2.00    -2000.00
04989              -2.00    -1800.00
04990               0.00    -1600.00
04991               2.00    -1400.00
04992              -2.00    -1200.00
04993              -4.00    -1000.00
04994              -8.00     -800.00
04995              -4.00     -800.00
04996              -6.00     -400.00
04997              -4.00     -400.00
04998              -2.00     -200.00
04999               0.00        0.00
05000               4.00      400.00
